time,Fp1,Fpz,Fp2,AF3,AF4,F7,F5,F3,F1,Fz,F2,F4,F6,F8,FT7,FC5,FC3,FC1,FCz,FC2,FC4,FC6,FT8,T7,C5,C3,C1,Cz,C2,C4,C6,T8,TP7,CP5,CP3,CP1,CPz,CP2,CP4,CP6,TP8,P7,P5,P3,P1,Pz,P2,P4,P6,P8,PO7,PO5,PO3,POz,PO4,PO6,PO8,CB1,O1,Oz,O2,CB2
0.0,4757172.107696533,4674220.561981201,4379382.610321045,4002586.3647460938,3907326.2214660645,4156917.095184326,3746479.5112609863,3681200.2658843994,3709937.09564209,3543911.2186431885,3408461.570739746,3507313.013076782,3256880.283355713,4026293.2777404785,3460319.5190429688,3383309.841156006,3558329.5822143555,3698483.943939209,3094251.6326904297,2658328.056335449,3106803.8940429688,2387777.090072632,2648794.412612915,3288345.8137512207,2480447.292327881,2437277.5554656982,2845487.356185913,1920294.2848205566,2218221.1875915527,2554629.325866699,2592401.5045166016,2316932.439804077,2732636.2133026123,2444241.523742676,2448151.8268585205,2211544.5137023926,2393296.718597412,2364636.6596221924,2208572.8645324707,2292097.0916748047,2178534.746170044,2722419.261932373,2751518.964767456,2442458.8680267334,1957490.32497406,2744373.7983703613,2688112.497329712,2315001.4877319336,2093031.406402588,2476299.524307251,2576960.563659668,2572234.630584717,2580352.544784546,1852750.301361084,2195003.9863586426,2108899.8317718506,2059014.7972106934,2594502.9258728027,2575966.3581848145,2663507.4615478516,1960324.764251709,2166157.4840545654
0.005,-7900839.805603027,-7008235.931396484,-37500476.8371582,10017714.500427246,1501537.799835205,-914004.9815177917,7312179.088592529,7896254.062652588,5317190.647125244,2575911.045074463,-569168.6272621155,-1153595.209121704,-8621876.71661377,-6347513.675689697,1745711.8034362793,5527077.198028564,5071971.416473389,6680297.8515625,4308062.553405762,1405606.1506271362,-4317082.405090332,-10129043.579101562,-10240152.359008789,1628881.9313049316,592339.6944999695,-1842274.54662323,309900.76065063477,-277299.1359233856,-1852777.123451233,-3996798.9921569824,-6476814.746856689,-14589639.663696289,-7302501.201629639,-4566310.405731201,-3683862.9245758057,2354820.0130462646,603699.266910553,3860006.332397461,-4487954.139709473,-7545526.027679443,-9160273.551940918,-7406426.906585693,-7328658.580780029,-4804432.392120361,-3968457.6988220215,-2800411.2243652344,-2332816.1239624023,-3604457.8552246094,-6797642.707824707,-9441664.695739746,-5527150.1541137695,-6828165.531158447,-5751130.5809021,-797801.3753890991,-2764079.809188843,-4487931.251525879,-4977246.284484863,-5570465.564727783,-5108067.035675049,-3229819.5362091064,-1668288.9461517334,-4500503.063201904
0.01,-11311619.758605957,-10912520.408630371,-49316490.173339844,12001504.898071289,4881072.998046875,-3653902.530670166,8626526.832580566,9470255.851745605,6088841.915130615,5139099.12109375,1855919.599533081,2103069.78225708,-7206652.641296387,-2990518.569946289,69885.84995269775,6389633.655548096,5827816.009521484,7831211.090087891,6993989.944458008,3410175.085067749,-2642772.912979126,-9540307.04498291,-9192045.211791992,-154547.3039150238,372092.96226501465,-2603678.2264709473,-150612.07115650177,3232253.7899017334,-1084815.1445388794,-2889863.967895508,-5353716.850280762,-15928247.451782227,-10080500.602722168,-5786918.163299561,-4564677.2384643555,3562848.3295440674,1821824.312210083,4807841.777801514,-3726706.7432403564,-7797606.468200684,-9763612.747192383,-10183399.200439453,-10129339.218139648,-6006606.578826904,-4315402.984619141,-2204723.119735718,-1744745.7313537598,-2755130.7678222656,-7272996.90246582,-11668861.389160156,-6444443.702697754,-8169878.959655762,-6683892.250061035,911677.4797439575,-1877938.5089874268,-4452690.601348877,-6137468.8148498535,-6579427.719116211,-5894999.5040893555,-2880019.6647644043,-329605.46016693115,-4052257.537841797
0.015,-7043501.377105713,-8336617.469787598,-39808185.57739258,11239905.35736084,9061997.413635254,1146322.6079940796,9035332.679748535,9713378.90625,6718791.0079956055,8633662.223815918,6255046.367645264,7144006.252288818,-387361.88411712646,6314484.596252441,2958303.928375244,8450156.211853027,6583339.691162109,8071527.481079102,8850466.72821045,5887076.854705811,1855031.2519073486,-3080745.4586029053,-2510592.6990509033,2318437.8147125244,3457637.071609497,242683.3063364029,865992.00963974,9456713.676452637,1126248.4788894653,392910.83812713623,6689.070258289576,-9110953.330993652,-4848529.33883667,-1596623.5399246216,-589892.3873901367,5068751.811981201,3417765.1405334473,4364482.402801514,-371256.35147094727,-3611778.0208587646,-4749311.923980713,-4916052.341461182,-4941376.686096191,-1698806.2858581543,-868621.8857765198,900391.2806510925,915260.7321739197,110970.21400928497,-3279796.838760376,-7070277.690887451,-580738.9616966248,-2019889.5931243896,-715810.6565475464,5657887.4588012695,2105203.151702881,155403.5097360611,-1786775.5889892578,-742617.130279541,-119238.10839653015,2148808.240890503,4643512.725830078,2386905.9085845947
0.02,-2372565.507888794,-5940030.574798584,-38074802.39868164,12376227.378845215,5880852.699279785,16787282.943725586,11783753.395080566,12157802.58178711,8910242.080688477,8324392.318725586,4463233.947753906,3602566.2422180176,-4205922.1267700195,4953198.9097595215,14040002.822875977,14641580.581665039,8981960.29663086,10037367.820739746,7334259.510040283,4395040.988922119,-1597293.9729690552,-5786260.604858398,-6848200.798034668,12554776.191711426,9359541.893005371,3669155.8361053467,1603445.8875656128,11201564.78881836,-768390.5959129333,-3051711.320877075,-2148259.401321411,-10796865.463256836,2893052.339553833,2819364.309310913,3483367.443084717,5449747.085571289,1823739.0518188477,2687664.50881958,-2760943.88961792,-5243420.124053955,-5273429.393768311,2789013.385772705,2732792.854309082,2610615.4918670654,510060.8468055725,-460688.5313987732,-429856.7473888397,-2722541.332244873,-3191450.595855713,-4138710.9756469727,5686920.166015625,4452937.602996826,5545999.526977539,8784621.238708496,3029095.17288208,3352345.9434509277,3615488.290786743,5685337.066650391,6133379.4593811035,5900582.313537598,8450625.4196167,8516234.397888184
0.025,444672.8527545929,-6728661.060333252,-51099815.368652344,17010643.005371094,-2999875.545501709,37725906.37207031,17267396.926879883,17490280.151367188,13073684.692382812,4702823.162078857,-2513916.9692993164,-6300295.352935791,-18132860.18371582,-7338936.805725098,28470888.137817383,22800525.665283203,13283836.364746094,14422086.715698242,4420764.446258545,168459.77306365967,-10255377.769470215,-17003349.30419922,-21299831.39038086,25787231.4453125,14498854.637145996,5106960.773468018,1983042.2401428223,7458838.939666748,-4867930.4122924805,-10216828.346252441,-10810530.662536621,-21033960.342407227,7175855.63659668,3919226.4080047607,4477730.751037598,4891722.202301025,-821220.4575538635,1581459.403038025,-8476407.051086426,-11436875.343322754,-10968001.365661621,7010439.395904541,7035580.635070801,3396562.5762939453,-1585949.3017196655,-4987779.140472412,-3609496.1166381836,-8356246.9482421875,-6272970.199584961,-4248799.3240356445,7469063.282012939,6057790.279388428,7219502.925872803,8821819.305419922,1121414.7806167603,4202974.796295166,6885991.57333374,7752765.655517578,8073840.141296387,6187712.669372559,9314699.172973633,10795104.98046875
0.03,3522712.469100952,-9138258.934020996,-61949485.778808594,21680242.53845215,-9095951.080322266,52468376.15966797,21966445.922851562,22254684.448242188,17091985.70251465,2300946.7124938965,-6792777.538299561,-11914337.158203125,-28393686.294555664,-16689199.447631836,36612773.89526367,27270126.342773438,17396959.30480957,18575227.737426758,3918131.8283081055,-1982906.5799713135,-13385457.992553711,-24107696.533203125,-31496294.021606445,32837131.50024414,15603043.556213379,5056520.938873291,3065992.832183838,4008881.5689086914,-5457006.931304932,-11942808.151245117,-16075284.957885742,-27327714.920043945,6365151.882171631,2952659.3685150146,3637388.4677886963,4882310.86730957,-139649.71899986267,2270122.0512390137,-9424309.730529785,-13789002.418518066,-13818525.314331055,6267480.850219727,6388517.379760742,2243707.6568603516,-2990236.759185791,-5534120.559692383,-2025115.4899597168,-8438981.056213379,-6590785.980224609,-4203769.683837891,5018738.746643066,3439650.058746338,4800177.097320557,8574320.793151855,1193424.3440628052,5097880.840301514,6550880.432128906,5478350.1625061035,5776906.490325928,5138760.566711426,8628424.644470215,9529731.750488281
0.035,5907444.477081299,-11925837.516784668,-61995437.62207031,22603847.50366211,-9947975.158691406,55164039.611816406,22638868.33190918,23078365.325927734,18225372.314453125,2620534.1815948486,-6062929.630279541,-11059752.464294434,-30483089.447021484,-17602592.46826172,35384620.666503906,25993190.76538086,18809087.7532959,19465707.778930664,5561224.460601807,-1381341.814994812,-10631684.303283691,-24056867.599487305,-33574825.286865234,31197799.682617188,13538624.76348877,5537127.494812012,4422691.345214844,4555197.715759277,-3173672.676086426,-9015415.19165039,-16396665.573120117,-27485460.28137207,3151782.989501953,2775993.1087493896,3593223.0949401855,5786281.108856201,2751784.086227417,3177552.4616241455,-6555015.087127686,-12420939.445495605,-13813519.477844238,3258833.408355713,3319547.176361084,2177832.3650360107,-1020063.9963150024,-982538.3424758911,3515472.412109375,-3990600.109100342,-5486974.716186523,-5722465.991973877,1389796.0186004639,-52616.39505624771,1433104.2766571045,10029541.969299316,3376471.2810516357,4760573.863983154,1495961.1892700195,1804889.9173736572,2152449.369430542,3944619.655609131,6881514.549255371,5318399.429321289
0.04,4523583.889007568,-14489066.123962402,-60505744.93408203,20302019.119262695,-10300193.786621094,51238632.20214844,20081272.12524414,20599969.8638916,16216501.235961914,2943718.194961548,-5362833.499908447,-11097217.559814453,-32400600.43334961,-17491928.100585938,31253681.182861328,22729576.110839844,17257238.388061523,17264400.482177734,5801723.957061768,-1791873.812675476,-11294898.986816406,-25425060.272216797,-36614227.294921875,27403999.32861328,11841834.06829834,6695847.988128662,4236610.889434814,6462943.553924561,-3788811.9220733643,-10193578.720092773,-18791400.909423828,-30441850.662231445,1244475.3646850586,3746367.931365967,4568031.311035156,6207723.140716553,2874108.7913513184,1833502.5310516357,-7958633.899688721,-14614303.588867188,-17476139.068603516,1496573.2097625732,1335928.6785125732,3368676.6624450684,1591366.4102554321,2194749.8321533203,5453011.035919189,-3963683.605194092,-9036028.861999512,-11954680.442810059,-733442.6641464233,-1969892.978668213,-445740.6997680664,11484570.503234863,2897941.1125183105,491913.88487815857,-6192820.5490112305,-409526.4673233032,-34490.99138379097,2020188.570022583,3900474.3099212646,-430043.488740921
0.045,964833.8556289673,-14187709.80834961,-63003704.07104492,18257606.506347656,-11856849.670410156,49504856.10961914,17723537.44506836,18195358.276367188,13667943.000793457,1892593.502998352,-7122001.171112061,-14550295.82977295,-36979965.20996094,-19493181.228637695,30935113.90686035,21471138.00048828,14849634.170532227,14949739.456176758,3741119.384765625,-4505328.178405762,-17180360.794067383,-30549507.14111328,-42808322.90649414,27582614.89868164,11866177.558898926,6482509.136199951,2047102.928161621,6260869.979858398,-8022819.519042969,-16283075.332641602,-23824060.440063477,-36784194.94628906,2042006.7310333252,3966003.179550171,4734797.00088501,5055776.119232178,-320888.1616592407,-1299368.0238723755,-14007292.747497559,-20093675.61340332,-23343200.68359375,2244266.2715911865,1911787.509918213,3690821.886062622,1137182.7125549316,228622.04909324646,1556795.0010299683,-10045500.755310059,-15332406.044006348,-17930297.8515625,-374264.9257183075,-1626643.7768936157,-141351.3720035553,10698186.874389648,-1166265.368461609,-4459052.562713623,-9790347.0993042,-220.05478967912495,313800.4243373871,286713.74917030334,1859209.5375061035,-3649603.1284332275
0.05,45097.075402736664,-9689176.559448242,-62842456.81762695,18170673.370361328,-11305061.340332031,51698291.77856445,17400344.848632812,17767452.239990234,12912175.178527832,1341094.8514938354,-8005664.825439453,-15751398.086547852,-37355487.82348633,-16977954.864501953,33518348.693847656,21694459.915161133,13540515.899658203,14546158.790588379,2057177.5436401367,-6525537.490844727,-19959819.793701172,-31697729.110717773,-43275630.950927734,30223932.26623535,11636031.150817871,3903431.177139282,-480150.7294178009,4864522.933959961,-10536903.381347656,-18952621.459960938,-24274341.583251953,-36943450.927734375,3591872.215270996,2361432.3139190674,3154893.398284912,3012833.595275879,-2278349.3995666504,-3155693.0541992188,-16388959.884643555,-21011659.622192383,-23047496.795654297,3662678.7185668945,3377648.35357666,2059133.768081665,-1970059.7524642944,-3399304.3899536133,-2066524.9824523926,-14167531.01348877,-16204595.565795898,-16143457.412719727,978043.794631958,-419033.4677696228,897120.8333969116,8057480.812072754,-4280910.968780518,-4149630.546569824,-5471068.382263184,1400387.167930603,1642791.1520004272,130589.94710445404,2887424.7074127197,-2207203.6266326904
0.055,1709402.9188156128,-6095190.048217773,-58684558.8684082,18501937.866210938,-9216925.621032715,53422485.3515625,18010780.334472656,18317565.91796875,13494022.369384766,1899340.271949768,-6991874.694824219,-13228852.272033691,-32544464.111328125,-8794990.539550781,34252967.834472656,20949161.529541016,13368039.13116455,15125080.108642578,1931841.8502807617,-6500903.129577637,-16899797.439575195,-27281557.083129883,-36655776.97753906,30567182.540893555,9678060.531616211,968384.9215507507,-1893266.9162750244,4996722.69821167,-9566072.463989258,-16117767.333984375,-20048887.252807617,-30634218.215942383,2842894.5541381836,4988.550208508968,904893.3386802673,1410020.2322006226,-1093056.9171905518,-2603359.2224121094,-13003707.885742188,-17287422.18017578,-17547969.818115234,2876824.378967285,2760581.7317962646,-383975.95286369324,-4710536.003112793,-5165729.04586792,-1635047.5549697876,-12761580.467224121,-12069390.296936035,-10657143.592834473,19359.376281499863,-1441438.5557174683,-350373.20852279663,4928936.48147583,-5054917.812347412,-695407.5694084167,67262.33661174774,172520.84612846375,501875.1621246338,-743734.4789505005,3808562.5171661377,-1259655.237197876
0.06,1420692.0862197876,-9815491.676330566,-60453128.814697266,17579811.096191406,-11376379.013061523,53044429.779052734,18061187.744140625,18379596.710205078,13569527.626037598,1112819.3140029907,-8342148.780822754,-13706565.856933594,-32101184.844970703,-4729805.946350098,32526924.13330078,19624515.533447266,13451631.546020508,14936006.546020508,1310284.8529815674,-7176393.508911133,-16010587.692260742,-26692211.151123047,-34708286.28540039,28405982.971191406,7646633.625030518,370119.69089508057,-2449689.6266937256,6396422.863006592,-9805233.9553833,-15938254.356384277,-20814985.275268555,-30300725.93688965,-483246.95229530334,-1297562.837600708,-351604.31265830994,728667.7956581116,-163783.07342529297,-2149480.3428649902,-12117689.13269043,-18601797.103881836,-18061744.689941406,-403790.6527519226,-465921.90861701965,-1836736.6790771484,-5744163.990020752,-6545247.0779418945,-1299855.11302948,-12541433.334350586,-13034493.446350098,-13296753.883361816,-4620599.269866943,-6107923.0308532715,-5081405.6396484375,1433701.992034912,-8088745.1171875,-2872233.8676452637,-3167750.835418701,-5033194.065093994,-4449222.564697266,-5996553.421020508,-877822.0415115356,-7347959.518432617
0.065,-1138536.2148284912,-17581529.61730957,-69674858.09326172,16024448.39477539,-17795204.162597656,53373851.77612305,17557001.1138916,17912908.55407715,12649925.231933594,-1793985.9628677368,-13070283.889770508,-19220115.661621094,-38741355.895996094,-7929817.676544189,31599430.084228516,19775993.34716797,13417677.879333496,13920305.252075195,-668134.3913078308,-9686798.095703125,-21011413.57421875,-32984466.552734375,-41802982.330322266,27316158.294677734,7588730.812072754,1951514.9593353271,-2924102.306365967,6608295.440673828,-13269766.807556152,-21670970.916748047,-28994695.66345215,-39235595.703125,-3142927.408218384,-917554.2593002319,-76347.4851846695,791650.8913040161,-1680385.4703903198,-3791486.0248565674,-17653329.849243164,-27219192.504882812,-26823896.408081055,-3056193.3517456055,-3241010.1890563965,-1626872.5395202637,-5855516.9105529785,-9032908.43963623,-4563666.820526123,-17751426.696777344,-21985656.73828125,-24337165.83251953,-9546322.8225708,-11138504.028320312,-9972297.668457031,-1954430.4609298706,-14946823.120117188,-11907515.525817871,-13550128.936767578,-10370587.348937988,-9611230.850219727,-13490002.632141113,-9629705.429077148,-17265069.96154785
0.07,-1045176.2676239014,-17779834.747314453,-70914337.15820312,15091345.78704834,-18960050.582885742,53907646.17919922,16679180.145263672,17068117.141723633,11451911.926269531,-3334963.321685791,-14665210.723876953,-20683248.51989746,-39802673.33984375,-4888659.477233887,31740163.803100586,20198514.938354492,12856301.307678223,12865168.571472168,-1488089.2038345337,-10244925.498962402,-23202348.709106445,-34360042.572021484,-43766876.220703125,27658010.482788086,8134628.2958984375,2706192.970275879,-3485473.6328125,5010378.837585449,-14626732.82623291,-24371721.267700195,-32648017.88330078,-42594345.09277344,-2745497.465133667,-88886.64841651917,613741.3382530212,1348538.2795333862,-2793194.7708129883,-5624894.142150879,-21217920.303344727,-31542982.10144043,-30509967.803955078,-2690161.943435669,-2991105.556488037,-808147.7880477905,-5711495.399475098,-10067483.901977539,-7349170.684814453,-21727066.040039062,-28249685.287475586,-29784830.09338379,-10364970.207214355,-12018281.936645508,-10763843.536376953,-3061336.5173339844,-19511623.38256836,-17894403.4576416,-18556024.5513916,-11124110.221862793,-10473952.293395996,-16318689.346313477,-13846457.481384277,-20535327.911376953
0.075,2215309.3814849854,-6042669.773101807,-54639003.75366211,13902794.83795166,-9137948.989868164,47907150.26855469,14144859.313964844,14566570.281982422,9553877.830505371,-1030434.6084594727,-8730260.848999023,-11626511.573791504,-25960783.004760742,15384435.653686523,28260622.024536133,16343580.24597168,10324576.377868652,11055329.322814941,326741.099357605,-6180888.1759643555,-15802551.26953125,-22381425.857543945,-28808330.535888672,24711034.774780273,5357784.271240234,7257.3586367070675,-4486260.414123535,3406119.5850372314,-10028127.670288086,-17562225.341796875,-23394311.904907227,-30263746.26159668,-2116558.790206909,-1326809.287071228,-599119.0075874329,1543630.1231384277,-980769.9918746948,-4954682.350158691,-15728341.102600098,-24056108.474731445,-20637182.235717773,-2049434.9002838135,-2282348.6328125,-1795233.6072921753,-5734401.226043701,-8068729.400634766,-5149174.690246582,-18252607.345581055,-24446336.74621582,-22872108.459472656,-8573254.585266113,-10071216.583251953,-8982154.846191406,-1327665.6866073608,-17741216.6595459,-15123812.675476074,-13166386.604309082,-9033516.883850098,-8624290.466308594,-13356384.27734375,-10419858.932495117,-15217224.12109375
0.08,1769703.1497955322,6995106.220245361,-35196739.196777344,10330421.447753906,3213374.376296997,31778280.25817871,8785815.238952637,9199605.941772461,5510060.787200928,2026926.9943237305,-1204463.005065918,-128712.32628822327,-7965671.539306641,41674343.10913086,17969638.82446289,6462221.622467041,4827346.324920654,6943255.424499512,2077947.6165771484,-1454063.2963180542,-6523804.664611816,-7653545.379638672,-8060962.677001953,15059706.687927246,-2507618.188858032,-5839197.158813477,-6734209.5375061035,3177922.9640960693,-4490438.461303711,-9181819.915771484,-11013000.48828125,-14811175.346374512,-6698692.321777344,-6458556.652069092,-5534407.615661621,-49015.66356420517,1224880.337715149,-2823743.3433532715,-7954621.7918396,-14630573.272705078,-8609740.257263184,-6611971.378326416,-6649039.745330811,-6590879.440307617,-7161050.796508789,-6734930.515289307,-1411907.0768356323,-13001777.648925781,-18989873.8861084,-15607807.159423828,-10851003.646850586,-12103507.995605469,-11262876.510620117,-375810.08672714233,-15600153.923034668,-11849389.07623291,-8215084.075927734,-11240062.713623047,-10857265.47241211,-12575186.729431152,-7681414.1273498535,-12549798.965454102
0.085,-6246839.0464782715,8700160.026550293,-32323989.868164062,4532020.568847656,5799744.129180908,13281142.234802246,2249324.321746826,2540993.6904907227,-206678.3756017685,1523532.1521759033,-528706.3121795654,1927946.925163269,-2741737.6041412354,53672771.45385742,4798515.796661377,-4641672.134399414,-1776781.678199768,1192918.6582565308,921161.6516113281,-1556561.4700317383,-6396578.311920166,-5508052.825927734,-1220118.4034347534,2232464.075088501,-12412281.036376953,-11964468.002319336,-9904040.336608887,3926524.1622924805,-4706701.755523682,-9812427.520751953,-9674375.534057617,-13565917.015075684,-17100860.595703125,-14157785.415649414,-13068603.515625,-3452578.067779541,376605.21268844604,-2365190.7444000244,-8400393.48602295,-15963704.109191895,-9543272.972106934,-17087682.723999023,-17018892.288208008,-14122684.478759766,-10570790.29083252,-9589607.238769531,-2184165.7161712646,-14668867.111206055,-22641935.348510742,-20424909.591674805,-19859334.94567871,-21056198.120117188,-20229858.3984375,-3530060.7681274414,-20053691.864013672,-17150964.736938477,-14121836.66229248,-20467355.728149414,-19805711.74621582,-19688064.575195312,-13429921.15020752,-20870697.021484375
0.09,-14972411.155700684,838596.6420173645,-43183425.90332031,125459.99884605408,-517349.1835594177,4835746.765136719,-1500195.1456069946,-1401719.2125320435,-4091108.3221435547,-1058946.7287063599,-5016216.75491333,-3554560.422897339,-9271947.860717773,49803886.41357422,-3202994.8234558105,-9846560.47821045,-5406244.277954102,-2636130.0945281982,-1236358.0465316772,-5099885.940551758,-12469259.262084961,-13165808.67767334,-8457849.502563477,-5916436.195373535,-18828454.971313477,-15028896.33178711,-11777629.852294922,5015337.4671936035,-8539527.893066406,-15791204.452514648,-16672571.182250977,-22504709.243774414,-26553453.44543457,-19737422.943115234,-18647422.790527344,-6048602.58102417,-2128303.289413452,-3594982.624053955,-14509127.616882324,-23668348.31237793,-19370664.596557617,-26636556.62536621,-26670379.638671875,-19713054.656982422,-13677497.863769531,-13601126.670837402,-5858530.044555664,-20067523.956298828,-30513172.149658203,-30465282.440185547,-29087825.775146484,-30426910.400390625,-29358461.380004883,-7936953.544616699,-26608556.747436523,-25187292.098999023,-24165773.391723633,-29879194.259643555,-28901247.024536133,-28450574.87487793,-22268451.690673828,-32287586.212158203
0.095,-15457210.540771484,-3950679.063796997,-48013114.92919922,493972.3312854767,-3621416.8071746826,9197866.439819336,-268116.3251399994,-248707.39877223969,-3213091.8502807617,-338831.8717479706,-5469040.393829346,-4223893.642425537,-11681958.198547363,47310615.53955078,-2159554.0046691895,-7128522.872924805,-3939347.505569458,-1794410.7055664062,-372004.3897628784,-5700995.445251465,-12599740.982055664,-14746276.85546875,-12221496.58203125,-5230448.246002197,-18731740.951538086,-13587924.003601074,-10632433.891296387,6702852.725982666,-8432682.991027832,-15044415.473937988,-17510194.778442383,-23771192.55065918,-28079750.061035156,-19209629.05883789,-18175109.86328125,-5198936.462402344,-2414425.1346588135,-3360118.3891296387,-14730454.444885254,-23451467.514038086,-21726606.369018555,-28084043.502807617,-28321521.759033203,-19190896.98791504,-13345210.075378418,-13610500.33569336,-5735329.151153564,-18808940.887451172,-29700857.162475586,-30596143.72253418,-30642845.153808594,-32079299.926757812,-30791223.526000977,-7927246.09375,-25425521.850585938,-23732427.5970459,-24423978.805541992,-31424194.3359375,-30355815.887451172,-29074117.66052246,-23332242.965698242,-34081245.42236328
0.1,-9270494.46105957,102878.80897521973,-39471069.3359375,4351081.371307373,2109711.4086151123,16733287.811279297,3507142.3053741455,3659759.759902954,687207.5200080872,4385435.104370117,718926.8469810486,3777941.4653778076,-3687271.1181640625,55639686.584472656,3696319.103240967,-1411272.644996643,-65145.52980661392,1943999.7673034668,3173583.0307006836,-1723107.933998108,-4471891.8800354,-5895282.26852417,-4660524.368286133,470930.0100803375,-14460885.047912598,-9598241.806030273,-7875329.494476318,9021095.275878906,-3317848.6824035645,-6322774.887084961,-8894755.363464355,-14031232.833862305,-22938327.78930664,-14058094.97833252,-12970226.287841797,-2060695.6481933594,-340480.9236526489,-658381.5813064575,-6845323.56262207,-14000904.083251953,-13452763.557434082,-22675609.588623047,-23047662.73498535,-13976660.72845459,-10088848.114013672,-10802597.045898438,-1255993.7238693237,-10556106.567382812,-20669155.12084961,-21690460.205078125,-25958057.403564453,-27367887.496948242,-26076904.296875,-3883097.6486206055,-17718051.91040039,-14559835.433959961,-15791626.930236816,-26754465.103149414,-25782501.220703125,-23042747.497558594,-17517024.993896484,-28172199.249267578
0.105,-6276841.640472412,5327534.6755981445,-31210332.8704834,6401175.022125244,8500991.821289062,17295738.220214844,4921875.953674316,5264174.938201904,2441998.9585876465,7073173.999786377,5555505.275726318,10410169.60144043,3480777.7404785156,64312705.993652344,6535087.108612061,678507.6856613159,1171601.7723083496,3630601.406097412,4457098.484039307,1094994.068145752,1134568.8104629517,510922.55115509033,2280678.7490844727,3410827.398300171,-11684124.946594238,-7391657.35244751,-6919315.338134766,10572062.492370605,-236840.93356132507,-1299349.069595337,-3413816.452026367,-8690306.663513184,-19424558.639526367,-10597012.519836426,-9368157.386779785,-967488.2888793945,550570.3091621399,1440282.4640274048,-1395016.9086456299,-9227253.913879395,-8662377.35748291,-18947141.647338867,-19368404.388427734,-10494742.393493652,-8197526.931762695,-11122364.044189453,804830.9683799744,-6624035.358428955,-17590114.59350586,-19461421.966552734,-24238006.591796875,-25677007.6751709,-24500789.642333984,-2591314.0773773193,-15459191.32232666,-12414651.870727539,-13280409.812927246,-25243835.44921875,-24350856.78100586,-21583219.528198242,-16851383.209228516,-28285997.39074707
0.11,-11438744.54498291,2890376.8062591553,-35919643.40209961,3012859.344482422,6103281.021118164,10558621.406555176,1586746.8118667603,1960291.2664413452,-919787.2281074524,3001096.725463867,2068814.0392303467,6797820.568084717,-660700.7384300232,61254913.330078125,2710121.3932037354,-3076383.113861084,-2404617.7864074707,371296.9422340393,565398.7526893616,-1980345.2491760254,-3383782.6251983643,-5370937.824249268,-2994126.319885254,-277215.24238586426,-14009871.482849121,-9811160.08758545,-9386011.123657227,9564665.794372559,-3768240.6902313232,-7110050.201416016,-9992231.369018555,-17422374.725341797,-23215999.603271484,-13412907.600402832,-12123573.303222656,-4292633.533477783,-1396242.380142212,389391.0348415375,-5746388.4353637695,-17204803.466796875,-16602544.784545898,-22762638.092041016,-23247957.229614258,-13386194.229125977,-10487475.395202637,-15991113.662719727,-3000567.91305542,-13127939.224243164,-26953893.661499023,-30359127.044677734,-30428728.103637695,-32029998.779296875,-30886577.606201172,-7412400.245666504,-23503250.122070312,-23081010.818481445,-23256567.001342773,-31631904.60205078,-30723628.997802734,-29525596.618652344,-26186746.59729004,-38952163.69628906
0.115,-19640819.549560547,-4950765.132904053,-47845771.78955078,-3543470.1442718506,-2838070.3926086426,3278043.746948242,-4025883.197784424,-3764032.1254730225,-6863799.095153809,-4553821.086883545,-6179135.799407959,-2792402.982711792,-11184360.50415039,50821441.650390625,-4189751.148223877,-9321936.60736084,-7971665.382385254,-5528121.9482421875,-5338591.0987854,-8054601.669311523,-12341590.881347656,-16626094.818115234,-14767737.38861084,-7075616.359710693,-19407783.50830078,-15072815.895080566,-13372879.028320312,6172931.19430542,-9840951.919555664,-16721405.029296875,-21266611.099243164,-30347227.096557617,-31192552.56652832,-20240396.49963379,-19070131.301879883,-9416950.225830078,-3857090.473175049,-2198532.3429107666,-14052300.453186035,-28873266.220092773,-28489152.908325195,-30913877.487182617,-31485828.399658203,-20314002.990722656,-14791928.2913208,-20065292.358398438,-7501189.231872559,-22049285.888671875,-37886146.545410156,-42317913.05541992,-39219146.728515625,-40915187.83569336,-39662673.95019531,-12910719.871520996,-31715141.29638672,-34339698.791503906,-33763942.71850586,-40319580.078125,-39389980.31616211,-38454059.60083008,-35351135.25390625,-48713520.05004883
0.12,-23501768.112182617,-8924514.770507812,-52728183.74633789,-7432829.856872559,-8501132.96508789,503907.2036743164,-7211535.930633545,-7013344.287872314,-10157679.557800293,-8224071.502685547,-10509124.755859375,-8063089.370727539,-16541473.388671875,45799259.185791016,-7509052.276611328,-12822878.83758545,-10780611.038208008,-8977538.108825684,-7725278.854370117,-10871831.893920898,-15945728.302001953,-20984506.607055664,-19788091.6595459,-10218277.931213379,-22328069.68688965,-18336174.01123047,-15504318.237304688,3327745.9144592285,-12000432.968139648,-19746795.654296875,-25072519.302368164,-33263160.705566406,-35444747.92480469,-24373172.760009766,-23445814.13269043,-11726713.180541992,-4039435.386657715,-3169451.7135620117,-16553901.672363281,-31569017.41027832,-31005138.397216797,-35284908.294677734,-35851799.01123047,-24542596.8170166,-16671867.370605469,-18771360.397338867,-6448061.943054199,-22751081.466674805,-37624046.325683594,-42280471.80175781,-42062026.97753906,-43620540.618896484,-42200134.27734375,-11968951.225280762,-29046150.20751953,-32985733.032226562,-31772865.295410156,-42818359.375,-41940391.540527344,-38223510.7421875,-33330497.74169922,-46770824.43237305
0.125,-22124786.376953125,-5780104.637145996,-47436294.55566406,-5941241.264343262,-6964687.824249268,1993094.9211120605,-5991244.792938232,-5731443.881988525,-8659011.840820312,-5694371.700286865,-8508282.661437988,-6321893.692016602,-14350557.327270508,49225421.90551758,-4516387.939453125,-11332354.545593262,-9131722.450256348,-7623322.486877441,-5114507.19833374,-9026243.209838867,-13010704.99420166,-17259729.385375977,-15428189.277648926,-6968432.903289795,-19817968.368530273,-16926702.49938965,-14302031.517028809,4212728.500366211,-9642972.946166992,-15708353.042602539,-20414461.135864258,-25997970.581054688,-32089447.021484375,-22098060.607910156,-21401952.743530273,-9829648.971557617,-1890835.8812332153,-2098124.2656707764,-12305673.599243164,-25107183.4564209,-23631011.962890625,-31902315.139770508,-32366279.60205078,-22407503.128051758,-14450238.227844238,-13900596.618652344,-652111.9475364685,-15603133.201599121,-27780029.296875,-32424335.479736328,-36880599.97558594,-38205505.37109375,-36665786.74316406,-4753782.272338867,-18115591.049194336,-21768379.21142578,-20354146.95739746,-37366504.66918945,-36575920.10498047,-29417081.832885742,-22678432.46459961,-37079105.377197266
0.13,-20327228.546142578,-1975746.1547851562,-41973907.470703125,-2514499.9027252197,-4009264.4691467285,4786094.188690186,-3052448.9879608154,-2710202.693939209,-5430629.253387451,-1897514.820098877,-5681689.262390137,-3630750.894546509,-11583557.12890625,53248348.236083984,1112108.3498001099,-7415285.587310791,-5922864.91394043,-4291292.190551758,-1274623.8708496094,-6669318.675994873,-9760230.06439209,-13526594.161987305,-10040906.90612793,-1126456.4990997314,-14759578.704833984,-13090557.098388672,-11429859.161376953,8419783.592224121,-7060111.045837402,-11690690.994262695,-15597368.240356445,-18871423.721313477,-24690830.23071289,-16450481.414794922,-15855763.43536377,-6614105.224609375,598544.716835022,-992585.9570503235,-7686921.5965271,-18625514.98413086,-15987682.342529297,-24370517.73071289,-24828983.306884766,-16888196.94519043,-10470552.444458008,-10271338.46282959,4359583.377838135,-9103667.259216309,-19365564.346313477,-23701114.654541016,-28697761.53564453,-29911634.44519043,-28373855.590820312,2572492.837905884,-10038117.408752441,-13090291.976928711,-11819491.386413574,-29145616.53137207,-28373645.782470703,-20536466.598510742,-14106947.898864746,-30510431.28967285
0.135,-22377712.24975586,-4671750.545501709,-45196846.00830078,-2591500.5207061768,-6169623.851776123,5900386.810302734,-2733342.409133911,-2365568.8762664795,-5151304.244995117,-2259696.9604492188,-7234560.012817383,-5140552.043914795,-13187089.920043945,52453948.974609375,3406662.4641418457,-5841796.875,-5446114.063262939,-3764490.1275634766,-586109.2805862427,-7266023.635864258,-10208590.507507324,-14326825.141906738,-9894825.93536377,1308998.942375183,-12655794.143676758,-11292222.023010254,-10163787.841796875,11331028.938293457,-7066174.030303955,-11702312.469482422,-15621994.972229004,-18044565.200805664,-20052875.518798828,-13670604.705810547,-13020513.534545898,-5796674.2515563965,1298659.4438552856,-1129098.7730026245,-6765600.681304932,-17502672.19543457,-14109241.485595703,-19576274.871826172,-20247222.900390625,-14060029.029846191,-8565367.698669434,-10468408.584594727,5260552.883148193,-8355788.230895996,-18138534.545898438,-21375225.067138672,-23651155.471801758,-24874431.610107422,-23463493.34716797,5234456.0623168945,-10152095.794677734,-12695062.637329102,-10932669.639587402,-24200981.14013672,-23308620.45288086,-17471008.30078125,-12531641.006469727,-30487804.412841797
0.14,-27545478.82080078,-12339090.347290039,-54240528.10668945,-6961982.727050781,-12162805.557250977,3969101.1905670166,-6011700.15335083,-5637693.881988525,-8720382.690429688,-6124671.459197998,-11803742.408752441,-9131543.159484863,-16752418.518066406,50117263.79394531,367341.7270183563,-8587518.692016602,-8604322.43347168,-7207148.551940918,-3275688.409805298,-9627340.316772461,-12471566.200256348,-16705043.79272461,-13021224.021911621,-1619347.4531173706,-15571999.549865723,-13348589.897155762,-12263175.010681152,8827616.691589355,-8531713.485717773,-13502156.257629395,-17947307.586669922,-21132213.592529297,-21689054.489135742,-16639282.2265625,-15875694.274902344,-8335057.258605957,-839505.5532455444,-1982913.851737976,-8130174.63684082,-19479017.25769043,-15975118.637084961,-21133081.436157227,-22038547.51586914,-16807546.615600586,-10848330.4977417,-14083520.889282227,2779445.6481933594,-11417348.861694336,-21096191.40625,-22931545.25756836,-24567523.956298828,-25789638.51928711,-24538566.58935547,2931939.6018981934,-14824537.27722168,-16514772.415161133,-12904042.24395752,-25267562.866210938,-24163452.1484375,-19832700.729370117,-14838349.342346191,-32894836.42578125
0.145,-30598136.90185547,-16353242.874145508,-58728481.29272461,-10644191.74194336,-14896991.729736328,1100973.129272461,-9062537.19329834,-8687802.3147583,-12030215.2633667,-8145380.020141602,-13839480.40008545,-10435360.9085083,-17323276.51977539,51633644.104003906,-3975985.7654571533,-12399100.303649902,-11628651.61895752,-10559988.021850586,-5603257.179260254,-10349443.435668945,-12913434.982299805,-16683586.120605469,-14293174.743652344,-5968106.746673584,-19927795.41015625,-16732830.047607422,-15872603.416442871,2409028.2917022705,-9020212.173461914,-13666139.602661133,-18409835.815429688,-23158071.517944336,-26835950.85144043,-22081163.40637207,-21278644.561767578,-11968611.717224121,-4683533.668518066,-2414052.2480010986,-8960105.895996094,-20338918.685913086,-17129514.694213867,-26340721.130371094,-27218797.68371582,-22107284.545898438,-15888482.093811035,-19047769.54650879,-674182.1765899658,-14095551.490783691,-23328290.939331055,-24585756.301879883,-29910657.88269043,-31124473.571777344,-29945779.80041504,-1965861.6781234741,-18662416.458129883,-19105403.900146484,-13382852.554321289,-30814512.252807617,-29574296.951293945,-24237903.594970703,-17334468.841552734,-34705486.29760742
0.15,-26989963.53149414,-11103821.754455566,-52813915.25268555,-8818570.137023926,-10331513.404846191,2015857.219696045,-7568776.607513428,-7252681.732177734,-10628318.786621094,-5311201.572418213,-10395661.354064941,-6839915.2755737305,-13365348.815917969,57506557.46459961,-3911647.7966308594,-12247161.865234375,-10217147.827148438,-9222859.382629395,-4591985.702514648,-8271183.967590332,-10495385.16998291,-14077788.352966309,-11416016.578674316,-6139193.534851074,-20496946.334838867,-17459358.21533203,-17131357.192993164,-2008989.0956878662,-7644127.368927002,-11641019.821166992,-16093173.98071289,-21451723.098754883,-29464630.126953125,-24205038.07067871,-23443037.033081055,-13537355.422973633,-7108616.352081299,-1643551.5880584717,-8124732.01751709,-18391120.91064453,-15342383.38470459,-29110351.5625,-29723453.521728516,-24333002.0904541,-19594137.19177246,-22326160.430908203,-2722127.676010132,-14045106.887817383,-22732061.3861084,-24126655.57861328,-34703441.61987305,-35998943.32885742,-34788524.62768555,-6088401.317596436,-19287582.397460938,-18573459.62524414,-12498626.708984375,-35794918.060302734,-34631492.614746094,-26979772.567749023,-18739429.473876953,-35651496.88720703
0.155,-19035196.30432129,-986094.5343971252,-41810779.5715332,-3007675.886154175,-2555362.7014160156,8322730.06439209,-2351403.23638916,-2127470.9701538086,-5403085.231781006,-928127.9444694519,-4599577.903747559,-1370933.2942962646,-7799595.832824707,64008712.76855469,1397395.2531814575,-7615615.8447265625,-5045055.866241455,-4012605.667114258,-1904291.272163391,-5631325.244903564,-7314117.431640625,-11132929.801940918,-6079277.992248535,-1139337.182044983,-16430545.806884766,-14490973.472595215,-14809774.398803711,-1052264.2135620117,-5642411.231994629,-9356197.357177734,-12737105.369567871,-16833351.135253906,-26992149.353027344,-21220851.89819336,-20466629.028320312,-11997051.239013672,-6207167.625427246,175450.33991336823,-6236880.779266357,-14872272.491455078,-11411489.486694336,-26724340.438842773,-27136566.162109375,-21526391.983032227,-19236341.47644043,-22091991.424560547,-2362188.8160705566,-11809326.171875,-20216917.037963867,-21086498.260498047,-34675304.4128418,-36090686.7980957,-34840770.72143555,-6779675.006866455,-17322912.216186523,-15875003.814697266,-11332932.472229004,-35762432.09838867,-34810501.09863281,-25902753.829956055,-18249698.638916016,-34980335.2355957
0.16,-15092847.82409668,4068471.4317321777,-36398033.142089844,338163.67387771606,561712.0265960693,14801308.631896973,964564.0850067139,1182444.69165802,-2097640.037536621,-673971.951007843,-2354918.956756592,950628.8170814514,-4891793.251037598,67704833.984375,6580084.323883057,-3645324.70703125,-1643355.6079864502,-719559.907913208,-1895574.2120742798,-5406446.933746338,-6382104.873657227,-9754983.901977539,-1908322.811126709,4002238.2736206055,-12346885.681152344,-10937385.559082031,-12366523.742675781,2220461.845397949,-5112180.709838867,-9021142.959594727,-10424285.888671875,-13020822.525024414,-23483270.6451416,-17423612.594604492,-16625534.057617188,-9421585.083007812,-4033893.585205078,1594837.9039764404,-5064643.383026123,-12806531.90612793,-8476257.32421875,-23203817.36755371,-23656484.603881836,-17750356.674194336,-16617004.39453125,-20241117.477416992,-1246861.6962432861,-10411386.489868164,-18926773.071289062,-18115371.704101562,-31327157.974243164,-32726333.618164062,-31490604.400634766,-4766974.449157715,-15837406.158447266,-14133834.838867188,-10687719.345092773,-32188858.032226562,-31337831.497192383,-22933853.149414062,-16240150.451660156,-32705738.067626953
0.165,-20020076.751708984,-322872.0426559448,-40936882.01904297,-2403276.205062866,-3844996.690750122,14693908.69140625,-1290810.9426498413,-981193.0060386658,-4416379.928588867,-5419084.072113037,-5758404.731750488,-1576130.2709579468,-6064363.0027771,68110694.8852539,6054450.988769531,-4897284.507751465,-3836451.292037964,-3053710.699081421,-5882018.089294434,-7985202.312469482,-8607976.913452148,-10331472.396850586,-1196432.113647461,3786892.6525115967,-12951890.94543457,-10605392.456054688,-13928751.945495605,2685415.744781494,-6855966.091156006,-11070034.02709961,-9978401.184082031,-13179738.04473877,-24735076.904296875,-18050050.735473633,-17275363.92211914,-8790750.503540039,-4245809.078216553,1084147.0956802368,-6169184.20791626,-14237482.070922852,-9177533.149719238,-24416334.15222168,-25028963.088989258,-18305288.314819336,-15780374.526977539,-20558118.82019043,-2078194.6182250977,-12581035.614013672,-21616182.327270508,-19265201.568603516,-30698804.85534668,-31935506.82067871,-30717277.52685547,-3700955.629348755,-18098316.192626953,-16701747.89428711,-12198683.738708496,-31356512.06970215,-30371307.373046875,-22867553.7109375,-15606183.052062988,-31914300.9185791
0.17,-27807357.788085938,-7984016.895294189,-49025173.18725586,-7153915.882110596,-10476709.365844727,8880964.279174805,-5695510.8642578125,-5352891.92199707,-8863475.799560547,-9589680.671691895,-10461433.410644531,-5469848.155975342,-8587514.877319336,66878738.40332031,1088021.2783813477,-9102803.230285645,-8397499.084472656,-7472998.142242432,-9883968.353271484,-10548295.974731445,-11450188.636779785,-11737433.433532715,-2873630.7621002197,-847815.6328201294,-17039257.049560547,-13366587.63885498,-18666816.71142578,-197924.6288537979,-9180685.997009277,-13418156.623840332,-10437203.407287598,-15923243.522644043,-30159521.102905273,-22520311.35559082,-21853841.78161621,-10546625.137329102,-7002002.239227295,-793796.1220741272,-8731225.01373291,-17336811.065673828,-12146387.100219727,-29820539.474487305,-30517925.262451172,-22820859.909057617,-17544782.638549805,-23554172.51586914,-4721089.839935303,-16905042.64831543,-26527612.686157227,-23937358.856201172,-35045574.18823242,-36169784.54589844,-34944606.78100586,-5138248.443603516,-22954412.46032715,-22307783.126831055,-15786470.413208008,-35761322.021484375,-34563449.85961914,-26867588.04321289,-17993989.944458008,-34515003.2043457
0.175,-28057508.46862793,-9722715.377807617,-51983875.2746582,-6734007.358551025,-12384738.92211914,5798173.904418945,-5499802.112579346,-5264378.547668457,-8603749.27520752,-7613207.817077637,-10734194.7555542,-6483707.904815674,-9671664.237976074,64491783.142089844,-1177367.925643921,-9616514.205932617,-8504444.122314453,-7160109.043121338,-9270294.189453125,-10091938.972473145,-11784008.026123047,-13076553.344726562,-5084028.244018555,-3135557.4131011963,-18641216.278076172,-15155011.177062988,-21452320.098876953,-2404304.9812316895,-9770219.802856445,-13864335.060119629,-10919966.697692871,-17797233.58154297,-32777080.535888672,-25026576.99584961,-24361011.505126953,-12112700.462341309,-8706943.51196289,-1880360.48412323,-10236415.86303711,-18665702.81982422,-13973934.173583984,-32436389.923095703,-33076717.376708984,-25449996.948242188,-18824981.689453125,-25924037.93334961,-6219259.262084961,-19138708.114624023,-28675432.205200195,-26993473.052978516,-39128604.888916016,-40297775.26855469,-39133590.69824219,-6445720.195770264,-25149837.493896484,-25173988.342285156,-17934673.309326172,-40104545.59326172,-38841068.267822266,-30105484.008789062,-20525527.954101562,-37171413.42163086
0.18,-19032815.93322754,-4108900.547027588,-49154373.16894531,336820.0659751892,-9281136.512756348,11173594.47479248,941320.5981254578,1076414.3466949463,-2032392.5018310547,-859982.0137023926,-6615643.02444458,-5312799.93057251,-11204980.850219727,58334182.73925781,3658316.6122436523,-3814936.876296997,-2257724.2851257324,-591038.2866859436,-4593967.914581299,-7151815.414428711,-10324069.97680664,-15929602.62298584,-9430623.054504395,1274543.285369873,-14447319.984436035,-13024800.300598145,-19429708.48083496,-1329249.7396469116,-8896974.563598633,-13544340.133666992,-13199892.044067383,-20073888.778686523,-28529434.204101562,-22159591.674804688,-21290090.560913086,-11206135.749816895,-7284008.502960205,-1739800.4531860352,-10427276.611328125,-19045955.657958984,-15530251.502990723,-28262950.897216797,-28722167.96875,-22551923.751831055,-17810718.536376953,-25835460.662841797,-5562192.440032959,-18542264.938354492,-27261701.583862305,-27146488.189697266,-37846954.345703125,-39077083.587646484,-38111049.65209961,-5717158.317565918,-22927106.857299805,-23270732.879638672,-16878419.876098633,-39034442.90161133,-37858955.38330078,-28878242.49267578,-20377605.438232422,-36447456.35986328
0.185,-9303419.11315918,2002065.896987915,-46384963.98925781,7891460.89553833,-7089385.986328125,21234642.028808594,8026096.343994141,8216512.680053711,5092668.533325195,3689334.3925476074,-3822088.9568328857,-6478649.139404297,-17181768.4173584,46340415.954589844,11818582.534790039,3633144.6170806885,4834260.940551758,6418217.182159424,-975702.6433944702,-5558307.17086792,-10936472.89276123,-22590139.389038086,-18825124.740600586,8857948.303222656,-8047229.766845703,-8843467.712402344,-15570337.295532227,966678.2021522522,-9153581.619262695,-15656515.121459961,-19641054.153442383,-27519958.49609375,-22048158.645629883,-17250688.552856445,-16222486.49597168,-8618286.1328125,-4994851.589202881,-2382941.246032715,-12020274.16229248,-22880758.28552246,-21360000.610351562,-21992755.889892578,-22211484.909057617,-17461626.052856445,-16576112.747192383,-25284910.202026367,-5288827.896118164,-19135070.80078125,-27536436.080932617,-29468421.936035156,-33879398.345947266,-35035533.9050293,-34289714.81323242,-5349971.294403076,-21325582.50427246,-22199766.159057617,-16753429.412841797,-35137390.13671875,-34027866.36352539,-26431383.13293457,-19973567.962646484,-35037944.79370117
0.19,-6657430.171966553,2377090.4541015625,-47135044.09790039,9209357.261657715,-9953748.70300293,27712648.391723633,9571487.426757812,9889852.523803711,6498257.160186768,1381150.245666504,-6419955.253601074,-11555143.356323242,-26457828.521728516,32495395.66040039,16034202.575683594,6536954.879760742,6467747.688293457,7599429.607391357,-2135432.9586029053,-7938532.829284668,-15035441.398620605,-31228872.299194336,-30588428.497314453,12677797.317504883,-5482165.336608887,-6829668.5218811035,-14646047.592163086,1021854.043006897,-11606246.948242188,-20218782.424926758,-27891742.706298828,-38791690.826416016,-20365201.950073242,-15651964.18762207,-14793550.491333008,-6962565.4220581055,-4899682.521820068,-4538083.553314209,-15909196.853637695,-30070814.13269043,-30747547.149658203,-20538085.9375,-20620594.024658203,-15818577.766418457,-17022026.06201172,-25947727.20336914,-6869128.227233887,-22756515.502929688,-32418201.446533203,-36230716.705322266,-33149906.158447266,-34202205.657958984,-33522575.37841797,-7369341.3734436035,-24285806.65588379,-26582599.639892578,-21382974.62463379,-34501731.872558594,-33338481.903076172,-27478225.708007812,-22704118.728637695,-37279140.47241211
0.195,-10539229.393005371,-2453673.6011505127,-49887111.66381836,4087487.6976013184,-15598381.996154785,26798978.805541992,5376544.47555542,5732422.828674316,2078804.9697875977,-5357189.178466797,-12039014.81628418,-16602161.407470703,-32428329.467773438,24723754.8828125,13890355.110168457,3845067.9779052734,2369803.9054870605,2950178.623199463,-6772264.003753662,-12369134.902954102,-19271495.819091797,-36004852.294921875,-36865417.48046875,10557295.799255371,-8208165.168762207,-8554191.589355469,-17618213.653564453,-1699805.8557510376,-14098086.3571167,-23097616.19567871,-31497682.571411133,-44755531.311035156,-23696990.966796875,-18074508.666992188,-17543825.149536133,-7509766.578674316,-6846507.0724487305,-5566292.285919189,-18612102.508544922,-33894783.02001953,-35465488.43383789,-23883882.522583008,-24089694.97680664,-18436407.0892334,-17358282.0892334,-26287208.557128906,-7821062.5648498535,-25243745.803833008,-36924266.81518555,-41302803.03955078,-35477161.4074707,-36609058.38012695,-35867835.998535156,-8481989.860534668,-27717901.2298584,-31909645.080566406,-26520473.48022461,-37098529.81567383,-35824039.459228516,-30128345.489501953,-25864459.991455078,-41073936.462402344
0.2,-15751483.917236328,-7611658.573150635,-52940876.00708008,-1852419.7340011597,-19115953.44543457,21628940.58227539,352189.7494792938,667474.627494812,-3104713.9167785645,-10382068.634033203,-15434342.384338379,-17585527.420043945,-31564186.096191406,25459218.978881836,9549961.09008789,-457649.97601509094,-2514889.2402648926,-2265744.686126709,-10748744.010925293,-14534426.68914795,-20116441.72668457,-34169754.02832031,-34539806.3659668,6628527.641296387,-12230133.056640625,-11746775.62713623,-21433876.037597656,-4980239.8681640625,-14333289.14642334,-21746690.75012207,-28078706.741333008,-40518825.53100586,-26332605.361938477,-20838129.0435791,-20325378.41796875,-9181198.120117188,-8552181.243896484,-3153208.7326049805,-17148674.01123047,-30407934.188842773,-30852663.040161133,-26296377.182006836,-26788251.876831055,-21333145.141601562,-15232903.480529785,-24836332.321166992,-5895453.453063965,-22988859.176635742,-35501625.061035156,-39146919.25048828,-35649471.282958984,-37000911.712646484,-36286815.64331055,-4724352.836608887,-25785758.97216797,-31100067.138671875,-25068067.55065918,-37608768.463134766,-36238491.05834961,-29077711.10534668,-24243223.190307617,-41068164.82543945
0.205,-18520364.76135254,-9500918.3883667,-56495826.721191406,-3587035.4175567627,-19079675.674438477,18067918.77746582,-1241720.3187942505,-927301.7644882202,-4788684.844970703,-10481421.47064209,-14966800.689697266,-15836380.958557129,-28430767.059326172,27847007.751464844,8052317.6193237305,-2255033.9698791504,-3990140.914916992,-3665992.259979248,-11380699.157714844,-12855196.952819824,-18487905.502319336,-30263380.05065918,-30164932.250976562,5572450.637817383,-13318824.768066406,-13455397.605895996,-23041229.248046875,-6866977.691650391,-12949104.309082031,-18958650.588989258,-23320236.206054688,-33366577.1484375,-24988714.21813965,-21067148.208618164,-20181379.318237305,-10072225.570678711,-8868628.50189209,875935.6737136841,-13856005.668640137,-25004684.448242188,-23737575.53100586,-24748353.958129883,-25377567.291259766,-21369405.74645996,-11777477.264404297,-23016723.6328125,-3030136.3468170166,-19119764.32800293,-30595289.23034668,-33774776.458740234,-32260334.014892578,-33661281.58569336,-33151512.145996094,1382505.2976608276,-20250520.706176758,-25387527.465820312,-18161790.84777832,-34362377.16674805,-32908813.4765625,-24551603.317260742,-19054315.5670166,-37865447.998046875
0.21,-17385749.81689453,-8226365.089416504,-59574943.54248047,-1009728.193283081,-18075382.232666016,19644849.77722168,830653.0714035034,1165283.5607528687,-2836947.441101074,-7504585.742950439,-13370732.307434082,-15565916.061401367,-29113790.51208496,24675189.971923828,10320812.225341797,-517988.920211792,-1970195.1742172241,-1324143.648147583,-9021276.473999023,-10017647.743225098,-17584524.154663086,-30097106.93359375,-30832815.170288086,7937933.444976807,-10965223.31237793,-12674604.415893555,-21817770.00427246,-7112170.219421387,-12057201.385498047,-18468122.482299805,-23400560.37902832,-32817008.97216797,-21760831.832885742,-18872995.376586914,-17725778.579711914,-9078125.0,-8146701.812744141,2971639.1563415527,-12959980.964660645,-24633037.567138672,-23181341.17126465,-21522703.170776367,-21997646.33178711,-18861850.73852539,-9515406.608581543,-22177082.061767578,-2084819.5552825928,-18524450.302124023,-28218027.114868164,-32026065.826416016,-29259384.155273438,-30387336.73095703,-30058162.689208984,3719753.5037994385,-17220149.993896484,-21638597.48840332,-13720211.029052734,-31210180.282592773,-29684535.98022461,-21801610.946655273,-16589586.25793457,-36788967.13256836
0.215,-13438362.121582031,-6930740.3564453125,-60144275.6652832,1983773.112297058,-18751098.6328125,24427587.509155273,3571469.0685272217,3836650.609970093,-215477.03444957733,-5269258.975982666,-13429288.864135742,-17935295.10498047,-32998764.038085938,17960107.803344727,13215748.78692627,2533685.2073669434,636402.7261734009,1405301.9285202026,-6062850.9521484375,-9443945.88470459,-18342720.03173828,-33134033.203125,-34404216.76635742,10636183.738708496,-7925803.661346436,-10506457.328796387,-19251317.977905273,-6502790.451049805,-12378398.895263672,-19868797.302246094,-26940532.684326172,-37773811.34033203,-19873237.60986328,-15941980.361938477,-15060048.10333252,-6748312.950134277,-7038742.0654296875,2377067.804336548,-14733654.975891113,-28096929.5501709,-28124464.03503418,-19734218.59741211,-19970317.840576172,-15898358.345031738,-8670811.653137207,-21421977.996826172,-2631671.667098999,-20632198.333740234,-29120779.037475586,-33495311.737060547,-29433149.337768555,-30244312.286376953,-29836812.97302246,946682.5127601624,-18041509.6282959,-22200506.21032715,-15225815.773010254,-31147083.282470703,-29599441.528320312,-23204389.572143555,-19065382.00378418,-39068744.65942383
0.22,-11389522.552490234,-8605450.630187988,-58827575.68359375,1693751.0967254639,-20726694.107055664,25888355.255126953,3608760.356903076,3758388.9961242676,-76028.4811258316,-5707465.171813965,-14963080.406188965,-20142189.025878906,-34535247.802734375,15685368.537902832,12682844.161987305,3026571.51222229,784310.1024627686,1283224.34425354,-5155936.717987061,-11505526.542663574,-19400966.64428711,-34358856.201171875,-33909286.49902344,10009361.267089844,-7660721.302032471,-9316701.889038086,-17938453.674316406,-6107483.386993408,-13421804.428100586,-20827341.079711914,-28587606.43005371,-40289691.92504883,-20925672.53112793,-14783257.484436035,-14416012.76397705,-5306012.153625488,-6732753.276824951,563901.9012451172,-16735170.364379883,-30048608.779907227,-31378585.815429688,-20800107.955932617,-20965318.67980957,-15006247.520446777,-8923717.498779297,-21220621.10900879,-3383773.3268737793,-22462806.701660156,-30815698.623657227,-34752933.502197266,-32367748.260498047,-33213275.909423828,-32532226.5625,-3558652.400970459,-20362344.74182129,-24961772.918701172,-19431007.385253906,-34050563.81225586,-32529647.827148438,-27181638.717651367,-23637485.50415039,-41932857.513427734
0.225,-14991639.137268066,-11651487.350463867,-57674812.31689453,-1637474.2984771729,-20892509.46044922,19738956.451416016,286346.31633758545,449249.62520599365,-2953232.0499420166,-7736916.065216064,-15834392.547607422,-19436523.4375,-30911151.885986328,20935325.622558594,7368822.09777832,-1156226.8733978271,-2140341.5203094482,-1888983.8457107544,-7325004.577636719,-13785338.401794434,-19899898.529052734,-31815620.42236328,-28483062.744140625,4856870.651245117,-11658812.522888184,-11236338.61541748,-20022340.774536133,-6826871.395111084,-15070060.729980469,-21599563.598632812,-27582792.282104492,-38329509.73510742,-25832071.30432129,-18028484.344482422,-17819490.432739258,-6860741.61529541,-8723703.384399414,-2093750.9536743164,-18644226.07421875,-30694911.95678711,-32048927.307128906,-25645973.205566406,-25896717.071533203,-18440237.045288086,-12212421.417236328,-24990873.336791992,-5750103.950500488,-25191940.307617188,-34630187.98828125,-38111865.99731445,-38338130.950927734,-39546741.4855957,-38701477.05078125,-8478181.838989258,-25069339.752197266,-30427688.598632812,-24365776.06201172,-40217964.17236328,-38723270.416259766,-33507129.669189453,-29422817.23022461,-46018257.14111328
0.23,-20465839.385986328,-10486285.209655762,-55430862.42675781,-4223606.109619141,-16790403.366088867,10497541.427612305,-3412861.8240356445,-3096749.5441436768,-6117376.327514648,-9069195.747375488,-14620862.96081543,-15926442.14630127,-24406763.076782227,28748319.625854492,671750.3070831299,-7272414.207458496,-5611500.7400512695,-5101599.69329834,-10975366.592407227,-14255312.9196167,-19705724.716186523,-28096595.764160156,-23560922.622680664,-1730929.8515319824,-17598890.30456543,-15831153.869628906,-24849931.716918945,-8512755.393981934,-16993108.74938965,-23350406.646728516,-27173242.568969727,-36515800.47607422,-33583408.35571289,-25124162.673950195,-24616329.193115234,-10595274.925231934,-12198091.506958008,-5545713.424682617,-21215892.791748047,-33724502.56347656,-34721157.07397461,-33369720.458984375,-33695564.27001953,-25432632.446289062,-19133651.733398438,-32685058.59375,-10338573.455810547,-30711824.417114258,-42223167.419433594,-46193115.234375,-47167205.810546875,-48611045.837402344,-47883480.072021484,-14412987.70904541,-33269104.00390625,-39297023.77319336,-30678836.822509766,-49183044.43359375,-47719200.134277344,-42025379.1809082,-37158847.80883789,-53452255.24902344
0.235,-20187200.54626465,-3450641.15524292,-49548736.572265625,-3415884.017944336,-10125089.645385742,7426235.675811768,-4031936.1686706543,-3642112.970352173,-6549792.289733887,-8711918.830871582,-11956976.890563965,-11644703.86505127,-18332612.991333008,33411983.489990234,-1640815.8540725708,-9761251.449584961,-6520337.5816345215,-5458640.098571777,-13184692.3828125,-13135272.979736328,-17863389.96887207,-25059059.143066406,-21417480.46875,-4205198.764801025,-20667402.267456055,-19527372.360229492,-28658422.470092773,-9690852.165222168,-17460371.017456055,-23815486.907958984,-27019208.908081055,-35742000.579833984,-38733085.63232422,-30504383.087158203,-29762020.111083984,-12821487.426757812,-13255016.326904297,-7159038.543701172,-21791851.043701172,-36606918.33496094,-37851554.87060547,-38535018.92089844,-38861171.72241211,-30650716.78161621,-24479732.513427734,-36728546.142578125,-12523125.648498535,-34134605.407714844,-47148616.790771484,-51629711.15112305,-52890258.7890625,-54128829.95605469,-53651405.334472656,-17799879.07409668,-38199684.143066406,-44528297.424316406,-34259700.775146484,-54743011.474609375,-53371803.283691406,-46613586.42578125,-41737140.65551758,-58556285.8581543
0.24,-13831271.171569824,3046881.675720215,-42463756.5612793,-902034.58070755,-5797306.060791016,12966055.870056152,-1650130.9871673584,-1422262.9070281982,-4455339.9085998535,-7539248.466491699,-9701108.932495117,-8470058.44116211,-13989361.763000488,34750041.96166992,2611006.259918213,-6557781.219482422,-4643312.931060791,-3385630.1307678223,-12378340.721130371,-11792718.887329102,-13712517.738342285,-21574075.69885254,-18327068.328857422,-84124.77374076843,-18218118.66760254,-18910499.572753906,-28071119.30847168,-8984360.694885254,-15113152.503967285,-19646249.771118164,-22967735.290527344,-31260572.43347168,-35307144.16503906,-28682167.053222656,-28165786.743164062,-11171510.696411133,-9477594.375610352,-4084732.0556640625,-16716699.600219727,-32291854.858398438,-33823345.18432617,-35150520.32470703,-35438556.67114258,-28922576.904296875,-22200628.28063965,-30732305.5267334,-7596185.684204102,-28490468.978881836,-40387458.80126953,-44442516.3269043,-47764675.14038086,-48602943.420410156,-48260299.68261719,-13239459.991455078,-30996086.12060547,-37148937.2253418,-27943773.26965332,-49304531.09741211,-48051376.34277344,-39744853.97338867,-35335815.4296875,-51702571.868896484
0.245,-8441254.615783691,3345783.9488983154,-39108482.360839844,455231.78577423096,-6082398.891448975,20186798.095703125,1021356.3442230225,973763.4062767029,-2199285.5072021484,-6556354.522705078,-8878014.56451416,-7021340.847015381,-11340095.520019531,36046554.56542969,9563618.659973145,-1224279.761314392,-2187995.433807373,-1191367.506980896,-9413793.563842773,-10786437.034606934,-9191016.19720459,-17179584.503173828,-12152958.869934082,7110570.907592773,-12515552.520751953,-14463888.168334961,-23620738.983154297,-6686094.284057617,-11535615.921020508,-12709955.215454102,-15129453.659057617,-22526344.299316406,-24889207.83996582,-21150207.51953125,-21040897.369384766,-7648102.760314941,-4111186.5043640137,1425953.0305862427,-8487480.163574219,-21466348.64807129,-22524799.346923828,-24859184.26513672,-25074708.938598633,-21690456.39038086,-14611861.228942871,-20053331.37512207,637720.9424972534,-16928714.752197266,-25331682.205200195,-28737833.02307129,-34141849.517822266,-34868305.20629883,-34500411.98730469,-3539041.28074646,-15856667.518615723,-21517313.00354004,-14091208.457946777,-35596584.32006836,-34340347.29003906,-25216302.8717041,-21038751.60217285,-35371501.92260742
0.25,-6263793.468475342,1906722.5456237793,-38219924.92675781,1397330.8801651,-7488684.177398682,23528181.076049805,3112238.4071350098,2898746.4904785156,-276639.4019126892,-5549461.841583252,-8640097.618103027,-6608521.461486816,-10135105.13305664,38454582.21435547,14227219.581604004,2332508.087158203,-84748.99083375931,773085.2365493774,-6163274.28817749,-9626426.696777344,-7408946.990966797,-14238696.098327637,-6974608.421325684,12100635.528564453,-7726933.95614624,-9863528.25164795,-18801019.6685791,-4421385.765075684,-9907806.396484375,-9244042.39654541,-10089241.027832031,-16800765.991210938,-16459369.659423828,-14978359.22241211,-14901288.032531738,-5960659.503936768,-2553264.1410827637,3408716.4402008057,-4846364.498138428,-14501056.671142578,-14947031.97479248,-16630533.218383789,-16748147.964477539,-15692757.606506348,-10780582.427978516,-16467889.785766602,2930182.695388794,-11493120.193481445,-17110013.961791992,-20085529.327392578,-24761774.06311035,-25762596.130371094,-25350229.263305664,607805.9673309326,-8670197.486877441,-13817224.502563477,-6073702.812194824,-26473892.211914062,-25046218.872070312,-17334777.83203125,-13438632.96508789,-25468948.364257812
0.255,-2922534.227371216,5410374.641418457,-35111606.59790039,3856937.4084472656,-6301803.5888671875,25016233.444213867,5489357.948303223,5285346.984863281,2150340.795516968,-4473165.035247803,-8019874.572753906,-6526973.724365234,-10287210.464477539,39345527.64892578,15445202.827453613,3767241.7163848877,2141091.3467407227,3254138.946533203,-4172131.5383911133,-8175278.663635254,-9037774.085998535,-14922370.910644531,-7505468.368530273,13163266.1819458,-5836063.861846924,-8177264.213562012,-16548484.802246094,-3571460.485458374,-11211232.18536377,-12023759.841918945,-12510892.868041992,-19413694.381713867,-16318542.48046875,-14592173.57635498,-14100817.680358887,-6933083.534240723,-5416955.947875977,109250.4933476448,-9059463.500976562,-18053180.694580078,-18675230.026245117,-16571714.401245117,-16662263.870239258,-15187391.28112793,-14568076.133728027,-22735437.393188477,-3075186.9678497314,-17494203.567504883,-23446557.998657227,-25103630.06591797,-27233600.616455078,-28527112.96081543,-28113525.390625,-5217001.438140869,-16449405.670166016,-21357521.057128906,-11521265.029907227,-29232122.42126465,-27619272.232055664,-23042619.705200195,-19948371.88720703,-30840927.124023438
0.26,17425.70661008358,9071549.415588379,-32782402.03857422,5162761.211395264,-4645116.806030273,26357177.734375,6341431.140899658,6241621.971130371,3047708.034515381,-4602450.847625732,-7649156.57043457,-7079040.050506592,-11878920.555114746,36078079.22363281,14144973.754882812,3292064.666748047,2771003.9615631104,4076873.302459717,-4293033.123016357,-7147050.380706787,-11747659.683227539,-17999969.482421875,-12292787.551879883,11330148.696899414,-6846254.348754883,-9861905.097961426,-17574119.567871094,-4460532.188415527,-13404294.967651367,-17060401.916503906,-18695686.34033203,-25958076.47705078,-21686555.862426758,-18025831.22253418,-17156660.079956055,-8515559.196472168,-8389975.547790527,-3327151.7753601074,-15543118.476867676,-26240217.208862305,-27265556.33544922,-21781923.294067383,-21965686.798095703,-18384508.13293457,-19760917.66357422,-29555387.496948242,-9499799.728393555,-26469097.137451172,-34516868.591308594,-34163166.04614258,-34726127.62451172,-36017295.837402344,-35534694.67163086,-12278995.513916016,-27363447.189331055,-32637893.676757812,-21489393.23425293,-36694328.30810547,-35035991.66870117,-32596565.24658203,-29813125.610351562,-40816837.310791016
0.265,-5480715.274810791,3879071.9509124756,-37959289.55078125,957335.5317115784,-5791447.639465332,23255197.525024414,2258427.619934082,2300903.558731079,-908849.8950004578,-6231446.266174316,-8000669.479370117,-8148485.18371582,-13947050.094604492,30768829.345703125,9999377.250671387,-655977.6663780212,-1149278.998374939,48074.670135974884,-6077114.582061768,-6786862.850189209,-13099035.263061523,-20045370.10192871,-15430330.276489258,7017256.259918213,-10536400.79498291,-13455196.380615234,-20865625.381469727,-6579220.771789551,-14352999.687194824,-19361989.974975586,-21706655.502319336,-28678050.994873047,-26315168.380737305,-21464220.04699707,-20616863.250732422,-9469807.624816895,-8911730.766296387,-2108669.9962615967,-17661195.755004883,-29575387.954711914,-30300785.064697266,-26221889.49584961,-26488416.67175293,-21720159.53063965,-19632520.67565918,-29382907.86743164,-9367243.766784668,-28628393.173217773,-37348445.892333984,-36981586.45629883,-37105354.30908203,-38201545.71533203,-37504520.416259766,-11169831.275939941,-27600069.046020508,-33966899.87182617,-23331592.559814453,-38780284.8815918,-37163738.25073242,-33963405.60913086,-29462520.599365234,-41284233.09326172
0.27,-14535722.732543945,-2157368.1831359863,-42999633.7890625,-4969515.800476074,-5092461.109161377,15319911.95678711,-4020320.8923339844,-3803864.7174835205,-6687047.958374023,-6278891.563415527,-6750362.873077393,-7233415.603637695,-13201580.047607422,29898771.286010742,4075911.9987487793,-6718567.848205566,-7089182.8536987305,-5608167.64831543,-7329412.460327148,-5982038.974761963,-12422771.453857422,-18843431.47277832,-13543487.548828125,1512366.4140701294,-15084117.889404297,-16410402.297973633,-24100996.017456055,-8802741.050720215,-13885807.991027832,-18667118.072509766,-20022552.490234375,-26851079.9407959,-28475744.247436523,-23767261.505126953,-23123924.255371094,-10409894.943237305,-9142610.549926758,1764473.0806350708,-15988518.714904785,-27448900.22277832,-28147405.62438965,-28461593.627929688,-28662342.071533203,-24074440.002441406,-16269105.911254883,-26159023.28491211,-5547930.2406311035,-25701822.28088379,-32963085.174560547,-35151119.232177734,-35184425.354003906,-36168674.46899414,-35248031.61621094,-5253941.059112549,-20263872.146606445,-27743812.561035156,-18162521.362304688,-36647693.6340332,-35031608.58154297,-29663412.09411621,-22054241.180419922,-35345886.23046875
0.275,-3914569.37789917,13543426.513671875,-26760440.826416016,-916886.4488601685,6646681.785583496,14943531.036376953,-2463640.2130126953,-2088719.129562378,-4405183.3152771,-1086456.298828125,-720490.9324645996,-1278644.323348999,-6340549.468994141,37485141.75415039,2617200.8514404297,-7266288.757324219,-5984189.987182617,-3150722.5036621094,-5677937.5076293945,-3588817.358016968,-9867415.428161621,-14681699.752807617,-8611359.596252441,227316.29014015198,-15617321.968078613,-15787347.793579102,-24289548.873901367,-9587825.775146484,-12611013.412475586,-17408435.821533203,-17411260.6048584,-25680511.474609375,-29799163.818359375,-24993532.180786133,-24305366.51611328,-11167773.246765137,-11042564.392089844,3339935.302734375,-15304348.945617676,-26014251.708984375,-28674766.540527344,-30087869.64416504,-30161802.291870117,-25337045.669555664,-16137332.916259766,-27296724.319458008,-4768219.470977783,-25456649.780273438,-31355403.900146484,-34759410.8581543,-36647087.09716797,-37654922.48535156,-36713481.90307617,-4578258.037567139,-18385740.280151367,-25845922.470092773,-16751834.869384766,-38158939.361572266,-36544948.57788086,-30678152.084350586,-21282398.223876953,-36652599.3347168
0.28,38009021.7590332,55496715.5456543,15046778.678894043,17383211.135864258,28286666.870117188,33974182.12890625,12037348.747253418,12469293.594360352,10323452.949523926,7744184.970855713,8601849.555969238,8175589.561462402,4366429.805755615,48406448.36425781,11672327.995300293,3632403.1352996826,6949093.341827393,11522205.352783203,-1622010.350227356,-502037.9424095154,-6165010.929107666,-9889245.986938477,-5302168.846130371,8442588.806152344,-8572298.049926758,-10567770.004272461,-20287359.2376709,-7946309.0896606445,-10871385.57434082,-16509490.966796875,-16660402.297973633,-27746372.22290039,-29750988.006591797,-24025489.807128906,-23029308.319091797,-10030408.85925293,-12552624.702453613,2012749.6719360352,-16986133.575439453,-27788911.819458008,-33488979.33959961,-30230052.947998047,-30307537.078857422,-24309839.248657227,-20112581.253051758,-32284465.789794922,-7682877.540588379,-29055763.244628906,-35286846.16088867,-36534076.69067383,-42333065.032958984,-43355155.94482422,-42612854.00390625,-10635402.67944336,-24922760.009765625,-31306247.71118164,-22464336.395263672,-44015480.041503906,-42542633.056640625,-38575008.392333984,-30048067.092895508,-47249286.65161133
0.285,85251663.20800781,94019493.10302734,52754566.19262695,37121337.890625,44284042.35839844,63518657.68432617,29870616.912841797,30234727.85949707,27428894.04296875,13237704.277038574,14387108.80279541,14087837.219238281,10369308.471679688,51457729.33959961,27504680.633544922,20127168.655395508,23262845.993041992,28407897.94921875,1117185.7118606567,681332.1113586426,-3784391.164779663,-7892816.543579102,-7196428.7757873535,22927581.787109375,2531679.153442383,-3622540.4739379883,-14837092.399597168,-4679006.576538086,-9687003.135681152,-16007040.023803711,-17391033.172607422,-30848526.000976562,-26207464.21813965,-20388532.638549805,-19223997.116088867,-6744780.540466309,-11379195.213317871,1106130.2423477173,-18705844.87915039,-29821151.733398438,-36484882.35473633,-26594470.977783203,-26802017.211914062,-20632320.404052734,-23116918.563842773,-35088779.44946289,-9913352.012634277,-31189052.58178711,-38339469.90966797,-38552036.28540039,-45050125.12207031,-46037326.81274414,-45512550.354003906,-15276052.474975586,-30141994.47631836,-36029178.619384766,-27529035.568237305,-46853588.10424805,-45599613.189697266,-43621768.951416016,-36689716.33911133,-54438701.62963867
0.29,97565467.83447266,96016807.55615234,52255443.57299805,41342315.673828125,40996265.41137695,79416358.9477539,35811996.45996094,36058914.18457031,32208797.454833984,10435890.197753906,11412530.899047852,10563426.01776123,4847675.323486328,40789283.752441406,37950492.85888672,28901086.807250977,29132808.685302734,33142463.68408203,-597299.6950149536,-1583135.485649109,-5994342.803955078,-11401841.163635254,-14811364.17388916,32768199.920654297,9349188.804626465,343730.4496765137,-12456913.948059082,-2118528.366088867,-10948648.452758789,-17527820.587158203,-19286106.10961914,-33708122.25341797,-20715780.25817871,-16661365.509033203,-15696562.767028809,-4099643.2304382324,-9616410.255432129,1679119.348526001,-19830236.434936523,-30755851.74560547,-35530750.2746582,-20894399.642944336,-21176895.141601562,-16999504.08935547,-22265916.82434082,-34294559.478759766,-9990497.589111328,-30215135.57434082,-37106101.989746094,-40844379.42504883,-41382396.69799805,-42405208.587646484,-41935756.68334961,-13617911.338806152,-27610185.623168945,-34379215.240478516,-25742004.39453125,-43280170.44067383,-42059261.322021484,-40197246.55151367,-33124225.616455078,-50381660.46142578
0.295,67566856.38427734,63764976.501464844,15904165.267944336,28710290.908813477,22248180.389404297,70254165.64941406,26658199.310302734,26837715.14892578,22441408.157348633,1880928.1587600708,1902340.1737213135,-725301.6829490662,-9706941.604614258,22173202.514648438,35686164.85595703,24306808.471679688,21248907.0892334,23563177.10876465,-5802534.580230713,-6081759.452819824,-13235544.204711914,-20027175.903320312,-25455942.153930664,31053136.825561523,7665432.929992676,-674768.0306434631,-14853520.393371582,-2103305.1013946533,-15114080.429077148,-22528921.127319336,-23293313.98010254,-38379348.75488281,-18377719.87915039,-16252115.249633789,-15602821.350097656,-4671710.014343262,-10717497.825622559,1247666.597366333,-22238733.291625977,-33128681.182861328,-36371803.283691406,-18431200.02746582,-18666585.92224121,-16736534.118652344,-20120594.024658203,-33876914.978027344,-10332427.978515625,-30263711.92932129,-35731845.85571289,-41922962.1887207,-36718925.47607422,-37891338.34838867,-37312568.66455078,-9924996.376037598,-22547182.083129883,-29799901.962280273,-20313848.4954834,-38752052.307128906,-37281257.62939453,-34495841.97998047,-25852865.21911621,-43017330.169677734
0.3,26996681.213378906,28351198.196411133,-22070419.311523438,13414556.503295898,3111822.3667144775,50024787.90283203,13725245.475769043,13916734.69543457,9731749.534606934,-5785524.845123291,-7385917.663574219,-12491583.824157715,-24142848.96850586,6375163.555145264,26255842.208862305,14052769.660949707,9561987.87689209,10977313.995361328,-10485720.63446045,-10119342.803955078,-21449863.43383789,-29656545.639038086,-34610691.07055664,22490432.739257812,1496388.7929916382,-4392655.372619629,-19300073.623657227,-4000609.3978881836,-19551918.029785156,-28681200.02746582,-28540967.94128418,-45124446.868896484,-21203525.54321289,-19114797.592163086,-18561548.233032227,-7188802.242279053,-13443721.771240234,-1025519.4902420044,-25747770.309448242,-37509963.98925781,-41915493.01147461,-21217264.17541504,-21401376.724243164,-19609895.706176758,-19526206.970214844,-35033344.26879883,-11331014.633178711,-32981464.385986328,-37104015.3503418,-38457790.37475586,-36506549.83520508,-37800086.975097656,-37056430.81665039,-9328669.548034668,-21938566.207885742,-27448118.209838867,-17329437.255859375,-38620086.669921875,-36886329.650878906,-34073890.686035156,-24500558.853149414,-42581615.44799805
0.305,5596875.190734863,10038650.512695312,-38441139.221191406,6817658.9012146,-8035676.002502441,39132648.46801758,7973533.630371094,8189005.8517456055,4371510.982513428,-9091264.724731445,-12539109.230041504,-19368837.356567383,-31946344.37561035,-1415616.750717163,20528541.564941406,8606983.184814453,4214565.753936768,5521232.604980469,-11880844.116210938,-12045678.13873291,-25747156.143188477,-35258865.35644531,-38772651.67236328,17078552.24609375,-2371121.644973755,-7021637.916564941,-21765626.907348633,-5155768.394470215,-20971439.361572266,-31446815.490722656,-31377313.6138916,-49206848.14453125,-24737802.505493164,-21567468.643188477,-20939264.29748535,-8082398.414611816,-13288064.002990723,-2068237.7815246582,-27164171.21887207,-39802879.333496094,-45262008.66699219,-24727731.704711914,-24938167.572021484,-21914381.02722168,-19594072.341918945,-34222503.662109375,-10371987.342834473,-34325469.970703125,-37834121.70410156,-34027851.10473633,-38357112.884521484,-39604648.59008789,-38760410.30883789,-10422956.466674805,-24501743.31665039,-27718757.62939453,-17847648.62060547,-40365249.63378906,-38664089.20288086,-37035671.23413086,-27576259.61303711,-46128227.23388672
0.31,1995403.528213501,2435858.4880828857,-41852275.84838867,7161889.07623291,-14315584.182739258,41752952.575683594,9222558.02154541,9359460.830688477,5465903.282165527,-9619417.190551758,-14754188.537597656,-21617540.35949707,-33746910.095214844,-3607206.8214416504,22601200.103759766,10085031.509399414,5482005.1193237305,6484487.533569336,-10899303.436279297,-12262408.256530762,-25407075.881958008,-35074657.44018555,-38180477.142333984,19004510.8795166,-1294459.1045379639,-6555098.533630371,-20806133.270263672,-3848311.9010925293,-19296049.118041992,-29747541.427612305,-29807140.350341797,-46588672.63793945,-23265205.38330078,-20480411.529541016,-19891500.47302246,-6149013.519287109,-9696957.5881958,364619.9405193329,-25248378.75366211,-37237022.399902344,-39379276.275634766,-23247041.702270508,-23517198.56262207,-20717676.162719727,-18371919.631958008,-30402557.373046875,-7458342.552185059,-31860668.182373047,-35514312.744140625,-39585887.90893555,-36416236.877441406,-37500137.32910156,-36730262.756347656,-9297058.10546875,-25102912.90283203,-29146165.84777832,-19505088.806152344,-38248046.875,-36786151.88598633,-36570648.193359375,-26780794.143676758,-43555053.7109375
0.315,137206.2861919403,-5551146.507263184,-49349533.08105469,7934036.2548828125,-19951875.686645508,47638042.44995117,11510695.457458496,11426699.6383667,7107379.43649292,-10040026.664733887,-16466321.94519043,-22317340.850830078,-33898399.353027344,-4525499.34387207,28009105.682373047,13872401.237487793,8033682.823181152,8109953.880310059,-10384702.682495117,-12234651.565551758,-24062831.87866211,-32183067.321777344,-36867862.701416016,24405660.62927246,2673998.3558654785,-3549468.994140625,-18142385.482788086,-1497931.957244873,-17660938.262939453,-27495388.03100586,-27056030.2734375,-40940246.58203125,-16675909.042358398,-16373119.354248047,-15990093.231201172,-3651902.198791504,-7293601.989746094,3761108.636856079,-23277681.350708008,-33517116.54663086,-29143285.751342773,-16658283.233642578,-16996828.079223633,-16711725.234985352,-16212314.60571289,-27998764.038085938,-6491750.240325928,-29589805.603027344,-34422859.19189453,-57145816.802978516,-29992605.209350586,-30953237.533569336,-30470268.24951172,-5984061.717987061,-23647588.7298584,-31912563.32397461,-21210721.969604492,-31871173.858642578,-30469776.153564453,-31531681.060791016,-20771551.13220215,-34192028.0456543
0.32,-4657950.878143311,-11951303.482055664,-61053714.752197266,7616786.003112793,-23911146.16394043,48526969.90966797,12184638.023376465,11875110.626220703,7244159.698486328,-11060382.843017578,-18238845.825195312,-23543289.184570312,-35614608.76464844,-6355935.573577881,30912637.71057129,16134729.385375977,9071088.790893555,8245265.007019043,-11782406.8069458,-12958762.168884277,-25137687.68310547,-31525955.200195312,-39199455.26123047,27636909.48486328,6207332.611083984,-379573.5836029053,-16451053.619384766,-1123860.7168197632,-18399816.513061523,-28487339.01977539,-28011074.06616211,-40604137.4206543,-10318114.280700684,-12366703.987121582,-12125036.239624023,-2761751.174926758,-8690121.6506958,4209626.197814941,-24543407.440185547,-34336856.842041016,-26354635.23864746,-10253656.387329102,-10696975.708007812,-12953648.567199707,-14373546.600341797,-29685535.430908203,-8860351.5625,-31745735.16845703,-38805454.25415039,-70696914.67285156,-24036643.981933594,-24975408.55407715,-24846250.534057617,-2934261.0836029053,-23889070.510864258,-35411773.681640625,-22641124.725341797,-26242769.241333008,-24581790.924072266,-26880062.103271484,-16656658.172607422,-28227876.663208008
0.325,-8140675.5447387695,-12542572.975158691,-67616973.87695312,7253655.433654785,-25123573.303222656,44573650.36010742,11654922.485351562,11344175.338745117,6703315.258026123,-12193123.817443848,-19668783.18786621,-25618890.7623291,-39395713.806152344,-9491991.996765137,29327287.673950195,15796625.137329102,8598217.010498047,7645532.131195068,-13887274.742126465,-14193500.518798828,-28393041.610717773,-35034175.872802734,-45693344.11621094,26433357.23876953,6865108.489990234,143256.9921016693,-17083038.330078125,-3466952.8007507324,-20428787.231445312,-31876758.575439453,-32857551.57470703,-48298099.517822266,-8841182.708740234,-11068800.926208496,-10779342.651367188,-2889647.0069885254,-10328993.797302246,1838649.034500122,-27611114.501953125,-39529716.49169922,-33991394.04296875,-8707330.703735352,-9224046.70715332,-11845508.575439453,-12509733.200073242,-31101795.196533203,-10121168.13659668,-35675510.40649414,-44696529.388427734,-64140876.77001953,-22445316.314697266,-23377977.37121582,-23421014.7857666,-266901.9401073456,-25988483.428955078,-36214096.06933594,-21927429.19921875,-24907266.61682129,-22996578.216552734,-25637428.283691406,-18631103.515625,-31677053.451538086
0.33,-11727128.982543945,-13192139.625549316,-68898200.98876953,5280439.853668213,-26505083.084106445,38829978.942871094,9281623.840332031,9258797.645568848,4757954.120635986,-13155569.076538086,-20878873.825073242,-28072296.142578125,-43775039.67285156,-13304739.952087402,24761072.158813477,12544362.06817627,6081189.155578613,5701725.959777832,-14653896.33178711,-14932570.457458496,-31345510.482788086,-40120418.548583984,-52775779.724121094,22070514.678955078,3937714.3383026123,-2985313.653945923,-19462335.58654785,-5855667.1142578125,-21366600.036621094,-34273857.11669922,-37095394.134521484,-57657135.009765625,-11928458.213806152,-12783804.893493652,-12415910.720825195,-2613611.6981506348,-8390219.688415527,47984.46595668793,-28661920.54748535,-43491519.927978516,-42500007.62939453,-11831276.893615723,-12249325.7522583,-13581319.808959961,-10042753.219604492,-27320816.040039062,-6386781.692504883,-35602603.912353516,-44492843.62792969,-43669155.12084961,-24245857.23876953,-25100124.35913086,-25060691.833496094,3218634.843826294,-25865999.221801758,-31922153.47290039,-17515537.26196289,-26535755.157470703,-24742439.27001953,-25823867.797851562,-22198423.385620117,-37980083.46557617
0.335,-18542697.90649414,-19343704.223632812,-71199752.80761719,892776.3104438782,-29892215.728759766,34084522.24731445,5099228.858947754,5420100.212097168,1044213.4141921997,-13588000.297546387,-21941429.138183594,-30255876.541137695,-47148338.317871094,-16712408.065795898,20381238.93737793,7576434.135437012,1860623.5980987549,2084992.8855895996,-13674606.323242188,-14705763.816833496,-32925067.901611328,-43654453.27758789,-57706497.19238281,17674047.470092773,-638533.5326194763,-7479351.52053833,-21978775.024414062,-5735350.131988525,-21056585.31188965,-34830806.732177734,-38317783.35571289,-62039775.84838867,-15998785.972595215,-15967218.399047852,-15656866.073608398,-2535561.0847473145,-5274760.2462768555,315680.3250312805,-27242486.95373535,-43279464.72167969,-43367355.34667969,-16059406.280517578,-16248388.290405273,-16675697.326660156,-8526627.540588379,-21219062.80517578,-804837.7633094788,-31491231.91833496,-38039478.30200195,-31034908.294677734,-26497068.405151367,-27235412.59765625,-27051296.23413086,6022164.344787598,-21958538.055419922,-25310613.63220215,-11629494.667053223,-28320568.084716797,-26884231.567382812,-25575101.852416992,-21922536.849975586,-38282981.872558594
0.34,-21015012.741088867,-22692325.592041016,-72581077.5756836,-1097885.9663009644,-31561679.84008789,34552867.8894043,3357670.307159424,3749762.2966766357,-610142.4694061279,-12597050.666809082,-22031999.588012695,-31630916.595458984,-49823978.424072266,-20163526.53503418,19579561.233520508,5062056.541442871,4623.310174793005,442388.29612731934,-12279299.73602295,-14206619.262695312,-34235584.2590332,-46303462.982177734,-62697834.01489258,16556774.139404297,-3037576.43699646,-9519840.240478516,-23055345.53527832,-3851837.158203125,-21328273.77319336,-35749465.94238281,-39768329.62036133,-63316078.186035156,-18343025.20751953,-18587615.966796875,-18400238.037109375,-4050679.6836853027,-5742855.548858643,878585.8750343323,-26617588.04321289,-42461574.55444336,-40059955.59692383,-18503536.224365234,-18577575.68359375,-19192960.739135742,-9864630.699157715,-19716510.772705078,603477.1800041199,-29116828.91845703,-33252662.658691406,-36327346.80175781,-28330125.80871582,-29025938.034057617,-28815555.572509766,5114649.295806885,-18125957.489013672,-21880374.908447266,-9173420.906066895,-29888906.478881836,-28605144.500732422,-26639415.740966797,-19674427.032470703,-34432594.299316406
0.345,-7695242.404937744,-11441015.243530273,-64505821.228027344,4735600.471496582,-27271108.627319336,43679447.174072266,8705321.311950684,8805121.421813965,4253117.084503174,-9642763.137817383,-20342395.782470703,-31973987.579345703,-53613208.77075195,-25835348.12927246,23629558.563232422,8677018.165588379,4740744.590759277,5143993.854522705,-11377242.088317871,-14224920.272827148,-35825309.75341797,-50770061.49291992,-71561088.56201172,19940761.56616211,-972666.9788360596,-7610277.6527404785,-21726972.579956055,-2535208.9405059814,-22579450.607299805,-37946899.4140625,-44875915.52734375,-67811836.24267578,-18698610.305786133,-19233844.757080078,-19060079.57458496,-6057105.541229248,-8686380.386352539,560238.0633354187,-28387790.67993164,-45191387.17651367,-41105079.650878906,-18793598.175048828,-18976736.068725586,-19744504.928588867,-12792219.161987305,-23211215.97290039,-2359646.3203430176,-31372955.322265625,-35269966.12548828,-48446788.7878418,-30741952.896118164,-31507942.19970703,-31319021.224975586,823769.4501876831,-18354600.90637207,-23880641.93725586,-12599636.07788086,-32465641.021728516,-31006660.46142578,-30753248.21472168,-21065927.505493164,-35553489.685058594
0.35,18276849.7467041,10604503.631591797,-47142139.43481445,15933071.13647461,-19106409.072875977,58777954.1015625,19166549.682617188,18830099.10583496,13897683.143615723,-5540701.866149902,-17346652.98461914,-31078340.530395508,-58243385.314941406,-33273765.563964844,30216001.510620117,16813604.3548584,14210464.477539062,14630263.328552246,-10239029.884338379,-14247132.301330566,-35908050.537109375,-56105201.721191406,-82371086.12060547,25753049.850463867,4042807.102203369,-3828634.50050354,-18064245.223999023,-2046798.4676361084,-22555812.83569336,-38815444.94628906,-50675498.962402344,-75394546.50878906,-17867630.004882812,-17701873.779296875,-17389020.919799805,-5513466.358184814,-8137532.2341918945,828735.3515625,-29677673.33984375,-49443336.486816406,-46803760.52856445,-17894456.86340332,-18212654.11376953,-18111335.75439453,-13820541.381835938,-24809909.82055664,-4040510.1776123047,-34041118.62182617,-39988536.8347168,-53094776.15356445,-33812377.9296875,-34673320.77026367,-34416618.34716797,-2891701.9367218018,-21342737.197875977,-28323371.88720703,-18968210.220336914,-35823249.81689453,-34240097.04589844,-35614128.11279297,-26442054.748535156,-43894020.080566406
0.355,38935928.34472656,26338876.724243164,-32736690.521240234,23856325.149536133,-13548880.577087402,71674293.5180664,27150928.497314453,26520334.243774414,21266345.977783203,-2128349.3041992188,-14584823.608398438,-28753292.083740234,-60167549.13330078,-37083358.76464844,35460475.92163086,23930149.07836914,21486370.086669922,21980270.385742188,-8034772.872924805,-13036489.486694336,-32657878.875732422,-57365249.63378906,-87599006.65283203,30534904.47998047,8652791.023254395,-1058860.0635528564,-13658939.361572266,-830657.1841239929,-19477094.650268555,-35717418.6706543,-50730628.967285156,-78528152.46582031,-16413417.81616211,-15128356.93359375,-14614628.791809082,-1870975.7328033447,-2519306.421279907,2969170.570373535,-27127014.16015625,-49530612.94555664,-49397262.57324219,-16563314.437866211,-16842815.399169922,-15454110.145568848,-11875767.707824707,-20669206.619262695,-1178438.1866455078,-31878908.157348633,-40422706.604003906,-49431190.490722656,-35966838.83666992,-36845481.872558594,-36516914.36767578,-3439194.2024230957,-22370471.954345703,-30445770.263671875,-22705064.77355957,-38010913.84887695,-36671447.75390625,-37301013.9465332,-30147745.13244629,-51046844.482421875
0.36,41356536.865234375,25482534.408569336,-32096099.853515625,23738481.521606445,-14402131.080627441,76119972.2290039,27956846.237182617,27279760.360717773,21951513.290405273,-1189868.0925369263,-13735301.971435547,-26172903.060913086,-57787849.42626953,-33481269.83642578,37456188.2019043,26553976.05895996,22311817.169189453,22664194.107055664,-5864335.060119629,-10902501.106262207,-27852811.813354492,-52933425.90332031,-84108444.21386719,32534214.01977539,11081432.342529297,-80670.65477371216,-11056446.075439453,986467.0038223267,-15221301.078796387,-30479473.114013672,-44604637.145996094,-73665557.86132812,-14758950.233459473,-13201765.060424805,-12532731.056213379,1459167.8380966187,2433085.2031707764,5606145.858764648,-22022491.455078125,-44524707.79418945,-45472476.959228516,-15119684.219360352,-15278133.392333984,-13520462.036132812,-9410737.991333008,-15294806.480407715,3241796.7319488525,-25741811.752319336,-35831558.22753906,-45306228.63769531,-35991737.365722656,-36824993.13354492,-36592800.14038086,-1970123.8870620728,-19112888.33618164,-28096515.655517578,-21135358.810424805,-37874694.82421875,-36921199.798583984,-35302257.5378418,-28426845.55053711,-49682128.90625
0.365,29440118.78967285,13487360.954284668,-44182727.8137207,18706186.294555664,-20495664.596557617,72253959.65576172,23894033.432006836,23330442.428588867,18020906.448364258,-3481418.3712005615,-15891921.997070312,-26386922.83630371,-56012031.55517578,-27763797.760009766,36591846.46606445,25385051.727294922,18819662.09411621,18646984.100341797,-5974432.468414307,-10186997.413635254,-26338743.209838867,-48950447.08251953,-79481254.57763672,31927600.860595703,11444582.93914795,-54051.62647366524,-11580320.358276367,1095110.535621643,-13771088.600158691,-28315908.432006836,-40127708.435058594,-68150566.10107422,-13645000.457763672,-12788294.792175293,-12092383.38470459,1515087.366104126,1862070.2028274536,6611449.241638184,-19385290.145874023,-40449859.619140625,-41487922.66845703,-14028578.758239746,-14184666.633605957,-13192306.518554688,-8347204.208374023,-14216542.24395752,5073109.6267700195,-21199031.829833984,-31550367.35534668,-44802165.98510742,-34530796.05102539,-35340183.25805664,-35280979.15649414,-294316.6494369507,-13871654.510498047,-23259620.666503906,-17035247.802734375,-36362125.396728516,-35482814.78881836,-32592201.232910156,-24070800.78125,-43413616.18041992
0.37,14647001.266479492,557427.1082878113,-60328605.65185547,13391490.936279297,-29089105.6060791,63670291.900634766,19178607.940673828,18747381.21032715,13321317.672729492,-8246596.336364746,-20995159.149169922,-31673570.63293457,-61293476.10473633,-29363008.499145508,32940097.80883789,21695129.39453125,14800822.257995605,13934457.778930664,-9040674.209594727,-12596050.262451172,-30990011.21520996,-52645629.8828125,-83762893.67675781,28560214.99633789,9575451.850891113,-785040.2593612671,-13925127.029418945,-1287666.0823822021,-16728605.270385742,-32178237.915039062,-44171966.552734375,-71571655.2734375,-14071684.837341309,-13568833.351135254,-12990688.32397461,-357843.5480594635,-1775663.4950637817,5677350.5210876465,-22450168.60961914,-43088558.197021484,-44840412.13989258,-14245697.975158691,-14502654.075622559,-14069194.793701172,-7702529.430389404,-16617454.528808594,3737617.015838623,-22071714.401245117,-32057037.353515625,-46845050.81176758,-33283409.118652344,-34099025.72631836,-33999221.80175781,1365105.2713394165,-10948923.110961914,-20460872.650146484,-15715674.40032959,-35207050.32348633,-34039825.439453125,-31599739.07470703,-22282793.045043945,-41434982.29980469
0.375,3263404.8461914062,-9323063.850402832,-73177528.38134766,8464240.074157715,-38076782.2265625,53602203.369140625,14710485.458374023,14342661.85760498,8785893.440246582,-13462298.393249512,-27399839.401245117,-40150665.283203125,-72322326.66015625,-38944690.7043457,25960145.950317383,15413270.950317383,10906627.655029297,9598057.746887207,-13174976.348876953,-16738452.911376953,-39178485.87036133,-62672409.05761719,-96347343.44482422,21861965.17944336,4917715.549468994,-2861245.1553344727,-15745550.155639648,-3541843.6527252197,-21695280.075073242,-39604125.9765625,-54060764.31274414,-83186271.66748047,-16735074.996948242,-15101686.477661133,-14646723.747253418,-1016657.3524475098,-3536109.447479248,3414108.2763671875,-29646247.86376953,-51191577.91137695,-54118587.493896484,-16712165.832519531,-17013236.99951172,-15586612.701416016,-6621477.6039123535,-18951738.357543945,282237.4999523163,-27667257.30895996,-37192794.79980469,-50783916.47338867,-33571636.19995117,-34359169.006347656,-33965396.881103516,2245910.882949829,-13158930.778503418,-23258943.557739258,-19660610.19897461,-35512153.62548828,-34062797.54638672,-32577655.792236328,-24821348.190307617,-46818058.013916016
0.38,-3958541.15486145,-16368082.046508789,-79827209.47265625,3422078.3710479736,-45158813.4765625,45040065.76538086,10033634.185791016,9649441.719055176,4201344.966888428,-17147012.71057129,-32626964.569091797,-46787349.700927734,-80264640.80810547,-46512561.7980957,17527103.424072266,8099414.825439453,6592545.986175537,5242146.968841553,-16029663.0859375,-19568914.41345215,-45474014.28222656,-70310585.02197266,-106298797.60742188,13704766.273498535,-1012449.5029449463,-5666216.3734436035,-16354314.804077148,-3010271.3108062744,-25314516.067504883,-45720104.2175293,-61152870.178222656,-92946403.50341797,-21055250.16784668,-17348278.045654297,-16818193.435668945,-226452.69334316254,-3446033.239364624,-199615.12088775635,-36916263.580322266,-58580776.21459961,-61743526.458740234,-21021068.572998047,-21291486.740112305,-17678659.439086914,-6856073.379516602,-21429189.682006836,-5155331.134796143,-34867874.14550781,-43958656.311035156,-56561286.92626953,-35736507.415771484,-36485996.24633789,-35866657.25708008,134813.68124485016,-19901205.06286621,-30924669.26574707,-26266246.795654297,-37620525.36010742,-36115398.40698242,-35279808.044433594,-29579486.846923828,-54365676.87988281
0.385,-6518218.517303467,-19616109.84802246,-80533348.0834961,532816.1120414734,-47991798.400878906,41262928.0090332,7124705.3146362305,6695146.083831787,1427007.0791244507,-18815799.713134766,-35137187.95776367,-48280712.12768555,-79217041.015625,-44263034.82055664,12741486.549377441,4357576.847076416,3781970.262527466,2482938.766479492,-17173721.313476562,-19920648.5748291,-46987876.892089844,-69879501.34277344,-105623466.49169922,9093337.059020996,-4216329.097747803,-6967131.614685059,-16739810.943603516,-652502.5963783264,-26453950.881958008,-47797191.61987305,-60768653.869628906,-93622116.08886719,-24398492.81311035,-19468305.587768555,-18682561.87438965,-155289.48605060577,-4696849.346160889,-4245343.6851501465,-41088920.59326172,-60767070.77026367,-63087337.493896484,-24426378.25012207,-24707128.524780273,-19636423.110961914,-9468966.484069824,-25467576.98059082,-10765598.29711914,-39964962.005615234,-48699859.619140625,-60974361.419677734,-38452487.94555664,-39293708.80126953,-38747692.1081543,-4432466.506958008,-26666963.577270508,-38062442.779541016,-30491392.135620117,-40478027.34375,-38979648.59008789,-38793239.59350586,-33221439.361572266,-57863368.98803711
0.39,-4311971.187591553,-18155921.936035156,-77155204.77294922,2118725.7766723633,-46190681.45751953,43229496.002197266,8342204.0939331055,7903610.2294921875,2447673.0823516846,-19414688.110351562,-35137641.90673828,-45618499.755859375,-72242980.95703125,-35520755.767822266,15071780.20477295,6989169.120788574,4872047.424316406,3385415.3156280518,-17896217.346191406,-19252964.01977539,-44809722.900390625,-63821010.58959961,-97002647.39990234,11480782.508850098,-2242522.954940796,-5573600.769042969,-17335256.576538086,412528.48505973816,-25868280.4107666,-46086597.44262695,-55232711.79199219,-86984619.140625,-23576923.370361328,-19446399.688720703,-18527807.235717773,-1157256.1264038086,-6887173.652648926,-5545056.8199157715,-40814472.19848633,-57518615.72265625,-59207298.278808594,-23585744.857788086,-23913263.32092285,-19611871.71936035,-11332500.457763672,-27740642.547607422,-11539346.694946289,-39517490.38696289,-48155349.73144531,-59217147.82714844,-38596961.975097656,-39689998.626708984,-39330284.118652344,-5875083.446502686,-27498491.287231445,-38815937.04223633,-29248071.670532227,-40976188.65966797,-39382175.44555664,-39649772.64404297,-32698886.87133789,-55281639.099121094
0.395,-708022.1772193909,-14276992.797851562,-71822143.5546875,5616538.047790527,-41793514.251708984,46908390.045166016,11521602.630615234,11140172.004699707,5197666.168212891,-19863746.643066406,-33561798.095703125,-41526371.002197266,-65417327.880859375,-27800268.173217773,21012815.475463867,11910837.173461914,7866588.592529297,6120739.936828613,-19109964.37072754,-18824354.17175293,-40994911.193847656,-57072406.76879883,-87408081.0546875,17523515.701293945,1867719.292640686,-3720323.5626220703,-17644195.556640625,-786458.432674408,-24214891.43371582,-41891952.51464844,-48551639.556884766,-78393089.2944336,-18890806.198120117,-16896757.125854492,-16178150.177001953,-1444573.5216140747,-6510709.762573242,-2052311.4204406738,-36505397.79663086,-50959350.5859375,-52862319.94628906,-18879627.227783203,-19154088.973999023,-17226831.436157227,-8975550.651550293,-23749555.587768555,-5132454.872131348,-33178100.5859375,-41989452.36206055,-51047374.7253418,-34126533.50830078,-35431934.35668945,-35073699.951171875,45197.006314992905,-20781913.75732422,-32733367.919921875,-23653110.50415039,-36648597.717285156,-34987632.751464844,-34314643.85986328,-26839784.622192383,-48151687.62207031
0.4,-278064.8171901703,-11524160.385131836,-65948974.609375,5714330.673217773,-37233356.47583008,46286518.09692383,11441627.502441406,11154784.202575684,5115447.044372559,-19903396.606445312,-30848255.157470703,-37318325.04272461,-60441268.92089844,-22927919.387817383,22771190.643310547,11936877.250671387,7713963.508605957,6104662.4183654785,-19916454.315185547,-17739116.668701172,-36389446.25854492,-51232109.06982422,-79858161.92626953,19519784.927368164,2301268.1007385254,-4768758.773803711,-17759750.366210938,-1987656.1164855957,-21820316.314697266,-36851226.806640625,-42539394.37866211,-70855888.36669922,-15375924.110412598,-14919679.641723633,-14530051.231384277,-730424.165725708,-3536988.0199432373,3175520.896911621,-30891742.706298828,-44248634.338378906,-46485942.84057617,-15519247.055053711,-15616188.049316406,-15411535.263061523,-4789525.032043457,-16556716.918945312,2380354.642868042,-26169368.743896484,-35098136.90185547,-42665496.826171875,-27959238.052368164,-29244756.6986084,-28752336.502075195,8582429.885864258,-12859910.96496582,-26293823.2421875,-18337728.50036621,-30168989.181518555,-28622230.529785156,-25404994.96459961,-19162139.892578125,-40473102.56958008
0.405,-3572161.912918091,-11166691.780090332,-61451770.7824707,1466629.981994629,-34089675.90332031,40046077.728271484,6886998.653411865,6673284.05380249,1289029.836654663,-18829620.361328125,-27529521.942138672,-33723098.75488281,-56737262.72583008,-19656614.303588867,17308223.724365234,5915990.352630615,3254369.2588806152,2209448.5759735107,-18739814.75830078,-14960498.809814453,-32128406.524658203,-46826511.38305664,-75149505.61523438,14251723.289489746,-2319350.004196167,-8500881.19506836,-18354852.6763916,-961771.3093757629,-19794990.53955078,-33591140.74707031,-38779148.10180664,-66507720.947265625,-17647436.141967773,-16608915.328979492,-16310062.408447266,-864789.605140686,-2305323.362350464,4763201.2367248535,-28247753.143310547,-41406200.40893555,-43673976.89819336,-18050096.51184082,-17996883.392333984,-17101823.806762695,-4779150.009155273,-14924396.514892578,1899637.222290039,-25625623.70300293,-34440914.154052734,-41407699.58496094,-26640295.028686523,-27756906.509399414,-27296758.6517334,9823420.524597168,-12936762.809753418,-27312057.495117188,-18589557.647705078,-28503818.51196289,-27088279.724121094,-21745216.369628906,-17055101.39465332,-38162620.544433594
0.41,-6535546.779632568,-12398629.188537598,-61344589.23339844,-2180367.4697875977,-33453392.028808594,33568626.403808594,2832075.1190185547,2633737.564086914,-1929848.6709594727,-17011690.139770508,-25258964.53857422,-32771183.013916016,-56603752.13623047,-20811857.223510742,10256966.590881348,543238.4014129639,-591448.3070373535,-1211550.4741668701,-15804605.484008789,-12065753.936767578,-30873289.108276367,-46763031.005859375,-76312240.60058594,7145992.755889893,-6822009.086608887,-10782694.816589355,-18859855.65185547,1512374.1626739502,-19675428.39050293,-34474971.771240234,-39879283.9050293,-68423759.46044922,-23758863.44909668,-20148017.88330078,-19670684.814453125,-2116124.153137207,-4778513.431549072,1973004.698753357,-30736831.665039062,-44666198.73046875,-47536510.4675293,-24213912.963867188,-24158065.795898438,-20500745.77331543,-9591157.913208008,-21097164.154052734,-7076325.416564941,-32546379.08935547,-41455890.65551758,-48699939.7277832,-32722194.67163086,-33745433.80737305,-33562076.568603516,1254034.8768234253,-22645828.247070312,-36769992.82836914,-25946781.158447266,-34755596.16088867,-33223800.659179688,-28408143.997192383,-24292526.245117188,-44479545.59326172
0.415,-5751499.176025391,-14135883.331298828,-66017097.47314453,-1260214.6863937378,-35268642.42553711,32428852.081298828,3588644.9813842773,3366686.8209838867,-997549.2358207703,-15962930.679321289,-25594554.901123047,-35662532.806396484,-61865982.05566406,-28739624.0234375,8705720.901489258,1330859.5418930054,372110.4860305786,-356550.27627944946,-13715988.159179688,-11932172.775268555,-33999641.41845703,-52203437.80517578,-84033882.14111328,5441355.7052612305,-6224335.670471191,-9021137.237548828,-17810909.271240234,2502927.780151367,-21467931.747436523,-38535053.25317383,-45502040.86303711,-75801551.81884766,-26912702.560424805,-20510961.532592773,-19921701.431274414,-2051793.8137054443,-7359940.052032471,-284398.4663486481,-35536235.80932617,-50774810.791015625,-55384490.966796875,-27064882.278442383,-27116165.161132812,-20743116.37878418,-12512690.544128418,-26764671.325683594,-14937022.20916748,-39658027.64892578,-49301994.32373047,-57918769.83642578,-40236892.70019531,-41265354.15649414,-41322910.30883789,-8118229.866027832,-33023941.040039062,-46876522.064208984,-35265476.22680664,-42796394.34814453,-40977119.44580078,-38958751.6784668,-34907527.923583984,-54372837.06665039
0.42,-3333126.7833709717,-15403773.307800293,-70204399.10888672,1393808.6032867432,-36894287.109375,34430328.369140625,6237102.98538208,6014786.243438721,1329639.0771865845,-16842493.057250977,-27593845.36743164,-39137001.037597656,-66741981.506347656,-35224044.79980469,11786934.852600098,4706392.288208008,3148125.648498535,2136749.029159546,-14890794.75402832,-14673610.68725586,-38266139.98413086,-56946357.72705078,-89601188.65966797,8713587.760925293,-2675028.3241271973,-6158021.926879883,-15878767.013549805,246345.1772928238,-23059469.22302246,-41140472.412109375,-49434337.6159668,-80126197.8149414,-23827692.03186035,-16578289.031982422,-16162038.803100586,263817.3997402191,-6643614.292144775,1737108.2305908203,-37225208.2824707,-52498031.61621094,-58414524.07836914,-23584777.83203125,-23763805.389404297,-16841503.143310547,-8765265.464782715,-24733821.868896484,-13853891.372680664,-39416412.353515625,-49649765.01464844,-59427207.946777344,-40915676.11694336,-41863937.37792969,-41875308.990478516,-8899338.722229004,-34229881.286621094,-48406894.68383789,-37755065.91796875,-43656772.61352539,-41734828.94897461,-42137767.79174805,-38267425.537109375,-57562549.59106445
0.425,-5820220.947265625,-15899856.567382812,-67828918.45703125,-576885.5810165405,-34749011.9934082,30748558.044433594,3921680.212020874,3756931.3049316406,-942885.69688797,-19339193.34411621,-28187463.760375977,-37370155.334472656,-60975391.38793945,-25950262.06970215,11863723.754882812,2491610.527038574,1022545.8145141602,84312.41661310196,-18662073.135375977,-16814397.81188965,-37974342.346191406,-51705619.81201172,-80326911.92626953,9565440.17791748,-2692096.471786499,-7043243.408203125,-16265989.303588867,-3877485.0368499756,-22319299.697875977,-38248657.2265625,-44333820.34301758,-71877212.52441406,-18550001.14440918,-13172472.00012207,-13010032.653808594,1877591.848373413,-4627197.742462158,6011118.8888549805,-33314846.03881836,-45622070.3125,-49898414.611816406,-18206975.93688965,-18475498.19946289,-13584333.419799805,-2617576.837539673,-19069660.186767578,-6967568.874359131,-32400157.928466797,-41313865.661621094,-49249534.606933594,-34064785.00366211,-34797489.166259766,-34578926.08642578,-2556915.521621704,-26498182.29675293,-39919605.25512695,-29223850.25024414,-36387828.8269043,-34681629.1809082,-35304084.77783203,-30770294.189453125,-49692604.064941406
0.43,-17509939.193725586,-17360975.26550293,-60113357.54394531,-9158161.163330078,-28856044.76928711,16348791.122436523,-5269945.6214904785,-5382066.72668457,-9371984.481811523,-22230302.810668945,-25882062.911987305,-28875795.364379883,-42316787.71972656,1580743.5512542725,4723980.903625488,-7195360.6605529785,-7605432.033538818,-8285122.871398926,-21904161.45324707,-15455993.65234375,-31135982.513427734,-35062911.98730469,-54492778.77807617,3512921.3333129883,-8374375.343322754,-11954141.616821289,-20389917.373657227,-6591734.886169434,-19295993.80493164,-30447280.883789062,-29634000.778198242,-51489326.47705078,-16742185.592651367,-14481675.148010254,-14311756.134033203,103597.43982553482,-5040358.066558838,8644921.30279541,-26168018.341064453,-33222770.69091797,-32688419.342041016,-16634365.08178711,-16884344.10095215,-14975205.421447754,-1356695.6520080566,-18221755.981445312,-2633121.7288970947,-25271879.196166992,-30470865.24963379,-33229957.580566406,-26905281.06689453,-27473915.100097656,-27154291.1529541,2403789.99710083,-18545888.900756836,-28719367.98095703,-15086333.274841309,-28734395.98083496,-27273599.62463379,-26616411.209106445,-19540296.55456543,-37502307.8918457
0.435,-34310611.724853516,-21860361.099243164,-54397544.860839844,-19375722.885131836,-23629016.876220703,-2687052.4883270264,-15598956.108093262,-15775521.278381348,-18780488.967895508,-24352157.592773438,-22669729.232788086,-19004730.224609375,-21128578.186035156,31536422.729492188,-5162662.029266357,-17442291.259765625,-16966604.232788086,-17783676.147460938,-22438941.955566406,-11758195.877075195,-21645677.56652832,-16213396.072387695,-25900535.583496094,-5531829.357147217,-14934206.008911133,-16408424.377441406,-24897197.723388672,-5809062.0040893555,-15751923.561096191,-21800804.138183594,-12714313.507080078,-29773429.87060547,-19062940.59753418,-18648977.279663086,-18182029.724121094,-3182758.092880249,-7145619.3923950195,9525213.241577148,-19438547.134399414,-21848119.735717773,-16402173.99597168,-19198156.356811523,-19276817.321777344,-19007875.442504883,-5119325.160980225,-21996786.11755371,-2845649.242401123,-21819040.298461914,-23115053.176879883,-21281158.447265625,-25317693.71032715,-25889385.223388672,-25731554.03137207,2515857.219696045,-16028402.328491211,-22559257.50732422,-5215611.457824707,-27081172.943115234,-25582454.681396484,-23654634.475708008,-13468023.300170898,-30578104.01916504
0.44,-45469131.46972656,-27427989.959716797,-53578758.239746094,-24449676.513671875,-22226678.8482666,-14755661.010742188,-20105848.31237793,-20469976.4251709,-22828426.361083984,-24617784.50012207,-20850421.905517578,-13458493.23272705,-9109998.70300293,46449848.17504883,-10804007.530212402,-21244087.21923828,-20658908.84399414,-21935270.309448242,-20602001.190185547,-8727446.556091309,-14322290.420532227,-4876294.6128845215,-9829977.989196777,-10940271.377563477,-17465698.2421875,-17189577.102661133,-25145481.10961914,-2436187.267303467,-12831627.84576416,-15279950.141906738,-1627282.6194763184,-16476711.27319336,-22100599.28894043,-21184324.264526367,-20445022.583007812,-4096901.4167785645,-6890406.131744385,11376233.100891113,-14356621.742248535,-14837266.92199707,-7716820.240020752,-22244756.6986084,-22097240.447998047,-21275411.60583496,-7600991.249084473,-22316932.678222656,-2133799.5529174805,-19499109.268188477,-19529758.45336914,-17217359.54284668,-27677333.83178711,-28274740.21911621,-28347341.537475586,2076182.3654174805,-15659772.872924805,-21861564.63623047,-3666108.3698272705,-29596809.38720703,-27867649.07836914,-24793775.55847168,-13525783.53881836,-30599775.314331055
0.445,-44494613.64746094,-28990566.25366211,-52624244.689941406,-22651422.50061035,-22333013.5345459,-15720389.366149902,-18069124.221801758,-18566383.361816406,-20696416.8548584,-22418411.254882812,-19620351.791381836,-11656899.452209473,-6950285.4347229,45834548.95019531,-11569664.001464844,-19746950.149536133,-18592594.146728516,-19830749.51171875,-17879186.630249023,-6918023.109436035,-10094176.292419434,-1765874.981880188,-7858330.726623535,-11979627.60925293,-17263769.149780273,-16207429.885864258,-21307409.286499023,724294.5432662964,-10325573.921203613,-11088210.105895996,1831290.8411026,-12001420.974731445,-24166673.66027832,-21667085.647583008,-20939495.086669922,-2436054.7065734863,-3423804.998397827,14860301.01776123,-10657544.136047363,-11219986.915588379,-5704921.245574951,-24215229.034423828,-23975130.081176758,-21621028.900146484,-6020229.816436768,-16382217.407226562,2753161.907196045,-15403089.52331543,-16830934.524536133,-16605913.162231445,-29509078.979492188,-30017438.888549805,-30096593.856811523,4197054.386138916,-12168897.62878418,-21495738.983154297,-5714421.74911499,-31311513.900756836,-29530712.127685547,-24704061.50817871,-14478960.037231445,-32553737.64038086
0.45,-37212219.23828125,-25623311.99645996,-47837776.18408203,-18529436.111450195,-20061883.9263916,-13030728.340148926,-14878911.018371582,-15259046.55456543,-17292676.92565918,-18832386.016845703,-16882570.266723633,-9300974.84588623,-6870903.968811035,42651706.69555664,-12933296.203613281,-19673446.655273438,-16033321.380615234,-16358079.91027832,-15467771.530151367,-4601620.197296143,-7502419.948577881,-1200852.1556854248,-10116864.204406738,-13650654.792785645,-19070392.608642578,-17216321.94519043,-18495164.87121582,1630217.3137664795,-8188718.795776367,-8938683.50982666,1492669.2247390747,-11433912.27722168,-26746498.107910156,-23297330.856323242,-22764795.303344727,-1593294.2628860474,-561192.8105354309,17687034.606933594,-9181345.93963623,-9641053.199768066,-6122006.416320801,-26823076.248168945,-26667850.494384766,-23360248.565673828,-4654254.913330078,-11520956.039428711,7441061.973571777,-11685217.85736084,-14361998.558044434,-14751996.994018555,-30334339.141845703,-30771518.70727539,-30583715.438842773,5409384.727478027,-6945025.444030762,-18656476.974487305,-5395317.554473877,-31767576.217651367,-30277162.551879883,-23610227.584838867,-13547437.66784668,-33872756.95800781
0.455,-35449722.29003906,-23330642.700195312,-44224945.068359375,-17835580.825805664,-16410060.88256836,-15750946.998596191,-15637851.71508789,-15685815.811157227,-17599805.83190918,-16565155.029296875,-13548640.251159668,-5931338.787078857,-4719181.060791016,44754001.61743164,-18688926.696777344,-24620492.935180664,-17276092.529296875,-16532842.636108398,-14462891.578674316,-1791950.8218765259,-6866245.269775391,-172621.488571167,-9617291.450500488,-19288045.88317871,-24271814.346313477,-20908735.275268555,-20547559.73815918,462343.5139656067,-7635929.584503174,-9745996.475219727,830950.7966041565,-12628641.128540039,-31028390.884399414,-27185556.411743164,-26707181.930541992,-3393511.5337371826,-1443313.1217956543,18074909.210205078,-11360180.854797363,-10624603.271484375,-7348227.024078369,-31203693.389892578,-31155221.939086914,-27385026.931762695,-7556413.650512695,-14715979.57611084,5976213.455200195,-12662252.426147461,-14542145.729064941,-13520495.414733887,-33135936.737060547,-33710422.51586914,-33256507.873535156,1351858.4966659546,-6343830.108642578,-16533176.42211914,-3458929.5387268066,-34431777.95410156,-33325462.341308594,-26480295.181274414,-13841208.457946777,-37537830.3527832
0.46,-42088764.19067383,-26614294.052124023,-47758983.61206055,-21255697.25036621,-15773182.86895752,-23175947.189331055,-19784343.719482422,-19569135.665893555,-21363733.291625977,-17017709.732055664,-12813964.84375,-5596335.887908936,-3970117.8073883057,47380523.681640625,-26165157.318115234,-31273330.688476562,-21320507.049560547,-20214769.36340332,-15377041.816711426,-1029897.0937728882,-9589715.003967285,-769106.9841384888,-8753858.56628418,-26223417.282104492,-29435510.635375977,-24661157.608032227,-25363018.035888672,-1027342.5579071045,-9571290.969848633,-13712640.762329102,-610867.2618865967,-16652288.436889648,-35634578.704833984,-30621404.64782715,-29912162.78076172,-5824870.586395264,-4541927.337646484,16629013.061523438,-16323274.612426758,-14543172.836303711,-10554505.348205566,-35755706.787109375,-35721595.764160156,-30728080.74951172,-12345573.425292969,-22661428.451538086,-991313.9939308167,-18323520.66040039,-18813638.68713379,-17585901.260375977,-38709667.20581055,-39512321.47216797,-39099617.00439453,-6267619.1329956055,-12751445.770263672,-19508998.87084961,-5420489.78805542,-40294326.78222656,-39318588.25683594,-34543289.18457031,-19031211.853027344,-45713935.85205078
0.465,-47750614.166259766,-31081909.1796875,-54666259.765625,-24061311.721801758,-18611949.920654297,-27038372.039794922,-22458665.84777832,-22295333.862304688,-23953533.172607422,-18155282.974243164,-15039189.338684082,-9746851.921081543,-7764138.221740723,44092197.41821289,-29876220.703125,-34181526.18408203,-23767107.009887695,-22890769.958496094,-16817823.41003418,-3212139.368057251,-14111929.893493652,-4491354.942321777,-11770007.133483887,-29490062.713623047,-31122272.491455078,-26105619.430541992,-27684947.967529297,-1252676.7253875732,-12540794.372558594,-18322603.225708008,-4812249.183654785,-22513780.59387207,-38454448.69995117,-31339935.302734375,-30330631.256103516,-6421618.461608887,-6387373.924255371,14750559.80682373,-20673940.658569336,-19525835.037231445,-15842443.466186523,-38373535.15625,-38348518.37158203,-31236299.514770508,-14163431.167602539,-26750097.274780273,-7261678.218841553,-23897405.62438965,-24918046.951293945,-26338991.165161133,-44014614.10522461,-44826034.54589844,-44725498.19946289,-11941410.064697266,-21236181.259155273,-26906482.696533203,-12998981.475830078,-45946201.32446289,-44802635.192871094,-42592376.708984375,-27543300.62866211,-54757686.614990234
0.47,-44503051.7578125,-29477325.439453125,-55630161.28540039,-22362237.93029785,-19842927.932739258,-23780374.52697754,-20684686.6607666,-20830217.361450195,-22295036.31591797,-17053831.100463867,-16443418.502807617,-13648331.642150879,-12375351.905822754,37745429.99267578,-28279733.657836914,-32293983.459472656,-22226417.541503906,-21444440.841674805,-16485414.505004883,-5304337.501525879,-16144622.802734375,-8337930.679321289,-16470771.789550781,-28032983.779907227,-29857484.817504883,-25496549.606323242,-25540218.353271484,11248.978786170483,-13728519.439697266,-20219572.067260742,-10876009.941101074,-26017688.751220703,-39224979.400634766,-30628456.115722656,-29552639.00756836,-5510240.55480957,-6192253.589630127,13179109.573364258,-21924020.767211914,-22759487.15209961,-20668333.053588867,-39056320.19042969,-39141948.69995117,-30562324.52392578,-12701445.579528809,-24682258.60595703,-8910149.574279785,-25715358.73413086,-29226009.368896484,-33594127.6550293,-46269233.70361328,-46830757.14111328,-46942592.62084961,-13368435.859680176,-25763698.57788086,-33559040.06958008,-21048192.977905273,-48217453.00292969,-46862373.35205078,-45594650.26855469,-33929477.69165039,-59230728.14941406
0.475,-36452198.02856445,-22330385.208129883,-48548988.342285156,-17828517.91381836,-15750176.429748535,-18944637.298583984,-16575038.90991211,-17004413.604736328,-18314416.885375977,-13859971.046447754,-14042347.90802002,-12047917.366027832,-11549671.173095703,36418083.19091797,-25034158.70666504,-29163711.547851562,-18668315.887451172,-17611370.086669922,-14249107.360839844,-4130432.12890625,-13663040.161132812,-8033391.952514648,-16842540.740966797,-25385353.088378906,-28443328.857421875,-24554168.701171875,-21983779.907226562,1755448.4605789185,-12148413.65814209,-18696779.251098633,-14633243.560791016,-24437944.412231445,-39252220.153808594,-30752471.923828125,-29861740.112304688,-4830740.928649902,-5770437.240600586,12342201.232910156,-20829332.35168457,-23095460.891723633,-22292146.682739258,-39234901.428222656,-39433315.27709961,-31051597.595214844,-11626363.754272461,-21755144.119262695,-7834474.563598633,-24809169.76928711,-30563041.68701172,-35172012.32910156,-46121356.96411133,-46494323.73046875,-46447528.83911133,-12823534.01184082,-25724422.454833984,-35865360.260009766,-24049589.157104492,-47829372.40600586,-46429798.1262207,-44372001.64794922,-35059230.80444336,-58611225.12817383
0.48,-31231529.235839844,-16087860.107421875,-39868724.82299805,-14114793.77746582,-8684580.80291748,-17261886.596679688,-13292930.603027344,-13805396.08001709,-15166939.735412598,-10921897.888183594,-9215676.307678223,-5629479.40826416,-4587865.352630615,42301986.69433594,-23278532.028198242,-27076047.897338867,-15755419.731140137,-14433105.46875,-12305963.516235352,-618018.0907249451,-9022212.982177734,-3020300.3883361816,-11286817.55065918,-24129179.000854492,-27465036.392211914,-23743387.22229004,-20208189.010620117,3064326.524734497,-9550447.463989258,-15826476.097106934,-12941338.539123535,-19402854.919433594,-38986122.131347656,-31081001.28173828,-30386636.73400879,-4538574.695587158,-5963468.551635742,12609444.618225098,-19457408.905029297,-21348518.37158203,-20177129.7454834,-39161533.35571289,-39293704.986572266,-31708539.962768555,-12432460.78491211,-21646287.91809082,-7348073.0056762695,-23790784.83581543,-30059940.338134766,-32777683.25805664,-45523216.247558594,-46008129.11987305,-45591457.36694336,-12478834.15222168,-24292036.056518555,-34643791.19873047,-22318927.764892578,-47043624.87792969,-45728996.27685547,-42624729.15649414,-32662792.205810547,-56609565.73486328
0.485,-27520641.326904297,-12675986.289978027,-34241733.55102539,-11011424.06463623,-3197990.655899048,-14883160.591125488,-10280035.018920898,-10764010.429382324,-12383107.18536377,-8749172.21069336,-5067145.347595215,457339.49542045593,2937529.8023223877,49461673.736572266,-21481170.654296875,-24148258.209228516,-12936504.364013672,-11520450.592041016,-11657096.862792969,1931569.6954727173,-5488125.801086426,3197807.550430298,-4488690.376281738,-22489336.013793945,-24858764.6484375,-21952648.162841797,-19476879.119873047,4080211.639404297,-7876786.708831787,-13610043.5256958,-7419607.639312744,-14355355.262756348,-37590061.18774414,-29405748.36730957,-28769800.186157227,-3606179.95262146,-5789276.599884033,13614202.499389648,-18431312.561035156,-18821023.94104004,-15774127.006530762,-37773715.97290039,-37705368.04199219,-30002159.118652344,-13080103.874206543,-22097925.186157227,-7654098.987579346,-22950340.270996094,-28334331.512451172,-29684684.75341797,-44804416.65649414,-45545356.75048828,-44927696.228027344,-12067003.25012207,-22944112.77770996,-32160659.790039062,-19632287.979125977,-46269001.00708008,-45035614.013671875,-41474712.37182617,-29871856.689453125,-55181320.19042969
0.49,-19815420.150756836,-8282331.466674805,-30192775.72631836,-6319813.251495361,-545348.1078147888,-7286493.301391602,-5723652.362823486,-6225548.267364502,-8069043.159484863,-5926579.95223999,-2674808.0253601074,2753708.839416504,5857442.855834961,52005996.70410156,-17278148.651123047,-19081132.888793945,-8768108.367919922,-7125943.183898926,-10738700.866699219,2510393.1427001953,-4042192.4591064453,6820444.583892822,-1176116.4665222168,-18388330.459594727,-20379884.719848633,-19214532.85217285,-17665122.985839844,5248379.230499268,-7205375.194549561,-12574807.167053223,-2823536.157608032,-11106522.560119629,-35358280.181884766,-26480657.57751465,-25855194.091796875,-2537945.9857940674,-5246210.57510376,14285827.63671875,-17490165.71044922,-16629665.37475586,-11194570.541381836,-35391963.958740234,-35263778.68652344,-26814878.463745117,-12786258.697509766,-21199245.45288086,-7606327.533721924,-21597064.971923828,-25340009.689331055,-26434362.411499023,-43769561.767578125,-44598693.84765625,-44095962.52441406,-11629689.21661377,-21086568.83239746,-29520654.678344727,-17544778.82385254,-45150470.73364258,-43977890.01464844,-40108188.62915039,-27777160.64453125,-52986759.185791016
0.495,-12167983.055114746,-2852533.3404541016,-27078332.901000977,-2570544.719696045,481215.86441993713,-651901.364326477,-2463954.9255371094,-2999914.6461486816,-4771860.599517822,-3207548.141479492,-1787449.7175216675,1807366.4903640747,4392732.1434021,50408718.10913086,-13672601.699829102,-16208827.97241211,-5963106.632232666,-3857737.7796173096,-8843218.803405762,2770130.8727264404,-4428064.823150635,6863563.060760498,-987757.682800293,-15011165.618896484,-18231813.430786133,-18474504.470825195,-15992430.686950684,5965997.219085693,-6896588.325500488,-12867630.958557129,-2000437.0212554932,-9722137.451171875,-35133819.580078125,-26503740.310668945,-25945560.455322266,-3589632.987976074,-6495319.366455078,13967035.293579102,-17464954.376220703,-15848759.651184082,-8380903.244018555,-35009010.314941406,-35107105.25512695,-26684467.315673828,-14167363.166809082,-22340940.475463867,-8413085.9375,-21148881.912231445,-22758081.436157227,-23236038.208007812,-44120662.689208984,-44808662.41455078,-44549072.265625,-13199122.428894043,-19810064.3157959,-28021173.47717285,-15542097.091674805,-45332050.32348633,-44248359.68017578,-39807685.85205078,-26480743.408203125,-49952690.12451172
