time,Fp1,Fpz,Fp2,AF3,AF4,F7,F5,F3,F1,Fz,F2,F4,F6,F8,FT7,FC5,FC3,FC1,FCz,FC2,FC4,FC6,FT8,T7,C5,C3,C1,Cz,C2,C4,C6,T8,TP7,CP5,CP3,CP1,CPz,CP2,CP4,CP6,TP8,P7,P5,P3,P1,Pz,P2,P4,P6,P8,PO7,PO5,PO3,POz,PO4,PO6,PO8,CB1,O1,Oz,O2,CB2
0.0,4018317.699432373,3948224.3061065674,4020695.686340332,2965718.2693481445,3205664.3962860107,2865718.8415527344,3054718.255996704,3037327.289581299,2946118.116378784,2535670.757293701,2608258.9626312256,2429145.574569702,2515566.349029541,3997992.0387268066,3403650.5222320557,3061013.4601593018,2857919.692993164,2991002.7980804443,2166795.9690093994,1279270.4105377197,2221793.8899993896,1934091.0911560059,2185355.9017181396,3416220.9033966064,2624127.8648376465,2238464.593887329,1678856.372833252,2593522.548675537,1001130.1040649414,1598333.477973938,2386337.995529175,812332.9281806946,2644375.0858306885,2312965.8699035645,2327990.2935028076,1139665.126800537,3125692.60597229,2395258.4266662598,1850909.4715118408,2174639.940261841,2534590.005874634,2730884.075164795,2635018.3486938477,2316562.6525878906,1392269.6113586426,1425971.7464447021,2546393.871307373,1647721.290588379,1783396.9593048096,861214.2205238342,1967462.8973007202,1957488.6560440063,1937994.8377609253,1418417.0961380005,1669719.934463501,1282720.446586609,1001775.9799957275,1888715.7440185547,1932505.488395691,1534070.611000061,1675632.119178772,1405900.9552001953
0.005,10537208.557128906,-421857.7742576599,5178229.808807373,-3718000.888824463,-1859896.4214324951,-7579204.559326172,-2633607.6259613037,-2393889.904022217,-3081731.7962646484,-3757256.031036377,-2221141.576766968,-2653681.2782287598,-132726.0583639145,4682463.645935059,1199405.550956726,-2954988.2411956787,-3614890.5754089355,-2530839.681625366,-3993664.026260376,-4076537.609100342,-241175.65155029297,-355528.44405174255,2007683.277130127,1404005.0506591797,-3697888.3743286133,-3751968.1453704834,-8856872.55859375,-2768048.7632751465,-1656862.0204925537,-1110818.5052871704,4995613.098144531,4738627.910614014,2822561.9792938232,-3876183.271408081,-3170495.9869384766,-3881168.842315674,-2225264.310836792,1797086.238861084,1496520.8768844604,2878030.0617218018,1716974.9736785889,4511759.7579956055,2895522.5944519043,-3354587.7933502197,-1837866.187095642,-429335.98160743713,6098948.001861572,5784733.772277832,5855663.776397705,4514782.905578613,9699050.903320312,9905385.971069336,9599819.18334961,8315183.639526367,10487160.682678223,10898641.586303711,9136322.975158691,9633743.286132812,10375676.155090332,12127017.974853516,11183683.395385742,11739603.042602539
0.01,14497444.152832031,-270082.17573165894,5744619.369506836,-3670618.5340881348,-1664360.0463867188,-10561385.154724121,-2435827.7320861816,-2096935.2722167969,-3047264.337539673,-3274643.659591675,-1398087.3823165894,-3221926.689147949,-1161823.034286499,3776378.1547546387,1734051.5851974487,-3651328.3252716064,-3781202.3162841797,-2258374.4525909424,-3402556.4193725586,-4451185.22644043,154032.69231319427,-2113512.2776031494,261584.75875854492,2020605.3256988525,-3907255.4111480713,-4186959.743499756,-11270821.571350098,-2711466.073989868,-1723522.0670700073,-2422027.111053467,4179383.7547302246,3133553.981781006,3181359.29107666,-5078781.604766846,-4137186.5272521973,-5716534.614562988,-4284715.65246582,1059875.3690719604,6991.730537265539,166107.28204250336,-824912.0116233826,5473258.018493652,3295139.0743255615,-4465556.1447143555,-4741269.111633301,-3923219.4423675537,4032047.748565674,4093215.4655456543,1825634.479522705,-84618.35980415344,9857175.827026367,10140436.172485352,9542080.879211426,5615612.506866455,8157528.877258301,7697791.09954834,5942280.292510986,9658505.4397583,10604631.423950195,10302290.916442871,8676011.085510254,10190333.366394043
0.015,13689549.446105957,1528545.7372665405,3809130.907058716,-241672.66488075256,888804.55493927,-9520529.747009277,504580.91497421265,845815.2413368225,-88767.67009496689,926798.7608909607,2267885.684967041,-1267062.5448226929,-1938573.0028152466,580886.4831924438,2320873.498916626,-1972407.6986312866,-774911.642074585,854969.9187278748,1503561.9735717773,-1760736.2270355225,1966259.1218948364,-4012812.614440918,-3545783.281326294,2597568.7503814697,-1219552.1593093872,-1578073.1439590454,-7871502.39944458,1862301.1112213135,-192086.6221189499,-2454984.188079834,976086.8549346924,-2750574.3503570557,1751855.6118011475,-3528914.9284362793,-2772708.6544036865,-5160408.973693848,-2682276.725769043,828554.5110702515,-1474591.4936065674,-3928097.2480773926,-3897658.586502075,3818517.9233551025,1879148.244857788,-3199070.692062378,-6498294.353485107,-6960917.4728393555,-394196.5103149414,-759146.8691825867,-6355487.823486328,-9319922.44720459,2857939.7201538086,3032073.0209350586,2356110.5728149414,-3212306.022644043,-1226930.7374954224,-3709389.6865844727,-4781737.327575684,2455081.7012786865,3199081.1824798584,-700406.4321517944,-2230653.0475616455,-919384.3603134155
0.02,8058840.751647949,-1180052.638053894,-1604072.2131729126,-1756224.3938446045,-1106520.414352417,-13171507.835388184,-1280084.8484039307,-932300.3888130188,-1813599.705696106,396058.6488246918,1384507.0600509644,-2470865.488052368,-5077762.126922607,-4446294.30770874,-1392254.114151001,-4438857.078552246,-2358638.5250091553,-514459.7291946411,2415028.3336639404,-2039255.6190490723,1123502.3736953735,-7342741.4894104,-8562318.801879883,-1064593.4343338013,-2933305.025100708,-2332700.490951538,-7254873.275756836,4798543.930053711,-499850.6009578705,-2966936.8267059326,-1686731.3385009766,-7489981.651306152,-2857237.1006011963,-4712798.118591309,-4175671.100616455,-5542342.662811279,-863055.3483963013,837909.8773002625,-1774356.9612503052,-5868010.997772217,-5711000.919342041,-959756.8511962891,-2686945.4383850098,-4615996.837615967,-6579733.848571777,-7019453.048706055,-794274.7473716736,-2708863.0199432373,-9675833.702087402,-13875112.533569336,-4228559.494018555,-4229004.859924316,-4603482.246398926,-7663840.293884277,-5842212.200164795,-9578234.672546387,-10876994.132995605,-4655598.163604736,-4061125.2784729004,-7818126.201629639,-8931592.94128418,-9423034.66796875
0.025,1063770.2941894531,-8315763.473510742,-7673690.7958984375,-9225106.239318848,-8221043.586730957,-22366146.087646484,-8503904.342651367,-8216787.338256836,-9053578.37677002,-6832576.751708984,-5602711.200714111,-8200956.344604492,-10339583.396911621,-9782921.79107666,-8329157.829284668,-11145762.44354248,-9466965.675354004,-7378661.632537842,-3924005.2700042725,-7326016.426086426,-3801492.929458618,-12257241.249084473,-13243300.437927246,-7807285.785675049,-9309083.938598633,-7251711.845397949,-12426049.23248291,1804334.1636657715,-4344650.745391846,-5764816.2841796875,-4017765.998840332,-9055509.567260742,-8328433.036804199,-9029853.820800781,-8515272.14050293,-8302783.012390137,-3141705.03616333,-1100726.0084152222,-2622848.0339050293,-7044523.7159729,-7505980.491638184,-6218021.392822266,-8070502.281188965,-8836165.428161621,-5977463.245391846,-6040819.16809082,1657897.2339630127,-2286398.8876342773,-8403899.192810059,-12737519.264221191,-6329598.426818848,-6374390.602111816,-6320470.809936523,-5400054.454803467,-3759573.6980438232,-7162731.170654297,-9310360.9085083,-6485854.625701904,-5797383.3084106445,-6078625.202178955,-7749787.330627441,-9370939.254760742
0.03,-2067980.0510406494,-12725647.926330566,-9383073.806762695,-14995936.393737793,-13198845.863342285,-28980325.69885254,-14074712.753295898,-13978216.171264648,-14714084.62524414,-13775791.16821289,-12112014.770507812,-13376132.011413574,-13931006.43157959,-12980842.590332031,-12678772.926330566,-15759218.215942383,-15060683.250427246,-13064690.589904785,-11809314.727783203,-13325504.302978516,-9517521.858215332,-16866989.135742188,-16006814.956665039,-11997201.919555664,-13755004.8828125,-11086152.076721191,-18061746.59729004,-4603157.043457031,-9628422.737121582,-10430138.58795166,-8037811.279296875,-9998904.22821045,-10970688.819885254,-12027462.95928955,-11449278.831481934,-11688015.937805176,-9604375.839233398,-5905958.17565918,-6219357.967376709,-10992592.811584473,-11469324.111938477,-8697441.101074219,-10659955.024719238,-11547032.356262207,-6486891.746520996,-7836291.313171387,562667.6082611084,-4821837.425231934,-10460433.006286621,-13100706.100463867,-5189444.065093994,-5120122.43270874,-4930182.456970215,-3647696.4950561523,-3363740.921020508,-5922120.571136475,-8150516.510009766,-5008346.080780029,-4209876.06048584,-2842392.921447754,-6398241.996765137,-6429190.635681152
0.035,1703904.9863815308,-8944837.57019043,-4557627.201080322,-12991809.844970703,-10034152.030944824,-26940521.240234375,-12450993.537902832,-12522853.85131836,-13179741.859436035,-13552908.897399902,-11516131.401062012,-12489103.317260742,-12268439.292907715,-11595350.26550293,-10953020.095825195,-14294548.034667969,-13657965.660095215,-11945056.915283203,-13725079.536437988,-14794255.256652832,-11139486.312866211,-18182275.772094727,-15382386.207580566,-10420037.269592285,-12527221.6796875,-10423655.50994873,-18741867.065429688,-7680487.155914307,-12287954.330444336,-13410126.686096191,-11696112.632751465,-11150774.002075195,-10025084.495544434,-11368443.489074707,-10803719.520568848,-13335652.351379395,-14650852.20336914,-9668541.90826416,-10090778.350830078,-15197384.83428955,-15001752.853393555,-7910889.625549316,-9801219.940185547,-10727033.615112305,-8172578.811645508,-11300589.561462402,-3958091.974258423,-9623669.624328613,-16447029.113769531,-16801872.25341797,-4688284.873962402,-4544773.578643799,-4547411.918640137,-6179835.796356201,-7444148.540496826,-9817293.167114258,-11503517.150878906,-4441825.389862061,-3726819.2768096924,-4179237.3657226562,-9159629.821777344,-6542322.158813477
0.04,10740073.204040527,729549.8251914978,3841758.2511901855,-5368196.487426758,-912658.154964447,-19008544.921875,-5632421.970367432,-5714527.130126953,-6386050.701141357,-6808068.752288818,-4276699.066162109,-5629352.569580078,-5712677.478790283,-5351609.706878662,-5333859.443664551,-9252891.540527344,-7310441.493988037,-5473760.12802124,-8560637.474060059,-10873226.165771484,-6737549.304962158,-14510928.1539917,-10711411.476135254,-5231638.431549072,-8600154.876708984,-7427685.737609863,-15264598.846435547,-3751872.0626831055,-9878038.40637207,-10746236.801147461,-9228525.161743164,-8832964.897155762,-7523522.853851318,-9153164.863586426,-8648850.440979004,-12737304.6875,-12696446.418762207,-6903396.6064453125,-8402756.690979004,-12229434.0133667,-11686214.447021484,-5568089.962005615,-7516202.449798584,-8585746.765136719,-8816633.224487305,-11051485.061645508,-4077644.8249816895,-8855122.566223145,-16563213.348388672,-16042375.564575195,-4509677.410125732,-4482768.535614014,-4652006.62612915,-7482935.905456543,-7817370.414733887,-10321419.715881348,-12362530.708312988,-4481428.623199463,-3943546.5335845947,-5694865.2267456055,-9568496.704101562,-6413900.375366211
0.045,20138057.708740234,9899398.803710938,11040017.127990723,1915562.9873275757,7377186.7752075195,-11866853.713989258,908151.388168335,799567.1033859253,204637.64667510986,841711.8191719055,3945179.9392700195,2319906.711578369,1842838.168144226,2754577.63671875,-60417.965054512024,-4860113.620758057,-1300803.6613464355,1188317.894935608,-1406247.7350234985,-4846256.256103516,979209.8999023438,-7436016.082763672,-3504624.605178833,-294017.40431785583,-5689520.359039307,-5289903.163909912,-11707926.750183105,3793000.2212524414,-3922896.146774292,-2941455.602645874,556594.3717956543,-900056.4217567444,-4887175.0831604,-7501160.621643066,-7001097.202301025,-11057721.138000488,-5108019.3519592285,1633895.5163955688,-167595.2821969986,-911344.7666168213,-321447.13401794434,-2813382.387161255,-5068405.1513671875,-7092826.366424561,-6972382.068634033,-5812116.1460876465,3238533.2584381104,222675.42779445648,-5966614.246368408,-6285496.711730957,-1632918.7154769897,-1796197.772026062,-1894751.5487670898,-2728896.8563079834,564044.4755554199,-1302660.9420776367,-4737796.306610107,-1767450.451850891,-1312135.6964111328,-1200811.743736267,-2036316.6332244873,-228242.6804304123
0.05,24929977.416992188,14176751.136779785,14259550.094604492,5347586.154937744,10576605.796813965,-9370076.179504395,3912719.0113067627,3531712.770462036,3299148.5595703125,4913024.90234375,8205481.52923584,6457574.844360352,6118247.032165527,8069811.820983887,2219289.0644073486,-2866147.518157959,1554449.439048767,4534480.571746826,2461526.393890381,-857304.036617279,6533416.271209717,-1657345.175743103,2139247.6558685303,2018333.911895752,-4114447.593688965,-4355966.091156006,-10231735.229492188,7989737.510681152,752231.9555282593,3623932.6000213623,9726865.768432617,7391900.539398193,-2589657.783508301,-6281058.311462402,-5756467.342376709,-9890273.094177246,522712.2902870178,7537436.485290527,6991212.844848633,8847996.711730957,10117685.317993164,-380115.3898239136,-2770774.6028900146,-5940467.357635498,-4675361.633300781,-1721424.8180389404,9576718.3303833,8356833.457946777,5039367.67578125,3700875.5207061768,3029096.841812134,2816986.083984375,2847201.108932495,3306875.705718994,9093496.322631836,8661334.991455078,4555173.397064209,3006535.291671753,3474212.646484375,5610264.301300049,6759904.861450195,8553349.494934082
0.055,22823450.088500977,12487012.86315918,12888102.531433105,4299244.403839111,8719976.425170898,-11669652.938842773,2799956.3217163086,2083960.0563049316,2277847.2900390625,4128559.112548828,7051764.488220215,5045356.750488281,5151226.043701172,7627383.708953857,647353.1723022461,-3681343.0786132812,957632.3628425598,3612805.6049346924,1655816.674232483,-1274403.9297103882,5836539.745330811,-1715443.1343078613,2238614.082336426,680204.5106887817,-3748685.359954834,-4017202.854156494,-10659825.325012207,5400540.828704834,56201.20465755463,2483493.3280944824,9068395.614624023,8133621.2158203125,-2179477.6916503906,-5725253.582000732,-5243008.136749268,-10360727.310180664,-1240603.2085418701,3955570.697784424,4982553.958892822,6883771.896362305,9232446.670532227,-133791.0294532776,-2185509.443283081,-5329100.131988525,-5171116.828918457,-4353575.229644775,5846728.324890137,5293991.565704346,3437524.7955322266,1986083.6267471313,4186627.8648376465,4082945.8236694336,4089409.828186035,3023088.6936187744,6600570.201873779,7178652.286529541,4057563.304901123,4353729.724884033,4829138.75579834,5644161.224365234,5902957.916259766,10063435.554504395
0.06,16060823.440551758,6238063.812255859,7659813.88092041,-309009.49239730835,3888862.133026123,-16288925.170898438,-1424433.4697723389,-2094150.3047943115,-1882867.2170639038,-315762.10260391235,2156975.269317627,-84953.40496301651,336080.96837997437,2417362.2131347656,-3449185.371398926,-7052950.382232666,-2372793.197631836,-634898.841381073,-1759550.0946044922,-5276287.078857422,-29083.186760544777,-7568886.756896973,-2879294.8722839355,-3322367.6681518555,-5772943.97354126,-4738130.09262085,-12353410.720825195,-866791.7847633362,-5079459.667205811,-5256272.315979004,-454392.34375953674,1091477.394104004,-4777261.734008789,-7097595.21484375,-6710322.856903076,-12328794.479370117,-7672487.258911133,-5590896.129608154,-4166995.5253601074,-4165976.047515869,-1590366.3635253906,-3001871.109008789,-4621626.377105713,-6605671.8826293945,-8265299.7970581055,-10665943.145751953,-4724039.554595947,-5931422.710418701,-8403780.937194824,-9526421.546936035,-50454.07637953758,-55413.79004716873,-138746.84274196625,-2381756.544113159,-4123167.037963867,-3771057.12890625,-5607541.561126709,81739.93974924088,566866.1594390869,-1560080.2898406982,-3675276.9947052,2634822.8454589844
0.065,10950366.020202637,-201615.6166791916,1483650.3267288208,-5049626.350402832,-879667.7589416504,-18345853.805541992,-5378404.61730957,-5563190.460205078,-5867298.126220703,-5099070.072174072,-2700264.9307250977,-4859408.855438232,-4568329.811096191,-3658995.8667755127,-5740254.4021606445,-10011242.866516113,-5773425.579071045,-4742958.545684814,-4690707.683563232,-9256003.379821777,-5426482.200622559,-14015370.36895752,-8344142.913818359,-5721399.307250977,-9119519.233703613,-6168166.160583496,-14225920.677185059,-5238003.253936768,-9408288.00201416,-11468213.081359863,-8307067.87109375,-5242336.273193359,-7751186.847686768,-9531758.308410645,-9190735.816955566,-14240226.745605469,-11641760.82611084,-11083953.857421875,-10191971.778869629,-11768750.190734863,-9831544.876098633,-5967922.687530518,-7621868.133544922,-9000543.594360352,-10500761.985778809,-13171174.049377441,-10608445.167541504,-12411166.191101074,-15661267.280578613,-16600158.69140625,-4327569.961547852,-4333813.667297363,-4399357.318878174,-5056457.042694092,-9799506.187438965,-10164599.418640137,-11953010.559082031,-4423715.591430664,-3867079.734802246,-6512855.052947998,-9916560.173034668,-3587244.0338134766
0.07,12900814.056396484,-1657973.1702804565,-1486714.1246795654,-5076642.990112305,-2557411.4322662354,-13588788.986206055,-4545782.566070557,-4287014.961242676,-5290843.486785889,-6430561.542510986,-4012189.3882751465,-6047354.698181152,-6681516.647338867,-7581042.766571045,-2006047.010421753,-8063738.822937012,-5216672.897338867,-4276525.974273682,-5138483.047485352,-10051658.630371094,-5945667.743682861,-16090579.986572266,-10275648.11706543,-2100619.316101074,-9367009.162902832,-5931098.937988281,-14479743.003845215,-5468127.727508545,-9292939.186096191,-10481044.76928711,-7285027.503967285,-4670220.851898193,-6714813.709259033,-9703644.752502441,-9340400.695800781,-14511972.427368164,-9843955.039978027,-8082455.635070801,-7390968.799591064,-9016160.011291504,-7310957.431793213,-4696998.596191406,-6779417.037963867,-9239411.354064941,-10203965.187072754,-10213791.847229004,-7023554.32510376,-8147288.3224487305,-11062240.600585938,-11544351.577758789,-3267435.5506896973,-3297018.051147461,-3313846.3497161865,-2726853.370666504,-5166731.357574463,-5396125.793457031,-7943306.446075439,-3498457.908630371,-2877913.236618042,-3753261.8045806885,-6653167.247772217,-909655.3325653076
0.075,20286508.560180664,1845780.4918289185,-493523.65732192993,407116.47272109985,-1075786.1137390137,-3720510.959625244,1625771.5225219727,1895307.183265686,323629.4090747833,-3803720.712661743,-1937494.2779541016,-4335278.034210205,-6787938.117980957,-9823057.174682617,6287011.14654541,-970688.3430480957,110499.0765452385,1223665.9526824951,-3356424.570083618,-8387613.296508789,-3169799.327850342,-14567618.370056152,-10260293.960571289,6178228.855133057,-4432633.876800537,-2716319.0841674805,-12411560.05859375,-3536634.922027588,-6646347.0458984375,-5551724.433898926,-1696947.693824768,-1160407.304763794,-1684121.2511062622,-6461214.542388916,-6093170.642852783,-13163397.789001465,-5147296.905517578,-2080184.9365234375,-1170122.742652893,-1975859.28440094,41827.15341448784,420309.3349933624,-1930592.0600891113,-6133588.3140563965,-9406545.639038086,-6998651.504516602,-524039.6857261658,-622160.4347229004,-3168611.764907837,-2578176.259994507,774634.8977088928,785982.1319580078,640918.1356430054,-1381038.0697250366,962605.0591468811,1899885.654449463,-799392.4617767334,625419.6166992188,1162182.2118759155,465731.35256767273,-1478720.4265594482,5063600.063323975
0.08,25843833.923339844,4389674.186706543,482602.71549224854,6253922.939300537,317556.08320236206,4440041.542053223,8101081.848144531,8122296.333312988,6112282.276153564,-647344.6488380432,81238.35176229477,-3033050.298690796,-7448371.410369873,-12115147.590637207,12773491.859436035,5850169.658660889,5921334.266662598,6963517.189025879,-1085985.4221343994,-7574987.888336182,-1750621.6764450073,-13857520.10345459,-11789593.696594238,12668262.481689453,1777907.4907302856,1323849.3204116821,-9501440.048217773,-1786167.3831939697,-5403919.696807861,-3427134.9906921387,110139.72014188766,-1922562.4799728394,2564491.7488098145,-2733311.891555786,-2425162.0769500732,-11340409.278869629,-1385033.369064331,53964.123129844666,461838.09638023376,292134.52339172363,1944339.394569397,4515636.920928955,2264920.949935913,-2495810.9855651855,-9385046.95892334,-6444139.003753662,1924721.8370437622,1188160.0618362427,-2122560.977935791,-657230.6752204895,1979168.7726974487,2081600.4276275635,1661605.2389144897,-4333444.118499756,248099.71451759338,2124714.8513793945,235605.1653623581,1985877.0370483398,2320486.068725586,-1009058.952331543,-2811404.9434661865,5077647.686004639
0.085,26050888.061523438,2882535.934448242,-978280.3654670715,7755475.5210876465,3796.4233197271824,6922624.111175537,10191679.954528809,10113713.264465332,7764171.600341797,359468.0428504944,263942.1224594116,-3201583.8623046875,-8507266.998291016,-13480103.492736816,13889727.592468262,7898637.294769287,7948852.5390625,8724133.491516113,613530.4570198059,-8652982.711791992,-2546683.7882995605,-15106091.499328613,-13912166.595458984,13746747.016906738,4319248.676300049,3207774.4007110596,-7493201.732635498,-408421.93365097046,-5753900.527954102,-4990998.7449646,-2520571.47026062,-6307811.260223389,3277002.8114318848,-1227761.8646621704,-992919.4450378418,-9608378.410339355,1105168.4617996216,-1269097.6858139038,-2295855.5221557617,-2225757.122039795,-1557423.47240448,5096857.070922852,2971031.427383423,-947396.1591720581,-7714793.682098389,-4844022.274017334,1882426.381111145,-1272685.170173645,-5449267.864227295,-4257648.468017578,627003.4909248352,809440.553188324,256357.64002799988,-5977587.699890137,-3111642.599105835,-1701898.455619812,-2534332.275390625,735326.5285491943,957862.377166748,-4267498.49319458,-6725073.337554932,1119832.2772979736
0.09,25646884.91821289,2469423.294067383,-1100245.8333969116,6610699.653625488,856320.7983970642,6626815.319061279,9210434.913635254,9248661.041259766,6808584.213256836,750142.3954963684,864219.7251319885,-2387720.1080322266,-7234007.358551025,-11348639.488220215,12694068.908691406,6858986.854553223,7207240.104675293,7979656.219482422,2346356.3919067383,-9064206.12335205,-1920431.0178756714,-15018911.361694336,-12730329.513549805,12534359.9319458,3445726.6330718994,2885061.502456665,-6283756.732940674,1175598.6213684082,-4689272.403717041,-5449712.27645874,-3405897.855758667,-7724823.951721191,3185663.4616851807,-890479.7434806824,-693294.107913971,-7731501.10244751,3830720.901489258,-1049495.4586029053,-3139837.2650146484,-3046345.2339172363,-2186619.520187378,5022508.62121582,2793479.2041778564,-491810.70923805237,-2573970.079421997,822962.5821113586,4129168.98727417,-951862.7524375916,-4448554.515838623,-4383624.55368042,2387838.363647461,2587337.017059326,2200261.354446411,-927081.8829536438,-740706.3245773315,-938284.6355438232,-977880.7759284973,2553803.4439086914,2864942.5506591797,-732860.3863716125,-4103067.8749084473,2673117.8760528564
0.095,28654775.619506836,7090600.490570068,2918238.401412964,6616324.424743652,4228969.097137451,6889401.912689209,8875578.880310059,8978427.88696289,6752968.311309814,2436148.4050750732,3193233.013153076,11153.939180076122,-4219122.409820557,-7507529.735565186,12740241.050720215,6332451.343536377,6955821.990966797,8066286.087036133,4351868.152618408,-7358052.2537231445,1367722.511291504,-12667740.821838379,-9317273.139953613,12664075.85144043,2431620.8362579346,2172914.2665863037,-5226977.348327637,2318449.9740600586,-1813556.7903518677,-3070165.1573181152,-613495.6479072571,-5393561.363220215,5054165.840148926,37071.26900553703,215343.01340579987,-6118601.7990112305,6180220.127105713,1759953.3796310425,-329175.02522468567,-836994.2903518677,1732471.9429016113,6907836.9140625,4583434.104919434,486578.67312431335,2421506.404876709,5965554.714202881,7180500.9841918945,2451485.6338500977,561617.374420166,-347667.8431034088,8288073.539733887,8411146.16394043,8282017.707824707,5971533.298492432,5249559.8793029785,3746227.502822876,4224341.869354248,8455370.903015137,8901840.209960938,7973357.200622559,3477874.279022217,10305733.680725098
0.1,29366128.92150879,9393086.433410645,4713655.948638916,6417576.789855957,4584424.4956970215,5580825.328826904,8642160.415649414,8614787.101745605,6660208.702087402,2994042.158126831,3486627.8171539307,-310339.89787101746,-4941730.976104736,-8520002.365112305,12232998.847961426,5692067.1463012695,6715931.415557861,7946296.691894531,4761831.760406494,-6383847.236633301,2887408.494949341,-12679153.442382812,-10269097.328186035,12380417.823791504,1723580.4796218872,1480884.075164795,-5208133.697509766,1864932.656288147,-811335.3848457336,-2269677.6390075684,236708.46223831177,-6328814.506530762,6805832.386016846,338722.70584106445,497993.2904243469,-5952226.638793945,5691744.804382324,3005744.695663452,835341.9899940491,-1498039.3648147583,1942942.73853302,8644013.404846191,6519476.413726807,727088.6301994324,1879345.8938598633,3800337.076187134,5095113.754272461,2169052.839279175,665004.4322013855,-729964.0774726868,12116124.153137207,12103593.826293945,12005408.28704834,5570429.801940918,4816298.961639404,3449513.9122009277,4227689.743041992,12139400.482177734,12554018.9743042,11018784.523010254,4910064.220428467,13622310.638427734
0.105,21186038.970947266,1065844.0589904785,-2655104.875564575,2739341.4974212646,-2583590.269088745,502698.6002922058,5811781.406402588,5609074.592590332,3756809.949874878,-556034.8629951477,-1347337.6035690308,-5896893.501281738,-11495143.89038086,-16312801.361083984,8456736.56463623,2800470.1137542725,4111780.6434631348,4895212.173461914,2087979.0782928467,-8902117.729187012,-618970.8709716797,-17831359.86328125,-17394134.521484375,8935338.020324707,-262911.97538375854,360353.38044166565,-7118065.357208252,148091.4205312729,-3699473.1426239014,-6050661.087036133,-4233728.408813477,-13401546.478271484,5506745.8152771,-1595994.9493408203,-1424950.7188796997,-7257530.689239502,2158947.706222534,343410.1641178131,-3047369.956970215,-7813332.080841064,-5860098.838806152,7495834.3505859375,5706782.817840576,-1287218.451499939,-3664010.763168335,-4412715.911865234,-2576861.85836792,-4304951.190948486,-6887401.580810547,-8620646.476745605,9849700.927734375,9752650.260925293,9420277.59552002,-2187652.587890625,-4285032.272338867,-4320462.226867676,-3239813.804626465,9603528.022766113,9844907.760620117,4460280.895233154,-3499603.271484375,7393572.807312012
0.11,13777173.042297363,-7456264.972686768,-9579481.12487793,-226330.80184459686,-8629940.032958984,-2697042.942047119,3338775.396347046,3087311.5062713623,1332638.0252838135,-4291307.44934082,-5571730.136871338,-10106140.13671875,-15863633.155822754,-21629909.51538086,4727190.017700195,545107.4838638306,1826509.714126587,2310860.8722686768,-964453.8164138794,-11890113.830566406,-4348289.489746094,-22141542.434692383,-22177669.525146484,5391346.9314575195,-2062519.7887420654,219963.55056762695,-9077249.526977539,-968607.6045036316,-6782167.911529541,-10016710.28137207,-8274029.731750488,-18859733.58154297,2749150.276184082,-3815884.828567505,-3581989.7651672363,-8262050.628662109,-842918.7536239624,-2868790.626525879,-7628789.42489624,-13621273.9944458,-13675808.906555176,5064986.705780029,3374759.1972351074,-3539216.7568206787,-8110129.356384277,-10143775.939941406,-8722788.81072998,-10601176.261901855,-13634710.311889648,-15745072.364807129,5350124.359130859,5281633.8539123535,4722498.893737793,-8370215.41595459,-12304317.474365234,-11274042.129516602,-9562929.153442383,4890147.2091674805,5054504.39453125,-3116629.6005249023,-12106472.01538086,-513943.1953430176
0.115,29387935.638427734,8353013.99230957,6201635.837554932,7498247.6234436035,2634299.5166778564,4933454.990386963,9032055.854797363,8830677.032470703,7452038.288116455,223791.9121980667,928440.9880638123,-2900666.7137145996,-7777757.167816162,-13346601.486206055,7216964.244842529,4807328.701019287,6842140.674591064,8324012.756347656,807996.6306686401,-9387696.266174316,-515279.8295021057,-17320722.579956055,-16200561.5234375,7473292.350769043,109283.9390039444,3267410.0399017334,-7909798.145294189,90380.57178258896,-5137527.942657471,-7985305.309295654,-4832001.209259033,-15109474.182128906,1808503.7469863892,-3203502.893447876,-2897190.809249878,-7668067.932128906,160543.63548755646,-2432677.5074005127,-7075273.9906311035,-12258793.830871582,-12760982.513427734,4287063.121795654,2423854.8278808594,-2974387.4073028564,-8275438.30871582,-8816327.095031738,-8066296.577453613,-10575004.577636719,-12532440.185546875,-15145301.818847656,3088809.9670410156,3076096.296310425,2532091.1407470703,-8491076.469421387,-11453992.84362793,-10993830.680847168,-8680583.953857422,2577738.2850646973,2899619.5793151855,-4360227.108001709,-12563264.846801758,-2312324.047088623
0.12,75237686.15722656,55509437.561035156,51270252.2277832,27789941.787719727,33328025.817871094,23243083.953857422,24657690.048217773,24485212.326049805,23641139.98413086,14180930.137634277,18452442.169189453,15065033.912658691,10968120.574951172,6290654.65927124,15714779.8538208,15629034.996032715,20705797.19543457,24457979.202270508,8368145.942687988,-1115188.9562606812,10514332.77130127,-4952383.518218994,-3586008.071899414,14837228.775024414,6196743.965148926,8563364.028930664,-3711045.980453491,3271066.904067993,550542.8314208984,-997027.9932022095,3636955.0228118896,-6591889.381408691,1811374.4258880615,-669255.7334899902,-328960.68692207336,-6550400.257110596,4223592.281341553,964117.169380188,-2452155.351638794,-6344273.090362549,-7075598.71673584,4093550.682067871,2086626.0528564453,-558579.4448852539,-7622804.641723633,-5069648.265838623,-3887373.208999634,-6675729.751586914,-8075140.953063965,-11719550.132751465,853788.3758544922,825103.223323822,461344.3315029144,-8055259.704589844,-6478918.075561523,-8175116.539001465,-6317089.557647705,357029.0505886078,936891.3173675537,-3819430.351257324,-9820396.423339844,-2525785.446166992
0.125,127071899.4140625,106756973.26660156,100421867.37060547,47979629.51660156,63264087.67700195,40703468.322753906,40456542.96875,40260814.66674805,39670040.130615234,27028228.759765625,33662567.138671875,30008316.040039062,26059644.69909668,22093811.03515625,22699983.596801758,25126136.779785156,34690456.39038086,40447246.55151367,15635463.71459961,5603607.654571533,19156793.59436035,3833259.344100952,3425465.8222198486,20587497.71118164,10824799.537658691,11693726.539611816,-780911.8628501892,6632266.521453857,4539707.183837891,3649100.3036499023,8050753.593444824,-3985310.0776672363,-733296.0963249207,-401639.31250572205,-65896.04169130325,-7049832.820892334,6913951.873779297,3278495.5501556396,196396.24655246735,-3990466.594696045,-7156182.289123535,1283073.902130127,-679278.1949043274,-389020.56217193604,-10075529.098510742,-5126986.980438232,-2541595.697402954,-5413008.689880371,-8579331.398010254,-13924861.907958984,-5321117.877960205,-5379137.992858887,-5650844.573974609,-12370504.379272461,-6455985.546112061,-10392091.751098633,-10194958.686828613,-5854004.383087158,-5139426.231384277,-8938727.378845215,-13156631.469726562,-9418317.794799805
0.13,150173721.31347656,126471214.2944336,119782249.4506836,53259399.4140625,70314125.06103516,46101703.64379883,44569507.59887695,44364875.79345703,43597110.748291016,27744918.823242188,34076778.411865234,29998929.977416992,26465141.29638672,23121370.315551758,22287683.486938477,25958501.8157959,38218879.69970703,44341480.25512695,15852830.88684082,4392812.252044678,17958730.697631836,1835992.693901062,-11717.744171619415,19760046.005249023,9421972.274780273,9507401.466369629,-2713876.724243164,7289257.049560547,3062945.3659057617,1701516.6282653809,4829595.565795898,-9585453.033447266,-5773277.759552002,-4026632.785797119,-3705433.3686828613,-9659215.927124023,5588075.637817383,2739287.3764038086,-1713721.1561203003,-7620716.094970703,-14358248.710632324,-3751435.0414276123,-5643656.7306518555,-3955843.687057495,-14026184.08203125,-8350231.170654297,-4699012.279510498,-8047476.768493652,-13775421.142578125,-20696268.08166504,-13153392.791748047,-13146744.728088379,-13503267.288208008,-18006298.065185547,-11688068.389892578,-16456113.815307617,-17705823.89831543,-13738271.713256836,-13050801.277160645,-17328794.479370117,-21530582.427978516,-20527183.532714844
0.135,134630386.35253906,108564842.2241211,102764556.88476562,42581386.56616211,54653533.935546875,38596046.447753906,35738380.432128906,35612010.95581055,34591701.50756836,17738210.678100586,22491327.2857666,18367010.11657715,16070701.599121094,13951323.509216309,16078952.78930664,18737533.569335938,30152320.861816406,35347621.91772461,9583761.215209961,-2418554.7828674316,10100375.175476074,-6173828.601837158,-6785283.56552124,14157512.664794922,3191612.482070923,3621576.0707855225,-7944918.632507324,3846688.985824585,-1629780.1733016968,-3516855.478286743,-530878.6630630493,-15577692.031860352,-9478959.083557129,-8609114.646911621,-8272790.908813477,-12618564.60571289,2413136.7206573486,1377160.1915359497,-4811602.1156311035,-11928708.07647705,-19915351.86767578,-7301368.713378906,-9264032.363891602,-8334256.172180176,-15346757.888793945,-9787474.632263184,-5976176.738739014,-10333378.791809082,-16677904.12902832,-24076196.670532227,-16881446.838378906,-16781934.73815918,-17233758.9263916,-19221336.364746094,-15368666.648864746,-19431617.736816406,-20697696.685791016,-17458433.151245117,-16802604.67529297,-21025951.385498047,-26141605.377197266,-25925668.716430664
0.14,101851486.20605469,78194450.37841797,73323265.0756836,27881509.78088379,35720584.869384766,25531904.220581055,23374794.006347656,23427541.732788086,22420267.10510254,8183330.535888672,12271036.148071289,8321097.373962402,7010434.627532959,6386013.031005859,9666069.984436035,9862351.417541504,18900737.762451172,23246173.858642578,3790360.21232605,-7130494.594573975,4455113.887786865,-10820024.490356445,-8840350.151062012,8628601.07421875,-2887672.4243164062,-1509688.377380371,-11581016.540527344,-1320030.0931930542,-4577827.453613281,-6187281.608581543,-1896002.0542144775,-15688818.93157959,-9453995.704650879,-10555132.865905762,-10115217.208862305,-13609127.99835205,1430626.0347366333,1512497.6634979248,-5150569.438934326,-12123844.146728516,-18378608.70361328,-7299232.006072998,-9395833.015441895,-10071785.926818848,-13374001.502990723,-7977581.977844238,-4301383.972167969,-9560832.977294922,-14606164.932250977,-21297481.536865234,-15241849.899291992,-15185818.672180176,-15587967.872619629,-17362312.31689453,-14912789.344787598,-17560541.1529541,-17923343.658447266,-15788995.742797852,-15046093.940734863,-18872083.66394043,-23948259.353637695,-22449857.711791992
0.145,77543235.7788086,59111629.486083984,55217517.8527832,19771499.633789062,28154682.159423828,14665615.08178711,16641147.61352539,16868862.15209961,16025337.219238281,6244069.576263428,11003229.141235352,7301886.081695557,5647619.724273682,5316440.105438232,7078002.9296875,4923649.311065674,12794816.970825195,16899572.372436523,3447428.7033081055,-5956224.44152832,5266601.085662842,-8954821.586608887,-6094079.971313477,6442561.149597168,-4839972.019195557,-2829877.6149749756,-10900159.83581543,-3520900.9647369385,-3403939.2471313477,-4309719.085693359,887169.4207191467,-11451267.24243164,-6349364.280700684,-8917233.46710205,-8273270.606994629,-11545662.879943848,3655190.4678344727,3237400.531768799,-2433973.3123779297,-8905670.166015625,-13315062.522888184,-4369290.828704834,-6512536.525726318,-8321048.736572266,-10447751.998901367,-5695647.716522217,-1978453.9937973022,-7112179.279327393,-11203639.98413086,-16369075.775146484,-11083294.868469238,-11185160.636901855,-11469562.530517578,-17466102.600097656,-14058577.537536621,-14972551.345825195,-14426231.384277344,-11641696.92993164,-10768031.120300293,-15928783.416748047,-19831575.393676758,-15562273.979187012
0.15,66780250.549316406,51135990.142822266,48749340.05737305,18169027.32849121,28389419.555664062,9465501.78527832,16196556.091308594,16380683.898925781,15589668.273925781,8355141.639709473,13890779.495239258,10846891.403198242,8256243.705749512,6405992.9847717285,8790421.485900879,5003925.800323486,12610952.377319336,16389661.78894043,6479449.74899292,-2397639.274597168,9029165.267944336,-4791985.988616943,-3211127.519607544,8132610.321044922,-2400294.065475464,-894077.0030021667,-7980177.879333496,-1093777.5373458862,36354.37786579132,-475708.931684494,4312056.541442871,-7079073.429107666,-1619067.4304962158,-5191547.870635986,-4378768.444061279,-7640912.5328063965,6080830.097198486,5258725.166320801,1007694.9596405029,-5334750.652313232,-9567298.889160156,326615.8699989319,-1777976.155281067,-4572165.012359619,-7878813.743591309,-4659469.6044921875,-1095165.6103134155,-4980554.580688477,-9130346.298217773,-12087914.46685791,-6089327.335357666,-6251941.204071045,-6521521.56829834,-19545997.619628906,-15013903.617858887,-13729810.71472168,-11823816.299438477,-6649680.614471436,-5775773.048400879,-13933026.313781738,-17311614.990234375,-9641987.800598145
0.155,57995803.83300781,41377044.677734375,40501190.185546875,16495000.839233398,25163242.34008789,8146678.924560547,16282146.453857422,16075128.555297852,15333163.261413574,7465975.284576416,12846018.79119873,10784222.602844238,8040997.505187988,4272163.867950439,11765430.450439453,6905554.77142334,13112938.88092041,15973048.210144043,7715016.841888428,-1852295.994758606,9993457.794189453,-3483582.019805908,-3004389.2860412598,11207415.580749512,951318.621635437,1039651.5130996704,-6905766.010284424,2058818.1018829346,1967789.4115447998,1356330.394744873,5763890.266418457,-4585965.156555176,2520528.0780792236,-2190814.49508667,-1433864.951133728,-5164022.922515869,5581339.8361206055,6287354.946136475,2664917.230606079,-3304084.300994873,-7607133.865356445,4583296.298980713,2522239.4466400146,-1609438.5385513306,-5832199.573516846,-3915504.9324035645,-1067742.5861358643,-3903937.1013641357,-7575061.798095703,-8315117.835998535,-1567715.5256271362,-1610892.5342559814,-1976131.9160461426,-20150938.034057617,-15762741.088867188,-12458627.700805664,-8049189.567565918,-2038460.9699249268,-1345583.5580825806,-11167488.098144531,-15577018.737792969,-5145884.990692139
0.16,42997421.26464844,25463800.43029785,25278568.267822266,10655371.66595459,15089842.796325684,5176294.326782227,12123200.416564941,11367924.690246582,10965812.683105469,2272152.6622772217,6544119.358062744,4678715.705871582,2323049.0684509277,-2102921.724319458,10903791.427612305,5757591.247558594,9622866.6305542,11534438.133239746,5271331.787109375,-5695486.545562744,5998441.219329834,-6862137.317657471,-5846704.006195068,10757354.736328125,429852.4558544159,-152379.97472286224,-9396255.493164062,1025024.8908996582,-40118.43353509903,-1121168.9710617065,4082708.8356018066,-5325492.382049561,2182930.4695129395,-2896751.1653900146,-2403939.962387085,-7026673.316955566,2515581.3694000244,5069367.8855896,854857.8023910522,-4161839.485168457,-7520599.365234375,4230342.388153076,2224224.805831909,-2398329.257965088,-5654809.951782227,-3422847.032546997,-1451919.1980361938,-4981277.942657471,-7207521.915435791,-7466049.671173096,-1692050.4570007324,-1602342.0095443726,-2041534.423828125,-20168544.76928711,-15959500.312805176,-12454135.89477539,-5505443.572998047,-2023082.2563171387,-1545687.0794296265,-10022274.017333984,-15555455.207824707,-4203164.100646973
0.165,26165678.024291992,10440193.176269531,10469879.150390625,2515799.5223999023,4214857.578277588,-3001766.4432525635,4592863.5597229,3567772.150039673,3603278.398513794,-3063058.1378936768,-275374.8893737793,-3466214.895248413,-6129641.056060791,-10272681.23626709,4157772.0642089844,-251209.22923088074,2641670.7038879395,4301630.49697876,1275623.9175796509,-11260032.653808594,-504976.45139694214,-13200231.552124023,-10983501.434326172,4414825.439453125,-5231809.616088867,-4475347.995758057,-13583002.090454102,-4057020.1873779297,-5126371.383666992,-6812335.014343262,-455257.02834129333,-10121574.401855469,-4037699.6994018555,-7626489.639282227,-7339010.238647461,-12560488.7008667,-282868.3853149414,904279.9472808838,-3986689.329147339,-8379235.26763916,-10986750.602722168,-2189131.97517395,-4074885.845184326,-7206177.234649658,-8367433.547973633,-5024884.223937988,-3295890.0928497314,-8924300.193786621,-10577726.364135742,-12909573.554992676,-8426892.280578613,-8338117.599487305,-8777138.710021973,-23261054.99267578,-18344415.66467285,-17121520.99609375,-9502868.65234375,-8687425.61340332,-8267844.200134277,-14573236.465454102,-19875633.239746094,-9204050.064086914
0.17,16439992.904663086,2938468.4562683105,3549670.457839966,-3120893.2399749756,-1185485.601425171,-12292668.342590332,-1211352.2291183472,-1974444.9853897095,-2084936.8572235107,-5472663.402557373,-3726036.310195923,-8559090.614318848,-11971907.615661621,-16557434.08203125,-3304774.9996185303,-6845148.56338501,-3038688.898086548,-1149462.6998901367,-2029786.1099243164,-15449568.748474121,-5217690.944671631,-18301429.748535156,-15424299.240112305,-2935774.087905884,-11291498.184204102,-8530042.64831543,-16576681.137084961,-8823021.88873291,-9828554.153442383,-11603526.11541748,-4770413.875579834,-15588419.914245605,-10481942.176818848,-12268165.588378906,-11936882.019042969,-17518192.291259766,-1193719.983100891,-4781903.266906738,-8347573.280334473,-12922692.29888916,-15988718.032836914,-8727119.445800781,-10447937.01171875,-11868651.390075684,-11407369.613647461,-8593230.247497559,-6088879.585266113,-12968396.186828613,-15800456.047058105,-20524360.65673828,-14569302.558898926,-14546133.995056152,-14965967.178344727,-27017322.540283203,-21893051.147460938,-23701713.56201172,-17116556.16760254,-14864134.788513184,-14312829.971313477,-20197822.57080078,-24894563.674926758,-14814432.144165039
0.175,15842813.491821289,1906220.9129333496,3061833.143234253,-3929965.4960632324,-1139103.889465332,-15197051.048278809,-1957852.7212142944,-2153590.202331543,-3220947.027206421,-6221484.661102295,-4324089.527130127,-9102746.00982666,-12132715.225219727,-18446407.318115234,-4534736.156463623,-8294366.836547852,-3978195.905685425,-2129648.447036743,-4595234.8709106445,-17180150.985717773,-5956857.204437256,-18653648.376464844,-15595427.513122559,-4265508.651733398,-12335324.28741455,-9507668.495178223,-17730604.17175293,-10917915.344238281,-11424773.216247559,-12247104.64477539,-5172533.03527832,-16003139.49584961,-9975806.23626709,-12475428.581237793,-11989161.491394043,-18593421.936035156,-1429944.0383911133,-8797656.059265137,-8642735.481262207,-13235221.862792969,-16670352.935791016,-8086456.298828125,-9673568.725585938,-12067346.572875977,-11030228.614807129,-10902899.742126465,-6911085.605621338,-12785678.86352539,-16515047.073364258,-20803703.30810547,-10634077.072143555,-10625355.72052002,-10998123.168945312,-24178079.60510254,-20476568.2220459,-23631059.646606445,-17727174.758911133,-11000828.742980957,-10279148.10180664,-16467916.488647461,-21992870.330810547,-11612467.765808105
0.18,17788131.713867188,1853408.694267273,2439228.7731170654,-2643221.139907837,-355464.4584655762,-11743478.775024414,-167014.42003250122,44836.968183517456,-1991629.0044784546,-7858623.98147583,-4839476.108551025,-7843894.481658936,-9282606.12487793,-17321531.295776367,-697462.3203277588,-5323395.729064941,-2302929.162979126,-894917.2496795654,-6889579.296112061,-17221700.66833496,-4653001.308441162,-15603208.541870117,-12698825.83618164,-530692.3389434814,-9706189.155578613,-8825912.475585938,-18687328.338623047,-11921696.662902832,-10603231.430053711,-10168727.87475586,-2572944.6411132812,-11554423.332214355,-4232805.7289123535,-9560009.002685547,-9064032.554626465,-16956119.537353516,-2578446.388244629,-9095560.073852539,-5783021.926879883,-9610623.359680176,-12393732.070922852,-2241920.232772827,-3763039.5889282227,-9178576.469421387,-8017576.217651367,-10036365.509033203,-4513786.315917969,-8678961.753845215,-11074915.885925293,-12624856.948852539,851056.8141937256,861674.6068000793,641159.4152450562,-14485709.190368652,-12321704.864501953,-14888635.635375977,-8540523.529052734,429436.50484085083,1209785.5806350708,-3316061.9735717773,-10672896.385192871,-461551.6662597656
0.185,15804629.3258667,-452331.3641548157,-1150950.9086608887,-3120590.2099609375,-1934367.299079895,-9888944.625854492,-285429.7161102295,-29260.525479912758,-2070112.4668121338,-9846583.366394043,-6181769.847869873,-8052848.815917969,-8718393.325805664,-17044843.673706055,544495.4633712769,-3867312.6697540283,-2198881.149291992,-1030958.5332870483,-7596651.077270508,-16620458.602905273,-4543294.429779053,-14118322.372436523,-12034296.989440918,679876.2083053589,-9147251.12915039,-9428131.103515625,-19966949.462890625,-12423683.166503906,-9809679.03137207,-9246996.879577637,-1624075.4127502441,-9140440.940856934,-1864355.5641174316,-8343116.760253906,-8008948.32611084,-15610354.42352295,-3232562.303543091,-6271942.138671875,-3912654.161453247,-7190751.552581787,-10038544.654846191,-6075.362674891949,-1527487.1587753296,-7994387.626647949,-6709443.092346191,-7775600.910186768,-1132177.9489517212,-5596595.287322998,-5671802.520751953,-6400474.071502686,7210959.911346436,7149586.200714111,7131834.030151367,-7233036.041259766,-4633913.040161133,-6667874.336242676,-188494.32468414307,6744472.026824951,7475080.490112305,6193215.370178223,-1793067.0976638794,6642629.623413086
0.19,11337103.843688965,-3394004.5833587646,-4209768.772125244,-4645843.029022217,-3791575.4318237305,-13032633.781433105,-1792085.1707458496,-1653570.4135894775,-2857104.778289795,-9113826.751708984,-6343643.1884765625,-9450827.598571777,-11296384.811401367,-18521625.518798828,-2673130.750656128,-5491423.606872559,-3298171.7586517334,-1857106.328010559,-4920425.891876221,-15723783.493041992,-5709608.07800293,-16018667.221069336,-14813760.757446289,-2512577.0568847656,-11354008.674621582,-10546348.571777344,-19397565.841674805,-9791677.474975586,-9709250.450134277,-10194524.765014648,-3471576.690673828,-12189085.006713867,-5097631.454467773,-9380021.095275879,-9216641.426086426,-14789346.694946289,-227759.59968566895,-2101278.066635132,-4399263.381958008,-8103022.575378418,-13084858.894348145,-3422794.1036224365,-4998362.5411987305,-8970115.661621094,-8051969.528198242,-6186632.6332092285,1220018.1484222412,-5733647.82333374,-4975334.167480469,-9003025.05493164,3697793.483734131,3528166.2940979004,3562513.828277588,-8483012.199401855,-3889067.8882598877,-6718546.8673706055,-1281736.0162734985,3202286.4818573,3867558.479309082,4014252.185821533,-2695247.4117279053,3960035.3240966797
0.195,9930205.345153809,-4197048.187255859,-3192050.6954193115,-3677002.9067993164,-2730340.2423858643,-14991466.522216797,-691590.7859802246,-557721.4956283569,-1176572.0844268799,-5470584.869384766,-4241986.274719238,-9633927.345275879,-12972380.638122559,-19135925.29296875,-3595099.687576294,-5322019.100189209,-1940652.4896621704,-251062.15476989746,-522304.4753074646,-15012471.199035645,-5863766.193389893,-17874324.798583984,-16017332.077026367,-3333023.5481262207,-11108330.726623535,-9100716.590881348,-15915418.62487793,-3980208.8737487793,-9381175.04119873,-10499908.447265625,-4250811.576843262,-15574368.476867676,-6474568.843841553,-8517308.235168457,-8477663.040161133,-12886674.880981445,5724713.325500488,1565058.1121444702,-4707726.001739502,-8773811.340332031,-15634161.949157715,-4804248.809814453,-6419288.635253906,-7959149.8374938965,-8312772.750854492,-4977170.467376709,2835428.476333618,-5894103.050231934,-5725447.177886963,-13802380.561828613,-151572.27218151093,-347897.82762527466,-476116.24002456665,-12777050.018310547,-6769250.392913818,-10587797.164916992,-6012383.937835693,-600405.6930541992,9732.216596603394,-1772119.9989318848,-7025863.170623779,215102.97060012817
0.2,11088697.43347168,-4479456.424713135,-1319373.4884262085,-1386794.2094802856,-1076016.0684585571,-11883877.754211426,2033795.1183319092,2311614.990234375,1403249.6213912964,-4085502.6245117188,-3277962.4462127686,-9244801.52130127,-12348608.97064209,-19081811.904907227,714215.874671936,-1771788.7163162231,874073.6842155457,2124039.1731262207,212467.37241744995,-16022153.854370117,-5349552.631378174,-17446983.337402344,-13357144.355773926,1173902.8692245483,-7256895.542144775,-6236714.3630981445,-13270747.184753418,-1423659.2054367065,-9456696.510314941,-9962775.230407715,-2658651.828765869,-14469898.223876953,-1762333.3930969238,-5139524.936676025,-5235877.03704834,-11017126.083374023,8140843.391418457,2271509.4089508057,-3944851.875305176,-7352882.385253906,-12785300.254821777,-7438.219152390957,-1542437.4341964722,-4490503.787994385,-6084125.995635986,-4162910.9382629395,3087562.5610351562,-4256865.978240967,-3937448.9784240723,-12182728.76739502,3535124.7787475586,3429799.795150757,3135010.7192993164,-12494420.051574707,-6505989.551544189,-9891595.840454102,-4749101.638793945,3256995.677947998,3785906.3148498535,-761055.4695129395,-5874297.142028809,3461617.946624756
0.205,7570624.351501465,-9508259.773254395,-5820755.0048828125,-4121429.920196533,-5121786.117553711,-11083589.553833008,-409691.6913986206,21953.54923605919,-1476661.3245010376,-9718296.05102539,-7989118.576049805,-12138122.55859375,-13857214.92767334,-23283662.796020508,2349120.855331421,-1513195.0378417969,-1326198.935508728,-1021625.7572174072,-5864451.885223389,-19901458.740234375,-7595248.699188232,-18015197.75390625,-12530186.653137207,3031107.9025268555,-6652595.996856689,-7532299.518585205,-16425222.396850586,-7673028.945922852,-11952034.950256348,-11829539.29901123,-3385023.1170654297,-12509362.22076416,1898022.7708816528,-4960479.259490967,-5138006.687164307,-12637316.703796387,1888138.2942199707,-1731286.2873077393,-5008117.67578125,-7993838.310241699,-10022636.413574219,3643188.714981079,2297345.8766937256,-4354111.671447754,-5566284.656524658,-5911125.659942627,-521168.17235946655,-4412244.79675293,-2604037.284851074,-7684462.547302246,8264876.365661621,8300427.436828613,8058468.818664551,-9380321.502685547,-3783996.105194092,-5825246.810913086,177131.0567855835,8242482.1853637695,8687730.78918457,3722244.5011138916,-1886815.905570984,7454832.077026367
0.21,-2091829.538345337,-18947341.918945312,-16300390.243530273,-12657630.920410156,-14280725.479125977,-19210073.471069336,-9127576.82800293,-8634818.077087402,-10237466.812133789,-18528650.283813477,-15916430.473327637,-17972875.595092773,-19343605.041503906,-32302200.317382812,-4763502.12097168,-8652853.012084961,-9639828.6819458,-9861818.313598633,-13801048.278808594,-24381515.502929688,-12434224.128723145,-21944095.611572266,-17582761.764526367,-4000112.533569336,-13108814.239501953,-14049370.765686035,-23647344.5892334,-17526065.826416016,-15788435.935974121,-16143095.016479492,-8407878.875732422,-14919614.791870117,-2566540.479660034,-10692087.173461914,-10735442.161560059,-17493261.337280273,-8079268.455505371,-7618283.748626709,-8418545.722961426,-12746216.773986816,-13664338.111877441,-864414.3342971802,-2081386.0893249512,-10158943.176269531,-9337402.34375,-10203167.915344238,-6536741.733551025,-8258338.928222656,-5422871.112823486,-8880144.119262695,4738867.282867432,4866254.806518555,4850447.654724121,-9657660.484313965,-3678137.5408172607,-5544230.937957764,-146574.55682754517,4922995.567321777,5365595.817565918,2416585.922241211,-2875306.6062927246,3057848.9303588867
0.215,-7479819.774627686,-22782218.93310547,-21085737.228393555,-17242380.142211914,-17673025.131225586,-27905675.888061523,-14006644.248962402,-13573353.76739502,-14922526.359558105,-20432058.334350586,-17681629.180908203,-19455808.639526367,-21980337.142944336,-37078746.7956543,-12523238.182067871,-15236635.208129883,-14537526.13067627,-14293437.004089355,-14493396.759033203,-24688451.766967773,-13643107.414245605,-24425115.58532715,-21916816.71142578,-11967759.132385254,-18948568.34411621,-18289812.088012695,-26622488.021850586,-19190483.09326172,-16148040.771484375,-16994472.50366211,-10806185.722351074,-18616525.650024414,-9470395.0881958,-15537566.184997559,-15303029.06036377,-20062459.94567871,-10102190.971374512,-8543210.983276367,-8897334.098815918,-15077898.025512695,-18144792.556762695,-7717584.133148193,-8971484.184265137,-15009826.66015625,-12453033.447265625,-11889396.667480469,-7531048.774719238,-10081946.37298584,-7872156.620025635,-13454782.485961914,-2684166.431427002,-2595198.392868042,-2422726.631164551,-12206518.173217773,-5020668.983459473,-8661224.365234375,-4798052.787780762,-2473369.359970093,-1957935.9292984009,-2830625.534057617,-6815714.8361206055,-4496015.0718688965
0.22,145938.08352947235,-13074038.5055542,-11241834.64050293,-9880511.283874512,-7709131.717681885,-23581613.540649414,-6517591.47644043,-6269944.190979004,-7660033.702850342,-11794348.71673584,-8916483.879089355,-11794970.512390137,-15173820.495605469,-30113695.14465332,-8950905.799865723,-11009635.925292969,-7858807.563781738,-6651681.423187256,-5849811.553955078,-19417268.753051758,-7236921.310424805,-19819780.349731445,-17036712.646484375,-8850588.79852295,-14913140.296936035,-13659675.598144531,-20870740.89050293,-9542977.333068848,-10921212.196350098,-10624811.172485352,-4110852.7183532715,-16901981.353759766,-7976629.734039307,-11841294.288635254,-11498830.795288086,-16676855.087280273,-141786.23259067535,-1475193.2621002197,-2790617.2275543213,-8669162.75024414,-13626948.356628418,-6196490.287780762,-7534255.9814453125,-11322077.751159668,-8959017.753601074,-6818970.203399658,596756.637096405,-4236822.128295898,-3122467.9946899414,-11216477.394104004,-1982462.5253677368,-2056684.0171813965,-1829535.961151123,-10178730.964660645,-1835142.731666565,-7603511.810302734,-4157860.279083252,-1910592.4367904663,-1370542.6454544067,-1971681.1180114746,-4642865.180969238,-2494930.0289154053
0.225,12856981.27746582,2321974.515914917,4640432.834625244,2587219.715118408,6780117.511749268,-8716980.934143066,6480801.582336426,6487958.908081055,4704154.968261719,-1551314.2347335815,1752018.0940628052,-1717551.350593567,-4439585.6857299805,-18650142.669677734,3367574.2149353027,800379.1570663452,4175358.295440674,5828507.900238037,3453400.8502960205,-13705063.819885254,1010307.9080581665,-11893080.711364746,-6983875.751495361,3061115.7417297363,-4359923.839569092,-4450554.370880127,-12498197.555541992,907859.8618507385,-5152155.39932251,-2734072.685241699,5999281.883239746,-11382173.538208008,1633188.247680664,-2518284.0824127197,-2364226.818084717,-11111654.281616211,11810293.197631836,7467346.19140625,4492532.253265381,1108242.0349121094,-3086271.7628479004,3246407.2704315186,1928967.2374725342,-2106906.1756134033,-1355166.5544509888,1066124.0816116333,10721691.131591797,4626325.1304626465,5770014.28604126,-1603990.912437439,7959506.511688232,7746052.265167236,7953360.080718994,-2780670.642852783,5412874.221801758,-971708.5361480713,3548828.125,7891393.661499023,8347652.435302734,6163207.054138184,3947439.432144165,8701519.966125488
0.23,14484417.915344238,6600999.355316162,8388676.643371582,6044420.7191467285,9683681.48803711,-617964.6253585815,10423077.583312988,10315093.040466309,8329574.5849609375,-575077.3549079895,2457098.0072021484,-464583.6651325226,-2180408.239364624,-17549810.4095459,10201372.146606445,6843253.135681152,8007974.624633789,9209824.562072754,4133323.1925964355,-13744586.944580078,1824021.339416504,-10409328.46069336,-4509401.321411133,9832567.21496582,839932.6801300049,-740948.4386444092,-10845601.081848145,1201791.763305664,-5441606.9984436035,-2172225.7137298584,7670462.608337402,-10583942.413330078,8687878.608703613,2637310.50491333,2562311.4109039307,-9749787.330627441,13559469.223022461,9454958.91571045,4418879.508972168,2942846.0597991943,149504.21452522278,10070841.789245605,8809666.633605957,2929023.504257202,2095072.2694396973,3666886.806488037,12314503.66973877,6584191.799163818,8782163.619995117,3793656.587600708,15894493.103027344,15718866.348266602,15895068.168640137,2735909.7003936768,8929176.330566406,3426903.72467041,8766190.528869629,15815987.586975098,16184083.938598633,11743778.228759766,8950744.62890625,15308750.15258789
0.235,2884355.7834625244,-4166815.2809143066,-4080641.269683838,-1868059.8735809326,-819777.6079177856,-7522572.5173950195,2665194.272994995,2679465.2938842773,850203.275680542,-7948917.865753174,-6126268.8636779785,-8628371.238708496,-10684145.9274292,-29193557.739257812,6003536.701202393,2085342.8840637207,1022219.181060791,1477493.8821792603,-2496158.5998535156,-19002088.54675293,-5073668.956756592,-17390436.17248535,-12899852.752685547,5841664.791107178,-3128318.5482025146,-5033161.640167236,-16646162.033081055,-6837769.985198975,-11247107.50579834,-8920760.154724121,-553656.280040741,-16676624.298095703,7751854.419708252,246473.17826747894,150280.56502342224,-13132848.739624023,5741241.931915283,3899986.982345581,-2695572.6146698,-4434162.616729736,-7771624.0882873535,9115040.77911377,7773475.646972656,566210.5679512024,-1472978.3535003662,-789205.8491706848,5447259.426116943,576442.4204826355,3850650.3105163574,-1237813.8303756714,14888723.373413086,14853156.089782715,15012629.508972168,1787203.9079666138,5598821.640014648,1154495.9545135498,6036741.256713867,14876664.161682129,15249914.169311523,9436925.888061523,5592068.195343018,10736739.158630371
0.24,-7552419.185638428,-15653618.812561035,-16905344.009399414,-9731213.569641113,-9926473.617553711,-18599506.378173828,-5352215.29006958,-5112957.954406738,-6876294.6128845215,-13646092.414855957,-12193222.045898438,-15530650.13885498,-19003524.780273438,-40316272.7355957,-471131.74200057983,-5016747.47467041,-6341390.609741211,-6147499.561309814,-7725814.8193359375,-23369892.120361328,-11007280.349731445,-24356462.478637695,-21621103.286743164,-541906.8336486816,-8786167.14477539,-10458280.563354492,-22373109.817504883,-13288799.285888672,-15995560.646057129,-14640471.458435059,-8164723.3963012695,-22361455.9173584,3715292.453765869,-4254347.324371338,-4269913.673400879,-16433057.78503418,-805451.5719413757,-1727721.3335037231,-8304101.943969727,-11179740.905761719,-16051677.703857422,5256158.351898193,3717399.835586548,-3789164.3047332764,-6945242.881774902,-6466691.970825195,-425810.1284503937,-4785378.932952881,-762102.6039123535,-8739393.23425293,9803959.846496582,9775032.997131348,9974151.611328125,-2173872.947692871,1282468.0805206299,-2688193.3212280273,1645115.0178909302,9815179.824829102,10210230.827331543,4757710.933685303,496196.5084075928,3633170.6047058105
0.245,-7027278.423309326,-15356197.357177734,-16059793.472290039,-9662077.903747559,-7377667.9039001465,-21700302.124023438,-5679890.155792236,-5356132.507324219,-7340994.358062744,-12841345.78704834,-9677347.183227539,-14568316.459655762,-18828058.24279785,-41028850.55541992,-2078065.8721923828,-6880933.76159668,-6758748.531341553,-6255612.850189209,-7614075.183868408,-23631364.822387695,-10836429.595947266,-24972747.802734375,-22297952.65197754,-2333396.1963653564,-10544789.31427002,-11784825.325012207,-23142908.096313477,-13792963.981628418,-16328239.440917969,-14845217.70477295,-8420519.828796387,-22829154.96826172,1065994.2626953125,-6649916.172027588,-6687127.590179443,-17065059.661865234,-532847.8813171387,-2758702.278137207,-8148534.774780273,-11579950.332641602,-16540826.797485352,2722948.5511779785,1057772.5172042847,-6106342.315673828,-9696346.282958984,-9023573.875427246,-873394.0124511719,-4897028.923034668,-359498.7094402313,-10006340.026855469,6722075.462341309,6529197.692871094,6830058.574676514,-4875833.034515381,383173.4359264374,-3440232.276916504,1584498.8822937012,6740842.342376709,7040419.578552246,2757371.664047241,-619199.0375518799,2400903.4633636475
0.25,-3074782.371520996,-9170228.004455566,-8113506.317138672,-7028207.302093506,-1115313.8875961304,-19768144.607543945,-3586349.4873046875,-3369681.3583374023,-5406665.802001953,-10680595.397949219,-5698974.132537842,-11694139.48059082,-15518909.454345703,-37784786.224365234,-3217823.9822387695,-6718258.380889893,-4999806.4041137695,-4126449.5849609375,-6441004.753112793,-22861055.374145508,-9060607.91015625,-23446926.11694336,-20014570.236206055,-3627150.774002075,-11786361.694335938,-11604306.2210083,-21954219.818115234,-12274563.789367676,-15700982.093811035,-14028799.057006836,-6734348.773956299,-22856451.0345459,-2340785.264968872,-8916625.9765625,-8992923.736572266,-17389482.498168945,1200246.3340759277,-2575592.7562713623,-7276979.446411133,-10994224.548339844,-14749780.654907227,-717792.5705909729,-2377085.9241485596,-8415982.246398926,-10929314.613342285,-10418052.673339844,-1363033.652305603,-5005220.890045166,-312665.10486602783,-8160902.976989746,4498535.15625,4223604.202270508,4578726.768493652,-7424081.802368164,-829260.4088783264,-4389351.844787598,1957345.2472686768,4636480.331420898,4752210.61706543,476997.1966743469,-1487443.9239501953,3436491.7278289795
0.255,-7663177.013397217,-11475110.054016113,-9759851.455688477,-10090878.4866333,-4519386.768341064,-22948078.155517578,-7002741.813659668,-6898430.824279785,-8488736.152648926,-12852586.74621582,-8931676.864624023,-15456397.05657959,-18869716.64428711,-42273662.56713867,-9686731.338500977,-10658184.051513672,-8268076.8966674805,-7355082.035064697,-8621062.278747559,-24815425.872802734,-11719541.549682617,-26691822.052001953,-23749053.955078125,-9920614.242553711,-16570579.528808594,-14213616.371154785,-23663408.279418945,-12580058.097839355,-18026611.328125,-17180942.53540039,-10145009.04083252,-27983865.73791504,-8214118.957519531,-13061698.913574219,-12990036.964416504,-19733531.951904297,-1609870.5530166626,-5499689.57901001,-10768283.84399414,-14832314.491271973,-18182474.13635254,-6642273.902893066,-8268829.345703125,-12586111.068725586,-13185480.117797852,-13249652.862548828,-6339868.545532227,-9652009.010314941,-4884746.074676514,-10200702.667236328,455943.7334537506,336627.87079811096,588304.5196533203,-11962318.420410156,-5891229.152679443,-8775538.444519043,-1946709.5136642456,804092.288017273,806454.9565315247,-5087787.15133667,-6343222.141265869,651376.8434524536
0.26,-20555255.889892578,-25084468.841552734,-24652561.18774414,-18177024.841308594,-17719047.54638672,-32924575.805664062,-14922973.6328125,-14759604.454040527,-15824199.676513672,-18170310.974121094,-17662664.41345215,-24838386.53564453,-28982057.571411133,-54667800.90332031,-18440406.799316406,-17911840.438842773,-15608597.755432129,-14935935.020446777,-12869311.332702637,-28705411.911010742,-17820133.209228516,-33819793.701171875,-32706363.677978516,-18365129.470825195,-22489616.39404297,-19071722.03063965,-28462337.493896484,-14349065.780639648,-21952451.705932617,-22194181.442260742,-16384998.321533203,-35247924.8046875,-12999733.924865723,-16867122.650146484,-16557277.67944336,-22851945.877075195,-6957386.9705200195,-9624233.24584961,-15883444.786071777,-19420213.69934082,-23761053.08532715,-11466569.900512695,-13061034.202575684,-16319883.346557617,-15711051.940917969,-15839069.366455078,-11752057.075500488,-14514922.142028809,-8811426.162719727,-14393443.10760498,-3461189.031600952,-3389854.907989502,-3328076.3626098633,-16347028.732299805,-10515682.220458984,-12028299.331665039,-5695340.633392334,-2992709.6366882324,-2968669.891357422,-10147908.210754395,-11104787.826538086,-3257920.503616333
0.265,-31895872.116088867,-38993560.791015625,-39914688.11035156,-24787885.665893555,-28963737.48779297,-42977127.07519531,-21076665.8782959,-20689588.54675293,-21688652.03857422,-22294258.11767578,-23706470.489501953,-31799972.534179688,-37260261.53564453,-64962669.372558594,-23860315.322875977,-23800640.106201172,-21289485.931396484,-20862390.518188477,-15576500.89263916,-31238107.681274414,-22024213.790893555,-38435871.12426758,-38836887.35961914,-23751993.17932129,-25843124.389648438,-23042587.280273438,-33034706.115722656,-16720972.061157227,-23579603.19519043,-24046035.766601562,-18930315.017700195,-38288982.39135742,-14495613.098144531,-18529275.89416504,-18183336.25793457,-24548248.291015625,-9357354.164123535,-10199409.484863281,-17302568.435668945,-19191539.764404297,-24805183.41064453,-13091787.338256836,-14561600.685119629,-17913185.119628906,-16959730.14831543,-15961417.198181152,-12450241.088867188,-14081436.157226562,-6637171.745300293,-14764110.565185547,-5295797.824859619,-5251866.340637207,-5272464.275360107,-17549623.489379883,-9845497.131347656,-9607565.879821777,-3734809.8754882812,-4872682.094573975,-4771685.600280762,-11157061.576843262,-10776495.933532715,-3298159.122467041
0.27,-35386211.39526367,-43310749.05395508,-43880390.16723633,-26756349.563598633,-30488721.84753418,-48430809.020996094,-23059108.73413086,-22424531.936645508,-23610109.329223633,-23628545.7611084,-23473882.6751709,-32158226.013183594,-38345073.69995117,-67146347.04589844,-26997003.55529785,-27065975.189208984,-23126279.830932617,-22684520.721435547,-15674457.550048828,-31135110.85510254,-22095745.086669922,-38045692.443847656,-38896667.48046875,-27149545.669555664,-27785329.818725586,-25196674.346923828,-35057182.31201172,-20018323.89831543,-22012598.037719727,-22379913.330078125,-17533884.048461914,-37298507.69042969,-16757438.659667969,-20312927.24609375,-20127847.67150879,-24823232.650756836,-7934767.723083496,-6914700.984954834,-15491271.97265625,-16485494.613647461,-23333608.627319336,-15494311.332702637,-16783075.3326416,-19697509.765625,-18023971.557617188,-15395252.227783203,-10505697.250366211,-11284520.149230957,-3340251.922607422,-13266464.233398438,-8070589.065551758,-8195493.698120117,-8113097.190856934,-17076950.073242188,-7835630.893707275,-6842221.736907959,-1145623.803138733,-7730314.254760742,-7560024.738311768,-12132697.105407715,-9365680.694580078,-2941932.201385498
0.275,-31860990.524291992,-38593151.0925293,-38132530.212402344,-24963909.149169922,-25043916.702270508,-49069702.1484375,-22144517.89855957,-21413410.186767578,-22411386.489868164,-22556335.44921875,-19737070.083618164,-28337734.22241211,-34484272.00317383,-64138641.357421875,-30837371.826171875,-28501293.182373047,-22284523.010253906,-21419248.580932617,-13963579.177856445,-29319599.151611328,-19589118.95751953,-35388977.05078125,-36328224.182128906,-31187492.37060547,-30193607.330322266,-26054924.01123047,-34355075.83618164,-22487113.95263672,-19405584.33532715,-20393804.5501709,-16563940.048217773,-37004108.42895508,-22639261.24572754,-23783889.770507812,-23634885.787963867,-24689214.7064209,-5710280.895233154,-3564418.5543060303,-14536766.052246094,-16780677.795410156,-25354259.490966797,-21289236.068725586,-22545124.053955078,-23141351.6998291,-20244897.842407227,-16726247.787475586,-10450560.569763184,-12251066.207885742,-6532083.511352539,-16508153.915405273,-14148889.541625977,-14344457.626342773,-14089585.304260254,-18275554.656982422,-11143863.677978516,-11398723.602294922,-6358867.168426514,-13831286.430358887,-13574785.232543945,-17757106.78100586,-13393127.44140625,-8170928.001403809
0.28,-24333768.844604492,-30984394.073486328,-30685647.96447754,-20414995.193481445,-18334600.4486084,-44864021.30126953,-18690622.329711914,-18121856.689453125,-18534191.131591797,-19121852.87475586,-15433431.625366211,-23427669.525146484,-29145498.275756836,-59913539.88647461,-31907478.33251953,-26614601.135253906,-19109497.0703125,-17567024.23095703,-11085940.36102295,-26682603.83605957,-15662745.475769043,-32041877.74658203,-32872558.59375,-32196044.921875,-30334106.4453125,-24983949.661254883,-31837259.29260254,-20872627.25830078,-17321060.180664062,-18758432.388305664,-15878443.717956543,-37205879.21142578,-26433008.193969727,-25447067.260742188,-25109781.26525879,-24062906.26525879,-4025457.3822021484,-2080269.3367004395,-14528255.462646484,-18270019.53125,-28099740.982055664,-24799097.061157227,-26225173.950195312,-24704498.291015625,-21729860.305786133,-18208097.457885742,-10900129.318237305,-15310368.537902832,-12354951.858520508,-21935754.776000977,-18356882.095336914,-18513978.958129883,-18167863.845825195,-19931863.78479004,-16693574.905395508,-18974475.860595703,-15089140.892028809,-18072528.839111328,-17713464.736938477,-23316482.543945312,-18929941.177368164,-14146436.69128418
0.285,-16584112.167358398,-24968046.188354492,-25169336.318969727,-14904615.40222168,-12485095.024108887,-37096599.57885742,-13418435.096740723,-13152883.529663086,-13271342.277526855,-14765410.423278809,-11229820.251464844,-18023775.100708008,-22442613.60168457,-53984310.150146484,-25213439.94140625,-20500461.57836914,-14300745.964050293,-12322816.848754883,-8436743.73626709,-24057083.129882812,-10416952.133178711,-26315580.368041992,-25697469.71130371,-25286670.684814453,-25264989.852905273,-21570190.4296875,-29188570.022583008,-16057729.721069336,-15760002.136230469,-15300481.796264648,-10688248.634338379,-32420417.78564453,-20484426.498413086,-21239709.854125977,-20814994.81201172,-22500253.677368164,-1788635.25390625,-792922.4371910095,-11694534.301757812,-13933388.710021973,-22277774.810791016,-18715862.274169922,-20292074.20349121,-20498624.801635742,-19259817.123413086,-15787190.437316895,-7148056.983947754,-12929600.715637207,-9048085.21270752,-18218959.80834961,-12740253.448486328,-12900675.773620605,-12592620.849609375,-16950548.17199707,-14005950.927734375,-16595830.917358398,-12980412.483215332,-12507363.319396973,-12116785.049438477,-18913002.014160156,-14404687.881469727,-8062531.471252441
0.29,-14155104.637145996,-22627960.205078125,-21040678.024291992,-12728595.733642578,-8220244.407653809,-32008666.9921875,-10339641.571044922,-10176920.890808105,-10723708.152770996,-13194666.862487793,-8349241.256713867,-13086642.265319824,-14533325.1953125,-45643524.169921875,-14888309.478759766,-14528751.373291016,-11535097.122192383,-9723415.37475586,-8348964.691162109,-23112997.05505371,-5592543.125152588,-18286329.26940918,-14401634.216308594,-14639799.118041992,-18435230.255126953,-17852108.001708984,-28224620.819091797,-13554936.408996582,-14999758.72039795,-10147028.923034668,-590218.3055877686,-21549196.243286133,-6764819.145202637,-12948415.756225586,-12774168.014526367,-20601509.09423828,1325884.461402893,1612630.4864883423,-5607901.096343994,-3024438.8580322266,-6918907.165527344,-5136167.049407959,-6677429.19921875,-12450969.696044922,-12681174.278259277,-9252806.663513184,147666.20099544525,-3772425.889968872,5633150.100708008,-2214635.8489990234,2766856.4319610596,2591936.8267059326,2780401.4682769775,-7754414.5584106445,-549919.0092086792,-1147441.5063858032,4137579.917907715,3131809.949874878,3424117.8035736084,-2991127.4909973145,2948210.4778289795,13451617.240905762
0.295,-20231054.306030273,-25146091.46118164,-19351581.573486328,-16733142.852783203,-7696935.653686523,-36203636.169433594,-13088675.498962402,-12661391.258239746,-13873071.670532227,-16130798.33984375,-8929400.444030762,-11312724.113464355,-9017486.572265625,-38455783.84399414,-11483696.937561035,-14670695.304870605,-14114078.521728516,-12792106.628417969,-11049152.374267578,-24804901.123046875,-4145235.538482666,-12361164.093017578,-5102630.615234375,-10712430.953979492,-16401897.430419922,-16533821.105957031,-29205846.786499023,-16101272.583007812,-15801319.122314453,-7004598.140716553,7465079.784393311,-11794906.616210938,4212828.636169434,-6541847.705841064,-6678209.30480957,-19361867.904663086,4279386.520385742,3792405.843734741,-1184500.6942749023,6405449.390411377,6869936.943054199,5754542.350769043,4294215.679168701,-6327502.250671387,-5372211.933135986,-2986976.6235351562,4901073.455810547,4293418.407440186,19523914.337158203,13533224.105834961,18860473.6328125,18814626.693725586,18903528.213500977,2289808.2733154297,12856032.371520996,14431546.211242676,22566526.412963867,19653985.97717285,19774145.126342773,14164564.13269043,21147024.154663086,37553253.173828125
0.3,-31139814.376831055,-32013729.095458984,-22497350.692749023,-24354476.928710938,-12050888.061523438,-48404174.8046875,-20043764.114379883,-19345067.977905273,-20591447.830200195,-20535762.786865234,-12853051.18560791,-13931499.481201172,-9621922.492980957,-36937343.59741211,-18898527.145385742,-21327009.201049805,-20569000.244140625,-19458904.266357422,-13762448.31085205,-27568675.994873047,-6632180.213928223,-12472022.05657959,-3987759.3517303467,-17525869.369506836,-20736873.626708984,-18258934.020996094,-31045318.603515625,-20150884.6282959,-17829622.268676758,-8434759.140014648,7374661.922454834,-10228015.899658203,5131594.181060791,-5828250.885009766,-5909193.992614746,-19362335.205078125,6032568.93157959,3873975.992202759,-2337130.308151245,7510183.811187744,9223838.806152344,6886170.864105225,5382185.459136963,-5591093.54019165,-1360471.1294174194,-1011323.094367981,3575305.700302124,4421068.6683654785,21018365.85998535,15595565.795898438,25820682.525634766,25953729.6295166,26071208.953857422,6013388.156890869,14835719.108581543,16914497.37548828,27480014.80102539,27068765.64025879,27029365.53955078,21117841.720581055,26799961.09008789,48763549.8046875
0.305,-39895503.997802734,-40027717.59033203,-29088787.078857422,-30713714.599609375,-18389518.73779297,-60146186.82861328,-26490587.23449707,-26040489.196777344,-26456356.048583984,-22535266.876220703,-16890972.137451172,-18257356.643676758,-14753968.238830566,-40396053.314208984,-29984724.044799805,-29288326.263427734,-26606042.861938477,-25314826.96533203,-14437675.476074219,-28778003.692626953,-10038896.560668945,-16683294.296264648,-9193032.264709473,-28304420.471191406,-27118768.6920166,-21905666.35131836,-33256072.998046875,-21838813.78173828,-19483377.45666504,-12266795.15838623,1572111.72580719,-14974365.234375,-1517444.6105957031,-9980271.339416504,-9683497.428894043,-21028005.599975586,5719485.759735107,1985480.6661605835,-6874072.074890137,2547804.832458496,2823439.598083496,478383.868932724,-1082956.6717147827,-9409511.56616211,-2709145.3075408936,-3411257.028579712,-1134359.1213226318,-1103063.941001892,12677526.473999023,6415525.436401367,22000555.03845215,22064716.339111328,22344888.68713379,1969303.846359253,6847512.245178223,8431628.227233887,20480514.526367188,23354349.13635254,23193063.735961914,16513830.184936523,20076959.60998535,45214214.32495117
0.31,-43325107.57446289,-44904296.875,-33566631.31713867,-33754898.07128906,-21833223.342895508,-64832511.90185547,-29864202.49938965,-30102027.893066406,-29488059.997558594,-21972997.665405273,-17922933.57849121,-20119302.74963379,-18286575.317382812,-43187149.04785156,-35903190.61279297,-33791694.64111328,-29794788.360595703,-28372625.35095215,-14099798.202514648,-27656322.479248047,-10929546.356201172,-19069561.004638672,-12798443.794250488,-34323913.57421875,-31192346.572875977,-25967233.657836914,-35897720.33691406,-22145084.381103516,-19608175.27770996,-14099267.959594727,-2190012.216567993,-18303834.915161133,-8235588.073730469,-15660568.237304688,-15120370.864868164,-24252332.68737793,2974460.6018066406,-113886.60222291946,-9597219.467163086,-1193439.245223999,-2319367.1703338623,-6340431.213378906,-7789675.712585449,-14815557.479858398,-8225664.138793945,-7469826.221466064,-4795908.9279174805,-5292653.560638428,5965570.449829102,-269305.19938468933,13977407.455444336,13712499.618530273,14131370.544433594,-4323500.156402588,-106912.59801387787,1392697.4534988403,14641753.196716309,15112181.663513184,14882979.393005371,8817049.026489258,12765726.089477539,38176723.48022461
0.315,-42780559.53979492,-44380134.58251953,-32355232.23876953,-33854019.16503906,-20454797.744750977,-62856933.59375,-30108306.884765625,-30730459.213256836,-29732519.149780273,-20883506.774902344,-15874494.552612305,-18246610.641479492,-16501798.629760742,-41424015.045166016,-35016613.0065918,-33752033.23364258,-29983970.642089844,-28678970.336914062,-14077548.027038574,-25610944.747924805,-8897182.46459961,-16754377.365112305,-10585194.58770752,-33575325.01220703,-31806386.947631836,-28392326.35498047,-37538360.595703125,-23245082.85522461,-18533710.479736328,-12327609.062194824,-153349.8466014862,-16722038.269042969,-10106412.887573242,-19179828.643798828,-18765893.936157227,-27211307.525634766,-264549.46398735046,-951934.9336624146,-8567653.65600586,-244923.97904396057,-1427100.419998169,-8523880.004882812,-9805970.191955566,-18369792.938232422,-13611936.569213867,-10344661.712646484,-5815677.642822266,-5210553.6460876465,6773671.627044678,2492176.055908203,9983246.803283691,9518444.061279297,9878477.096557617,-6488519.668579102,773963.987827301,2216283.082962036,16798231.12487793,10941097.259521484,10770099.639892578,6739843.845367432,13760158.53881836,37936412.8112793
0.32,-39980026.24511719,-40045166.015625,-28083864.212036133,-30997411.727905273,-17015035.62927246,-58376567.84057617,-27249069.213867188,-27478412.628173828,-26887435.913085938,-19598016.7388916,-13115015.029907227,-15294700.622558594,-12477490.425109863,-37381252.28881836,-31301397.3236084,-30343475.341796875,-27298154.830932617,-25941089.630126953,-13389053.344726562,-24163354.873657227,-6518379.211425781,-13180921.55456543,-6765178.203582764,-29674518.585205078,-29502981.185913086,-27068969.7265625,-35864231.10961914,-23632402.420043945,-17382566.452026367,-9573175.430297852,3842229.3663024902,-14409465.789794922,-7159004.688262939,-18045810.69946289,-17871633.529663086,-27335250.854492188,-335855.633020401,-571622.5504875183,-6442456.245422363,2572266.3402557373,1435889.3632888794,-5689593.315124512,-7012768.745422363,-17422269.821166992,-14542815.208435059,-10662074.089050293,-5051296.234130859,-3438179.7313690186,10914410.591125488,8407543.182373047,12726372.718811035,12452384.948730469,12580504.417419434,-3927546.262741089,5849640.846252441,6024744.987487793,21641574.85961914,13715506.553649902,13763530.731201172,10904686.92779541,20232742.309570312,43628768.92089844
0.325,-35807231.90307617,-35847530.364990234,-25685365.676879883,-25743816.375732422,-15363106.727600098,-54564979.553222656,-22117469.787597656,-21633737.564086914,-21603332.51953125,-17051963.806152344,-11660297.393798828,-14373731.61315918,-11793553.352355957,-35747932.43408203,-28129577.63671875,-25657005.310058594,-22720849.990844727,-20799287.796020508,-10916152.000427246,-23607881.546020508,-6203600.4066467285,-13309116.36352539,-7556007.862091064,-26136217.11730957,-25435733.795166016,-22359445.571899414,-31218685.150146484,-20766731.26220703,-16876255.03540039,-9153071.403503418,4136175.1556396484,-16264789.581298828,-2243492.841720581,-12960351.943969727,-12821923.25592041,-24431354.522705078,3613287.925720215,-249296.6502904892,-6230996.608734131,3176054.2392730713,802564.0845298767,-649655.282497406,-2180970.4303741455,-12423098.56414795,-10931640.625,-9001890.182495117,-3691422.939300537,-2872967.24319458,12324907.302856445,9440143.585205078,17890968.322753906,17953857.421875,17874416.35131836,-1508617.0434951782,8106094.3603515625,6234029.769897461,22162294.387817383,18903608.322143555,19202714.920043945,14945134.162902832,23548662.185668945,47208770.751953125
0.33,-32173744.201660156,-34391105.65185547,-26125942.23022461,-21364576.33972168,-16094057.083129883,-52554435.72998047,-18091119.76623535,-17355745.315551758,-17420316.696166992,-13971195.220947266,-11579715.728759766,-15463925.3616333,-14973737.716674805,-36793674.46899414,-26261608.123779297,-22524219.512939453,-19336774.826049805,-16716001.510620117,-8416132.926940918,-23617710.11352539,-7628845.21484375,-16896993.63708496,-12389335.632324219,-24126499.17602539,-21940679.5501709,-17958608.627319336,-27429105.758666992,-16161499.0234375,-16953435.89782715,-11075821.876525879,504944.98014450073,-20614040.37475586,1683303.5945892334,-7901435.852050781,-7654198.169708252,-21496520.99609375,7424575.328826904,-1010676.6223907471,-7549379.825592041,1396201.729774475,-2712674.856185913,3302770.6146240234,1723453.8793563843,-7374813.556671143,-6953079.2236328125,-7133983.612060547,-2576780.7960510254,-3180801.8684387207,10958109.855651855,7027229.785919189,20041257.858276367,20197687.14904785,20078344.345092773,-2712042.5701141357,6552852.153778076,3618612.52784729,19382349.014282227,20915304.18395996,21284593.58215332,14380062.103271484,20916572.57080078,44729503.6315918
0.335,-31292306.900024414,-34939079.28466797,-26485738.75427246,-21373392.10510254,-16878396.98791504,-52132762.90893555,-18480789.184570312,-18041906.356811523,-17864658.35571289,-13103096.008300781,-12035557.746887207,-16131093.978881836,-16894079.208374023,-35828208.923339844,-25690914.154052734,-22875247.955322266,-19888774.871826172,-17090852.737426758,-8943626.403808594,-24146566.39099121,-8660292.625427246,-18759571.075439453,-14525624.27520752,-23755010.6048584,-21382785.79711914,-17427019.119262695,-27713424.682617188,-13860876.083374023,-17228252.410888672,-12393618.5836792,-2026001.9302368164,-21183946.60949707,3172224.760055542,-6509427.547454834,-6275499.34387207,-21369152.069091797,6804768.085479736,-2274353.7425994873,-7728558.06350708,592395.4844474792,-3476111.888885498,4602889.060974121,3258215.6658172607,-6079130.172729492,-5905054.092407227,-6082318.305969238,-2021968.3647155762,-2370413.5417938232,11231422.424316406,8324990.272521973,19146944.046020508,19144323.348999023,19144641.876220703,-5055047.512054443,6274915.2183532715,3795426.607131958,19398073.196411133,19938337.326049805,20140087.127685547,12329519.271850586,18190166.473388672,40926940.91796875
0.34,-33059558.868408203,-35726608.27636719,-25684291.83959961,-25312522.888183594,-16772920.608520508,-52431472.77832031,-22524435.04333496,-22338497.161865234,-22185293.197631836,-16172744.750976562,-13286256.790161133,-15448340.41595459,-14196923.25592041,-29915245.056152344,-26763082.50427246,-25913890.838623047,-23543779.373168945,-21157047.271728516,-13049964.904785156,-25417882.919311523,-8593649.864196777,-15907959.938049316,-10183802.604675293,-25128507.614135742,-23861505.50842285,-20638378.143310547,-31299058.91418457,-15162733.07800293,-17663629.53186035,-11385550.498962402,-76546.71370983124,-15353466.987609863,2263404.8461914062,-8852499.008178711,-8777683.25805664,-23759319.305419922,2847985.7444763184,-2528105.7357788086,-5773836.612701416,2886321.0678100586,1787250.7572174072,3556682.348251343,2473684.549331665,-8554810.523986816,-6924149.513244629,-5344638.347625732,-1729949.1167068481,-24647.33086526394,15142127.990722656,15092540.740966797,19052631.378173828,18934391.021728516,19145391.4642334,-4066236.0191345215,10520209.312438965,8820161.819458008,24402473.44970703,20071323.39477539,20053894.04296875,14301067.352294922,21099273.681640625,42043113.708496094
0.345,-35130477.90527344,-36701400.75683594,-26149311.065673828,-29133762.35961914,-17538877.487182617,-52506080.627441406,-26109395.98083496,-25787578.582763672,-26092523.5748291,-21531398.77319336,-16151416.778564453,-15136599.54071045,-9949182.510375977,-22084207.53479004,-29112758.63647461,-28887720.108032227,-26777591.705322266,-24846569.061279297,-17969068.52722168,-27161138.5345459,-8991359.71069336,-11607159.614562988,-3448474.884033203,-27656621.9329834,-27095598.220825195,-24448152.542114258,-34887218.4753418,-17797941.207885742,-18512691.497802734,-9792473.793029785,3936582.8037261963,-7615412.23526001,-290898.23365211487,-12284483.909606934,-12272030.8303833,-26235296.24938965,308130.8603286743,-1332365.3936386108,-3714932.441711426,6282334.804534912,9665301.322937012,1072808.027267456,44704.25099134445,-11960666.65649414,-7627033.233642578,-4282741.069793701,-1369701.3854980469,2221412.181854248,19687122.344970703,21522039.41345215,20618247.985839844,20559608.459472656,20996522.903442383,-16687.18084692955,16074497.22290039,14613738.059997559,30201833.724975586,22028728.485107422,21954380.03540039,19410354.614257812,27266136.169433594,47086620.33081055
0.35,-34978446.96044922,-37720256.80541992,-28272686.004638672,-29261404.037475586,-19202196.12121582,-51196773.529052734,-25946435.928344727,-25402994.15588379,-26097290.0390625,-24780076.98059082,-18927743.911743164,-15710371.017456055,-8356899.261474609,-16418397.903442383,-30435184.478759766,-29295366.287231445,-26801441.192626953,-24945245.74279785,-20031023.025512695,-27980873.107910156,-10321279.525756836,-10142329.216003418,-23792.03401505947,-29019412.994384766,-28348661.422729492,-25803598.403930664,-35943222.04589844,-19244581.22253418,-19325431.82373047,-9676342.964172363,6121273.517608643,-3602130.41305542,-2748635.5304718018,-14107460.975646973,-13953874.588012695,-26851736.068725586,1643033.9813232422,401613.14606666565,-3442335.1287841797,7761052.60848999,14465731.620788574,-1306524.7535705566,-2392051.935195923,-13605833.053588867,-7391683.101654053,-3080371.856689453,-814510.8222961426,3215846.061706543,21477260.58959961,22982040.405273438,21144823.07434082,21163043.975830078,21718042.373657227,2849043.846130371,18180419.921875,16758741.37878418,32287181.854248047,22730497.360229492,22743282.318115234,21899192.810058594,30301546.096801758,50070980.072021484
0.355,-31307613.372802734,-36035743.713378906,-27533630.37109375,-25337633.13293457,-17699226.37939453,-47204627.990722656,-22023155.212402344,-21530565.26184082,-22131502.151489258,-22331972.122192383,-17507478.713989258,-14272239.685058594,-8125226.020812988,-11999364.852905273,-27873067.85583496,-26269458.770751953,-23435323.71520996,-21362560.272216797,-17611690.521240234,-26316297.53112793,-9937059.40246582,-10349750.518798828,337445.9445476532,-26448478.69873047,-26173009.872436523,-23769264.221191406,-34079269.40917969,-18481407.165527344,-18791503.90625,-9833849.906921387,6900857.448577881,-3218278.646469116,-2300022.602081299,-12917243.957519531,-12629306.79321289,-25273277.282714844,5050657.272338867,2060823.4405517578,-3786823.034286499,7794726.371765137,15261129.379272461,-937206.8643569946,-2008241.4150238037,-12312551.498413086,-6641509.532928467,-1952820.5394744873,424431.11538887024,4013498.7831115723,21514757.15637207,22126340.866088867,20540725.708007812,20521038.055419922,20984888.076782227,2851689.338684082,17435647.96447754,16077156.066894531,31364276.885986328,21971410.751342773,22015438.079833984,20669511.795043945,29407896.041870117,49375450.134277344
0.36,-25245340.34729004,-29724870.681762695,-21084371.56677246,-20215915.67993164,-10734993.934631348,-41214668.27392578,-17200019.83642578,-16906332.01599121,-17204954.147338867,-15554974.555969238,-11008069.038391113,-8980785.369873047,-5364627.361297607,-5606144.428253174,-21784437.17956543,-21315481.185913086,-19030565.26184082,-16754764.556884766,-12813317.29888916,-22712621.688842773,-5909396.171569824,-8179829.5974731445,1497112.9894256592,-20373502.731323242,-21566150.665283203,-20003910.064697266,-30975065.231323242,-15809100.151062012,-16557977.676391602,-7853170.871734619,9126371.383666992,-2361337.423324585,2139666.795730591,-9323309.898376465,-9105560.302734375,-22677009.58251953,7482547.283172607,3730776.786804199,-2503110.885620117,9123452.186584473,15593289.375305176,3429087.4004364014,2392033.338546753,-8778294.563293457,-5231911.182403564,-743753.7312507629,2785639.524459839,5992200.85144043,23009004.592895508,23790136.337280273,22292072.296142578,22213684.08203125,22450786.590576172,2342770.0996398926,18185873.03161621,16398694.99206543,31152750.01525879,23482782.3638916,23425983.428955078,20834758.758544922,29525218.963623047,49361225.12817383
0.365,-20512989.044189453,-22431037.90283203,-13795881.271362305,-17735462.188720703,-3256703.8536071777,-37179527.282714844,-15010216.71295166,-14769322.395324707,-15046474.45678711,-10321193.69506836,-4821955.680847168,-3379726.4099121094,-944387.1974945068,1733055.2339553833,-16883361.81640625,-17841146.46911621,-16907989.501953125,-14568843.841552734,-10015641.212463379,-20050653.4576416,-1116811.8715286255,-4004090.7859802246,3645815.61088562,-15534897.804260254,-17809722.900390625,-17672990.798950195,-29327714.920043945,-13089523.315429688,-14446119.30847168,-4588221.549987793,12117830.276489258,200351.62568092346,7057199.478149414,-6163434.5054626465,-6085304.260253906,-21098535.537719727,7532417.297363281,4809454.917907715,-43457.649648189545,11731470.108032227,17060438.15612793,8461155.891418457,7312410.831451416,-5656167.507171631,-3570926.6662597656,33076.76687836647,5236977.100372314,8209757.8048706055,25767875.67138672,27231460.571289062,26444326.400756836,26425998.68774414,26509195.32775879,2325861.930847168,21079326.629638672,18377391.815185547,32485153.198242188,27539865.493774414,27419153.213500977,24309112.548828125,32229469.299316406,52002552.0324707
0.37,-19678670.88317871,-19649068.83239746,-12274363.51776123,-18750724.79248047,-1681445.3601837158,-38104747.7722168,-16091800.689697266,-15802781.105041504,-16302810.668945312,-10311937.33215332,-4193706.98928833,-2072516.918182373,617858.5886955261,6032855.987548828,-17091440.200805664,-17785825.729370117,-17912912.368774414,-15555925.369262695,-11119977.951049805,-20067432.403564453,136347.4279642105,-2294634.8190307617,3517634.868621826,-15810241.69921875,-17347311.01989746,-18237586.975097656,-30153263.092041016,-12639237.403869629,-14348291.397094727,-3230165.2431488037,12355776.7868042,1539674.162864685,7450787.544250488,-5976953.983306885,-5845309.734344482,-21583335.876464844,5954172.134399414,4193441.867828369,1148068.1896209717,12680160.522460938,17413743.97277832,9025375.366210938,7647402.286529541,-5342913.1507873535,-3313513.5173797607,-708569.5266723633,5861808.776855469,8586704.25415039,26300466.537475586,27646604.537963867,27423614.501953125,27544506.072998047,27638298.03466797,307902.5149345398,21863370.895385742,18790813.446044922,32486015.31982422,28540037.155151367,28541402.81677246,25520223.61755371,32710971.83227539,52782844.54345703
0.375,-19902631.759643555,-20528207.778930664,-14779804.229736328,-19253450.393676758,-4152428.150177002,-40536483.76464844,-16497209.548950195,-16300329.208374023,-16876201.629638672,-12126942.63458252,-6558204.174041748,-3465924.7398376465,-898050.9638786316,7521857.738494873,-19824977.87475586,-18481861.114501953,-18391906.73828125,-15917683.601379395,-12756876.945495605,-20642808.91418457,-1285157.322883606,-3961932.897567749,1197194.0994262695,-18540491.104125977,-18336513.51928711,-19126173.01940918,-30962213.51623535,-13823686.599731445,-15314874.649047852,-3992661.476135254,10156914.710998535,234879.44900989532,3683979.5112609863,-7402137.279510498,-7051233.768463135,-22574197.76916504,5037379.264831543,2649554.72946167,873874.3662834167,11540242.195129395,15923420.906066895,5260978.698730469,3733083.2481384277,-6619238.376617432,-4671894.073486328,-2459504.6043395996,4733672.142028809,7521862.030029297,23884683.60900879,24242263.793945312,22645767.211914062,22818429.946899414,22978084.564208984,-4394128.322601318,18612020.49255371,16212194.442749023,29643920.8984375,23770523.071289062,23943811.416625977,20540569.305419922,28216842.651367188,48182792.66357422
0.38,-16671712.875366211,-19626958.8470459,-14307505.60760498,-15508401.870727539,-3689137.6972198486,-37924213.40942383,-12528658.866882324,-12537142.753601074,-13035074.234008789,-10818985.939025879,-5857905.387878418,-2509989.2616271973,-1129869.2226409912,10242192.268371582,-19062454.223632812,-15897737.503051758,-14708415.985107422,-12048495.292663574,-11061223.030090332,-19055227.279663086,-974492.1326637268,-4847977.161407471,537771.463394165,-17740449.905395508,-16867963.790893555,-16963039.39819336,-29002252.57873535,-13067594.528198242,-14990628.242492676,-3894274.950027466,10010296.821594238,-1080861.8068695068,1535510.4207992554,-6714983.4632873535,-6274682.04498291,-21896833.419799805,6349048.614501953,2532034.6355438232,1298070.4307556152,11469521.522521973,15595180.51147461,2998501.0623931885,1482051.3725280762,-5972769.737243652,-5234367.370605469,-3082971.5728759766,3893162.965774536,7384451.389312744,22212230.682373047,21616191.864013672,17762266.159057617,17822179.794311523,17999593.73474121,-7821062.088012695,15223697.662353516,13618416.786193848,26405851.364135742,18852449.417114258,18996984.481811523,14363309.860229492,23451461.791992188,41968997.955322266
0.385,-12375278.47290039,-17520660.400390625,-11529564.85748291,-10895586.013793945,-1008765.5782699585,-30725864.41040039,-7411273.002624512,-7480905.055999756,-8141636.848449707,-8847504.615783691,-3555636.167526245,-526566.1478042603,-195343.80733966827,13365603.44696045,-14436935.424804688,-11472604.751586914,-9836674.690246582,-7231414.318084717,-8478264.808654785,-17194561.004638672,525923.0136871338,-3870583.5342407227,1357947.9455947876,-13209684.371948242,-13316684.72290039,-13168202.40020752,-26158210.75439453,-9581563.949584961,-13984267.234802246,-2975756.1683654785,12206352.233886719,-983833.4918022156,3638465.166091919,-3945030.689239502,-3669878.4828186035,-20514488.220214844,7852768.898010254,3751954.7939300537,1963922.619819641,12656871.795654297,16935239.791870117,5085379.600524902,3635297.0600128174,-3404605.8654785156,-4007636.547088623,-2390010.5953216553,3190726.2802124023,7622328.281402588,22739875.79345703,21794376.373291016,18013778.686523438,17896579.74243164,18095432.28149414,-7451979.637145996,14770806.312561035,13137563.705444336,24797077.178955078,19046634.674072266,18988140.106201172,13093371.391296387,22892038.345336914,38919155.12084961
0.39,-14883113.861083984,-21532297.134399414,-15455628.395080566,-12753194.808959961,-5112582.683563232,-27312965.393066406,-8503280.639648438,-8428891.1819458,-9583825.11138916,-13354941.368103027,-7695327.281951904,-4979052.543640137,-4707665.920257568,10036124.229431152,-12410322.189331055,-11376532.554626465,-10800917.625427246,-8795474.0524292,-11220355.987548828,-19749494.552612305,-2996981.8592071533,-6535183.429718018,-2424052.4768829346,-11473785.400390625,-12804012.298583984,-12926720.61920166,-27149011.611938477,-8050022.125244141,-15794991.493225098,-5926618.0992126465,10131039.6194458,-2990988.7313842773,5171219.825744629,-3893032.7892303467,-3823152.542114258,-21761222.83935547,5404963.970184326,2701002.597808838,-1235062.3607635498,9700691.223144531,14468045.234680176,6721394.062042236,5296722.888946533,-3522751.808166504,-4238660.3355407715,-3358653.5453796387,-622928.7981987,4148975.372314453,20881534.576416016,19997110.36682129,19193950.653076172,18993173.599243164,19271539.68811035,-7255618.572235107,13873955.726623535,11677059.173583984,22431816.10107422,20118705.74951172,19978433.60900879,13681233.406066895,22660377.502441406,36492496.490478516
0.395,-24688474.655151367,-32540023.803710938,-28060501.098632812,-21040088.653564453,-17805740.356445312,-31677839.279174805,-16261558.532714844,-16052551.26953125,-17597709.65576172,-23827779.76989746,-19144258.499145508,-16829557.418823242,-16584516.525268555,-1324237.2274398804,-16282060.623168945,-17065216.064453125,-18061687.469482422,-16993333.81652832,-19288894.653320312,-26594745.635986328,-13008193.969726562,-15907447.814941406,-13165073.39477539,-15622714.99633789,-17303199.768066406,-17451736.450195312,-32092453.002929688,-11886921.882629395,-21164461.135864258,-14423488.61694336,250178.93314361572,-10098590.850830078,1610315.442085266,-8726431.846618652,-8700929.641723633,-25890003.204345703,-953979.3133735657,-2376866.102218628,-9459036.827087402,-114842.07212924957,4570251.941680908,3213936.5673065186,1807722.806930542,-8426120.75805664,-8517079.35333252,-7401866.912841797,-8062769.889831543,-3965344.190597534,13094514.846801758,11907504.081726074,14389079.093933105,14239850.997924805,14558668.13659668,-11730717.658996582,8458127.02178955,5633107.1853637695,16178417.205810547,15137119.29321289,15169563.293457031,9125041.961669922,16585777.282714844,29407485.961914062
0.4,-30577907.56225586,-39362865.44799805,-37190734.86328125,-25875524.520874023,-26765035.62927246,-35991104.12597656,-21273960.11352539,-21075088.500976562,-22604408.264160156,-29571607.58972168,-26726938.247680664,-25321205.139160156,-26265260.696411133,-10786874.771118164,-19849920.27282715,-21117633.819580078,-22680559.158325195,-22191259.384155273,-24320556.640625,-31030525.20751953,-20807092.666625977,-24961200.714111328,-23249832.153320312,-19186290.740966797,-21005083.084106445,-20946565.628051758,-34800174.713134766,-16285884.857177734,-25323957.443237305,-21823059.08203125,-10007103.91998291,-18154775.619506836,-3032763.4811401367,-13052018.165588379,-13013926.50604248,-28212898.25439453,-4732151.985168457,-7137732.982635498,-16595750.80871582,-9793162.34588623,-6632010.459899902,-1494692.2063827515,-2834993.362426758,-12814663.887023926,-12890246.391296387,-10545462.608337402,-13263110.160827637,-10610425.94909668,4372251.033782959,1522369.7423934937,6404358.863830566,6341722.011566162,6554335.117340088,-17553585.052490234,1842258.9302062988,-2295688.8675689697,7987788.200378418,6979138.8511657715,7211282.253265381,1068900.3467559814,7297340.869903564,19907646.17919922
0.405,-24084659.576416016,-33283378.60107422,-32205997.467041016,-20266614.91394043,-21523935.317993164,-30952667.236328125,-16222545.623779297,-16065185.546875,-17470312.118530273,-23569341.6595459,-21657131.19506836,-21395601.272583008,-24171031.951904297,-8484403.610229492,-15526938.438415527,-16452602.38647461,-17770393.37158203,-17123798.370361328,-20449001.31225586,-28168901.443481445,-18016504.287719727,-24583036.422729492,-24223102.569580078,-14588729.858398438,-17403522.491455078,-17966819.763183594,-30887557.983398438,-13453679.084777832,-23611347.198486328,-20619688.034057617,-10893351.554870605,-19798620.223999023,-1294700.5033493042,-10456841.468811035,-10535830.4977417,-24978868.48449707,-631498.2771873474,-5941569.805145264,-15927572.250366211,-10191980.361938477,-9714036.94152832,156704.48541641235,-1117235.6605529785,-10323043.823242188,-10906947.135925293,-8067103.385925293,-10641809.463500977,-9721075.057983398,2648821.8307495117,-3345885.2767944336,4719136.714935303,4688292.980194092,4725350.379943848,-17374122.619628906,826805.1743507385,-5895920.276641846,2990624.6662139893,5208227.634429932,5422949.79095459,-1655885.6964111328,3478308.2008361816,15717052.459716797
0.41,-12416112.899780273,-21714941.024780273,-20103054.04663086,-10139575.004577637,-9625385.284423828,-19314004.89807129,-6139544.486999512,-5946152.687072754,-7544165.61126709,-12929502.487182617,-10744513.511657715,-11180288.314819336,-15012907.981872559,1418128.7288665771,-5420919.895172119,-6263267.040252686,-8170340.538024902,-7127081.871032715,-12653702.735900879,-21873535.15625,-8778750.4196167,-16841722.48840332,-18953487.396240234,-4218136.310577393,-8501097.679138184,-10826518.058776855,-24098274.23095703,-3910775.1846313477,-18059389.114379883,-13160472.869873047,-4230140.209197998,-14730321.884155273,6384994.029998779,-2684423.9234924316,-2943348.4077453613,-18923912.048339844,7487059.116363525,201641.15726947784,-9541403.770446777,-2972938.7760162354,-4940756.797790527,7791671.7529296875,6487126.82723999,-2635576.4865875244,-3313318.4909820557,-1925860.2857589722,-3481875.419616699,-4219549.179077148,7123638.153076172,-1737705.3499221802,10743179.321289062,10731570.24383545,10675550.46081543,-11221228.59954834,4945966.720581055,-4410521.507263184,2282254.219055176,11196869.850158691,11266181.945800781,3013672.5902557373,6710659.980773926,17965204.2388916
0.415,-8825285.911560059,-18434143.06640625,-16531602.85949707,-6205499.172210693,-6932205.2001953125,-12076419.830322266,-1400500.0591278076,-1171659.7080230713,-3198205.4710388184,-9535022.735595703,-7569980.144500732,-8245889.663696289,-12218286.514282227,5927072.525024414,1277124.4049072266,155552.08921432495,-3673295.259475708,-2733415.8420562744,-9789575.576782227,-19712142.944335938,-4725974.082946777,-12859673.500061035,-17859485.626220703,2507478.2371520996,-2421671.3905334473,-6230908.8706970215,-21141632.080078125,3179080.4862976074,-15066510.200500488,-9155094.146728516,-1102997.4222183228,-10914599.418640137,11764860.153198242,2455934.762954712,2164484.0240478516,-16006290.435791016,10904528.617858887,4522582.054138184,-6118692.398071289,997170.6867218018,-1845034.4800949097,13121352.195739746,11675930.02319336,2459814.7869110107,1598850.8462905884,841800.9877204895,-537017.3454284668,-2591802.3586273193,9056119.918823242,-11529.255658388138,15268813.133239746,15340229.988098145,15255884.170532227,-7415283.203125,6610368.251800537,-3328290.7009124756,2063331.3655853271,15613991.737365723,15650259.017944336,6826278.209686279,9194622.039794922,19205978.393554688
0.42,-14292522.430419922,-24331548.6907959,-24062820.434570312,-9731452.941894531,-15453310.9664917,-13448901.176452637,-3966075.897216797,-3783636.3315582275,-6063043.594360352,-14439661.979675293,-14053410.530090332,-14972024.917602539,-19224733.352661133,1013007.0447921753,489279.5979976654,-623910.2482795715,-6048146.724700928,-5684828.758239746,-12762615.203857422,-22982538.2232666,-9219837.188720703,-17322013.85498047,-23966127.395629883,1537939.3100738525,-2992361.307144165,-6626399.040222168,-22839982.986450195,1902203.6790847778,-17055448.532104492,-12593829.154968262,-5911114.21585083,-13873815.536499023,10456676.483154297,1469785.5710983276,1303623.5570907593,-17854001.998901367,7586170.196533203,3509433.9847564697,-9337841.987609863,-3308787.8227233887,-5337753.772735596,11734168.05267334,10153081.893920898,1421391.487121582,-1073457.5986862183,-2410441.1602020264,-4251522.064208984,-6998059.272766113,4890818.5958862305,-1708790.5406951904,12684352.87475586,12832761.764526367,12650188.446044922,-10551262.855529785,2858363.8668060303,-5404542.446136475,499621.09327316284,12813237.190246582,12940246.58203125,4234421.253204346,6360620.975494385,15587595.93963623
0.425,-18202798.84338379,-27959466.9342041,-30033142.08984375,-13049333.572387695,-21751873.016357422,-17042800.903320312,-6985279.560089111,-6850204.944610596,-9070190.4296875,-18596609.115600586,-19379417.419433594,-20279691.696166992,-25125255.584716797,-3729358.673095703,-2906688.690185547,-3649668.4551239014,-8829098.70147705,-8802183.151245117,-15099966.049194336,-25905782.69958496,-13758011.817932129,-22321584.701538086,-28761018.753051758,-2077714.6816253662,-6253938.1980896,-8641640.663146973,-24387079.2388916,-3327019.9298858643,-19828615.188598633,-16902488.708496094,-10478975.296020508,-19068748.474121094,7340520.38192749,-1330841.302871704,-1399523.0197906494,-20495285.034179688,4302133.560180664,956812.7393722534,-13534846.305847168,-8573277.473449707,-9226170.539855957,8559254.64630127,7001257.419586182,-1408194.899559021,-6243769.16885376,-6285118.103027344,-7889050.483703613,-10527816.772460938,1513850.0928878784,-2865615.129470825,9250358.581542969,9313544.273376465,8990759.84954834,-14755184.173583984,29790.05314409733,-6471157.550811768,722339.1532897949,9199395.179748535,9347882.270812988,964046.29945755,3961109.161376953,13351114.273071289
0.43,-15005574.226379395,-23294837.951660156,-25501770.01953125,-11680734.634399414,-17060926.43737793,-16582208.633422852,-5945691.5855407715,-5782843.112945557,-7860669.136047363,-16784563.064575195,-16359550.476074219,-16191333.770751953,-20704185.485839844,609096.5270996094,-3321842.4320220947,-3972034.215927124,-7853821.277618408,-7538044.9295043945,-13312887.191772461,-24164268.493652344,-11019829.750061035,-19205495.834350586,-24581485.748291016,-2631984.7106933594,-7124280.4527282715,-8926985.740661621,-22905870.43762207,-4960695.266723633,-18898263.931274414,-14986513.137817383,-6605150.22277832,-18236278.533935547,8385663.032531738,-1037680.8643341064,-1106768.1312561035,-20221302.032470703,6418302.059173584,1523862.600326538,-12550312.042236328,-6384932.041168213,-6263597.48840332,9582540.512084961,8244194.984436035,-995746.6125488281,-6221686.840057373,-5022825.241088867,-5856692.790985107,-7653797.626495361,5466316.223144531,554722.5475311279,12626811.027526855,12461956.024169922,12160447.120666504,-12554476.737976074,3722390.4132843018,-2764625.5493164062,4981409.072875977,12621953.010559082,12658044.815063477,4585469.722747803,8355474.472045898,18699558.25805664
0.435,-9852701.187133789,-16161735.534667969,-15913384.437561035,-8542538.6428833,-7984544.277191162,-13303087.23449707,-3203531.9805145264,-3044744.4915771484,-5069503.307342529,-12956767.082214355,-9985963.821411133,-8004445.0759887695,-10656101.22680664,10679293.632507324,-1140624.761581421,-2054657.6976776123,-5387274.265289307,-4523343.563079834,-10571373.93951416,-19944131.85119629,-4514320.373535156,-10358984.94720459,-14947284.698486328,-497274.57761764526,-5192602.157592773,-7603250.503540039,-20392902.374267578,-2236309.766769409,-15298460.006713867,-8880033.493041992,2354159.5935821533,-10513539.31427002,12347823.143005371,1737428.4267425537,1694298.505783081,-17664049.14855957,10866371.154785156,4160154.8194885254,-8130646.705627441,1132169.7235107422,1490506.4105987549,13522449.493408203,12449267.387390137,2052648.3058929443,-1060938.000679016,-212769.37425136566,-1469122.5290298462,-1913106.3222885132,13163656.234741211,5916749.954223633,19928916.931152344,19639200.21057129,19564283.37097168,-5703894.61517334,10021899.223327637,2509620.428085327,10052349.090576172,20197626.1138916,20126216.888427734,12514056.205749512,15958192.825317383,27308811.18774414
0.44,-7359467.029571533,-12336519.241333008,-10051256.17980957,-6565742.492675781,-4023964.8818969727,-11230883.598327637,-1556064.9633407593,-1559478.1637191772,-3522117.853164673,-11442885.398864746,-7494360.92376709,-4577431.678771973,-5217197.895050049,17469516.75415039,174052.4172782898,-383113.5630607605,-4039762.496948242,-2794366.8365478516,-9973499.298095703,-17470510.482788086,-1673580.8849334717,-4514809.608459473,-8760099.411010742,850656.3305854797,-3058133.125305176,-6135494.232177734,-19371788.024902344,-146463.0365371704,-13178618.431091309,-5571339.130401611,7330301.761627197,-3165093.6603546143,14007081.031799316,3485799.789428711,3555029.3922424316,-15656367.301940918,11947141.647338867,4944314.956665039,-6035196.304321289,5739439.010620117,6825017.45223999,15182778.358459473,14193970.680236816,4011009.2163085938,2514870.1667785645,2187954.902648926,-1081078.6485671997,87349.95126724243,16754268.646240234,8321134.567260742,22578878.40270996,22435178.756713867,22523902.893066406,-2068160.5339050293,11572777.74810791,4016755.1040649414,11647340.774536133,23107748.03161621,23031599.044799805,15958189.964294434,18428462.982177734,30111248.016357422
0.445,-5620581.150054932,-10105710.983276367,-8344959.259033203,-4886364.936828613,-4439726.829528809,-11382795.333862305,-427898.3771800995,-653782.1292877197,-2399784.564971924,-10598342.895507812,-7929818.153381348,-5868444.919586182,-6137933.731079102,18562215.80505371,-936681.1513900757,182590.72303771973,-3252671.957015991,-1716119.885444641,-10092521.667480469,-17324012.756347656,-2991693.0198669434,-4704414.844512939,-8823956.489562988,-112732.28377103806,-2671130.1803588867,-5486422.538757324,-19794694.900512695,-1368444.0851211548,-13946079.25415039,-6969949.245452881,6031142.711639404,-2229703.187942505,11785624.504089355,2726530.5519104004,2870970.9644317627,-15714565.27709961,9586981.773376465,3606065.9885406494,-7352764.129638672,4768208.026885986,7386256.217956543,13084143.63861084,11908556.938171387,3195223.808288574,471819.4007873535,11167.259886860847,-4777909.755706787,-2092878.1032562256,15184932.708740234,7858035.087585449,18585773.468017578,18709568.02368164,18650659.561157227,-4598342.418670654,8136650.085449219,2128659.248352051,10172843.933105469,19107110.97717285,19079696.655273438,12255658.149719238,14405199.05090332,25571390.15197754
0.45,-4157039.165496826,-8024114.608764648,-7473449.230194092,-3902801.990509033,-3794698.2383728027,-13354918.479919434,-105347.26083278656,-403246.1941242218,-1791782.9751968384,-8219789.505004883,-6705255.98526001,-6156471.252441406,-7706089.973449707,18173025.131225586,-4456705.093383789,-1054266.4527893066,-3233370.780944824,-1321600.4371643066,-9197004.318237305,-17515239.715576172,-3706101.655960083,-6797941.207885742,-11059564.590454102,-3360150.5756378174,-4965244.293212891,-6948775.768280029,-21133909.225463867,-3613090.2767181396,-15543699.264526367,-9146541.595458984,3293159.4848632812,-6499546.051025391,7777163.505554199,-125036.74626350403,-17495.96558511257,-17674167.63305664,7506244.18258667,3110906.1241149902,-8567339.897155762,2232240.676879883,5851538.181304932,9336400.032043457,7834992.8855896,125161.99052333832,-4737427.711486816,-3761589.288711548,-7771148.681640625,-4199219.703674316,13185337.06665039,7584125.995635986,12780332.565307617,13027821.54083252,12655324.935913086,-9216006.2789917,5051210.403442383,807438.0159378052,8080786.70501709,13041625.022888184,13079914.093017578,6180883.884429932,9139041.900634766,19096597.67150879
0.455,-6278378.486633301,-8681641.578674316,-7262416.362762451,-6428694.248199463,-2163003.444671631,-16958322.525024414,-2882409.5726013184,-3069812.536239624,-4108163.356781006,-6761743.068695068,-4386940.956115723,-4255844.593048096,-7017794.132232666,19286386.489868164,-10022706.031799316,-4940730.094909668,-5978167.533874512,-3796337.842941284,-8916507.720947266,-17411453.247070312,-2630062.5801086426,-7375665.187835693,-11909672.737121582,-8706988.334655762,-9697110.176086426,-11231518.745422363,-23711767.196655273,-3999941.349029541,-16317468.643188477,-9603787.422180176,2084801.197052002,-10809147.834777832,3102412.9390716553,-4560874.938964844,-4467939.853668213,-20591728.21044922,6471577.167510986,4208516.597747803,-8339061.737060547,800617.0392036438,3432355.8807373047,4910871.505737305,3161932.7068328857,-4363338.470458984,-8969651.222229004,-6341790.676116943,-8265626.907348633,-4897381.782531738,12293178.55834961,7062015.056610107,7661197.662353516,7855177.879333496,7386075.019836426,-12315406.799316406,3941961.5268707275,145926.3116121292,4346456.050872803,7664230.823516846,7840099.811553955,927163.9585494995,4883110.523223877,12821366.310119629
0.46,-7168369.293212891,-8027540.20690918,-4529149.055480957,-9949789.047241211,-956517.4579620361,-18461645.126342773,-6415446.2814331055,-6467021.465301514,-7342817.783355713,-8106865.882873535,-3886298.656463623,-2753180.742263794,-5015313.625335693,22587942.123413086,-14679596.900939941,-8533559.799194336,-9238306.999206543,-7018841.26663208,-10318512.916564941,-17343370.43762207,-2400540.828704834,-6472389.698028564,-10718798.637390137,-13562960.624694824,-13493195.533752441,-15375014.305114746,-26126722.33581543,-2111533.4033966064,-16445543.28918457,-9581702.23236084,1283484.3397140503,-11637224.197387695,-2021277.904510498,-8714493.751525879,-8475660.32409668,-22552755.35583496,4677644.2527771,4886197.566986084,-8725687.026977539,-653709.352016449,-422396.80886268616,-148318.85695457458,-1953157.3057174683,-8250410.079956055,-10705449.104309082,-7737484.455108643,-8475472.450256348,-6350547.790527344,9818810.46295166,3438697.8149414062,1532305.9558868408,1687030.1961898804,1451602.816581726,-14500410.079956055,1576474.666595459,-3310250.2822875977,-3488548.755645752,1442170.50075531,1833440.0653839111,-4965948.581695557,-1005070.3287124634,3785048.246383667
0.465,9339379.31060791,8612830.16204834,12282056.80847168,-4519897.4609375,5887671.47064209,-10506425.857543945,-1993147.0155715942,-1998827.338218689,-2972736.8354797363,-7480786.323547363,-2208146.333694458,362459.4807624817,543054.8787117004,30983543.395996094,-12920749.66430664,-5168002.128601074,-5124899.864196777,-2601739.1681671143,-9898278.23638916,-15747809.410095215,-2044198.989868164,-3075299.5014190674,-6213589.668273926,-12627053.260803223,-11216354.370117188,-14017795.56274414,-24638998.03161621,1462471.1275100708,-15576354.98046875,-9121695.518493652,1602607.7270507812,-8495139.122009277,-5343205.451965332,-8923542.976379395,-8483192.443847656,-21344018.936157227,3397547.721862793,5187061.786651611,-9754239.082336426,-1876589.059829712,-3306404.8290252686,-3596835.6132507324,-5300884.72366333,-8108772.277832031,-10130266.189575195,-8113746.643066406,-8830853.462219238,-8473234.176635742,5689784.526824951,-2274433.374404907,-5072111.129760742,-4843665.599822998,-4823416.709899902,-16442600.25024414,-2972291.7079925537,-9789887.428283691,-13431382.179260254,-5205611.228942871,-4635348.320007324,-11641764.640808105,-8816753.387451172,-7971121.788024902
0.47,49504936.21826172,47219459.533691406,48982215.881347656,14262792.587280273,24637226.104736328,7851198.196411133,13934243.202209473,13893169.403076172,12769867.897033691,494465.1126861572,6260900.020599365,9886478.424072266,13073304.176330566,46348365.783691406,-3966549.1580963135,6569924.831390381,9320905.685424805,13040589.332580566,-4382225.513458252,-10825932.502746582,2770252.7046203613,4556409.3589782715,2172225.9521484375,-4802837.84866333,-2997316.1220550537,-6650635.719299316,-18456485.748291016,5807410.717010498,-12667290.687561035,-6104385.852813721,5582671.642303467,-3774275.302886963,-5379570.007324219,-4725922.584533691,-4255177.4978637695,-17498086.92932129,5839760.303497314,7414993.2861328125,-8804881.09588623,-932032.7043533325,-2542535.3050231934,-3802792.78755188,-5339911.460876465,-3833434.820175171,-8285386.085510254,-7125403.40423584,-7488507.270812988,-9056727.409362793,2638509.2735290527,-6571503.162384033,-9404440.879821777,-9123085.021972656,-9133787.155151367,-17325267.791748047,-7350602.626800537,-16302091.598510742,-21436801.91040039,-9728778.839111328,-9100574.493408203,-16800695.419311523,-15561953.5446167,-18385902.404785156
0.475,91451316.8334961,87434661.86523438,88385368.34716797,34200744.62890625,46785221.099853516,24405153.274536133,30265024.185180664,30132696.1517334,29172098.15979004,11317572.593688965,18205368.041992188,22357257.843017578,26979904.174804688,61216190.338134766,3396941.661834717,16949228.286743164,23767070.770263672,29261440.27709961,2243041.515350342,-5132812.976837158,10493850.708007812,12444212.913513184,8955737.113952637,1790879.0111541748,2611288.30909729,-882376.3728141785,-13433063.507080078,8055007.9345703125,-9267484.664916992,-2011871.576309204,10281530.380249023,-2627217.5312042236,-6216417.31262207,-2299634.9334716797,-2003920.7935333252,-15399897.575378418,9950829.50592041,10383110.046386719,-6756103.515625,-210420.54891586304,-2437551.736831665,-4727905.2734375,-6095608.711242676,-1655953.4072875977,-8277218.818664551,-6764701.366424561,-6089893.341064453,-9721856.117248535,-647427.6781082153,-10767601.013183594,-13421252.250671387,-13251888.275146484,-13492590.90423584,-18944835.662841797,-12277227.401733398,-23088422.775268555,-28737979.888916016,-14065682.411193848,-13454612.731933594,-21822801.58996582,-22070245.74279785,-27564331.0546875
0.48,103488624.5727539,99128868.10302734,101671775.8178711,37448112.48779297,53485027.31323242,25100898.74267578,31562479.01916504,31325716.018676758,30818363.189697266,13633361.81640625,21805238.723754883,25991319.65637207,29459510.803222656,62755855.560302734,-392941.74313545227,14760857.582092285,24312862.396240234,30902606.964111328,2107836.7233276367,-4308403.015136719,12315736.770629883,12068783.7600708,6057205.2001953125,-2020956.9931030273,-2344059.944152832,-4207565.784454346,-16090173.721313477,4740117.54989624,-9491485.595703125,-2728320.598602295,7975211.620330811,-8885378.83758545,-13166229.248046875,-7714064.121246338,-7590804.576873779,-18650775.909423828,8946829.795837402,8976298.332214355,-8743275.64239502,-5363088.130950928,-10396266.93725586,-11704348.56414795,-12928253.173828125,-7348683.834075928,-13264456.748962402,-10375828.742980957,-9414949.417114258,-14958531.379699707,-8484664.916992188,-19481643.676757812,-22381685.256958008,-22415950.775146484,-22768001.556396484,-25180686.950683594,-21103599.548339844,-32807987.213134766,-39476978.30200195,-23270027.16064453,-22669582.36694336,-31236749.64904785,-32590324.40185547,-40155422.21069336
0.485,81001144.40917969,77461975.09765625,81190513.61083984,22457662.58239746,38821563.720703125,11779571.533203125,17591032.028198242,17375736.236572266,17008787.155151367,4261121.2730407715,12269986.152648926,16157093.048095703,17476718.90258789,49452457.427978516,-12297235.488891602,2336044.3115234375,11179374.694824219,17334966.6595459,-5584590.435028076,-9490344.047546387,4391350.746154785,2194619.89402771,-5222589.015960693,-13453818.321228027,-13861432.075500488,-13672526.359558105,-24431293.487548828,-2944811.5825653076,-14319122.314453125,-9826307.29675293,-1889244.556427002,-18532094.955444336,-23151931.762695312,-17339462.280273438,-17194086.0748291,-24742042.541503906,1586871.862411499,2488116.502761841,-15617310.523986816,-15061124.801635742,-23550462.72277832,-21756734.84802246,-22877141.95251465,-17027599.334716797,-21208940.505981445,-16814859.39025879,-16936515.80810547,-23322721.481323242,-18292383.193969727,-30193664.55078125,-34178470.611572266,-34307502.74658203,-34547966.00341797,-34462467.193603516,-31211193.084716797,-42149692.53540039,-50395481.10961914,-35117916.107177734,-34496627.80761719,-43019992.82836914,-44629806.51855469,-54208522.79663086
0.49,51958705.90209961,48811702.728271484,50970481.872558594,6946360.5880737305,19273643.493652344,1157034.5163345337,4917458.534240723,4921966.552734375,3967647.075653076,-5876388.072967529,381942.62981414795,4044360.1608276367,4977742.671966553,36421394.34814453,-18652667.999267578,-5798140.525817871,-268832.17692375183,4518868.446350098,-11815858.840942383,-14241070.747375488,-4413116.455078125,-6368913.173675537,-12323412.895202637,-19399406.43310547,-19277118.682861328,-18464443.20678711,-29086015.701293945,-7926498.4130859375,-18503206.253051758,-15797700.881958008,-8416297.912597656,-21418699.264526367,-26217668.533325195,-20732486.724853516,-20398635.864257812,-27118164.0625,-3745310.068130493,-1597229.4807434082,-19989126.205444336,-18844463.348388672,-28070632.934570312,-24962648.391723633,-26025857.92541504,-20336477.279663086,-25166610.717773438,-19651929.85534668,-20635593.41430664,-26211854.934692383,-20058269.500732422,-32414897.918701172,-38431869.50683594,-38485965.728759766,-38584190.368652344,-38653392.79174805,-33898571.0144043,-42439220.4284668,-51468700.40893555,-39316024.78027344,-38640487.67089844,-47287281.03637695,-47977077.48413086,-58838314.056396484
0.495,41824481.96411133,37855968.4753418,37727180.48095703,6172244.548797607,13472389.221191406,3881106.376647949,6421709.060668945,6601913.928985596,4918311.11907959,-5002639.293670654,-494105.4582595825,3113506.078720093,5668554.782867432,37125225.06713867,-12674096.10748291,-1291667.103767395,1546591.9971466064,5429347.038269043,-8773429.870605469,-12265243.530273438,-3523944.854736328,-3993972.3014831543,-7096692.085266113,-13346730.23223877,-13245904.922485352,-13588076.5914917,-24964323.043823242,-4628142.356872559,-16663423.538208008,-13416626.930236816,-3287731.409072876,-13657264.709472656,-19299489.974975586,-14408875.465393066,-13897520.065307617,-23120447.158813477,159417.46532917023,2726287.841796875,-15910829.544067383,-10974684.715270996,-17629961.013793945,-18185916.900634766,-19215698.2421875,-14025648.11706543,-21568332.67211914,-15420948.028564453,-15597293.853759766,-19630475.997924805,-10625863.075256348,-22381986.618041992,-31227560.04333496,-31188899.993896484,-31271734.2376709,-34104030.60913086,-27213314.056396484,-32773464.20288086,-41036022.1862793,-32082786.560058594,-31324331.283569336,-40330116.271972656,-39650085.44921875,-49944976.806640625
