time,Fp1,Fpz,Fp2,AF3,AF4,F7,F5,F3,F1,Fz,F2,F4,F6,F8,FT7,FC5,FC3,FC1,FCz,FC2,FC4,FC6,FT8,T7,C5,C3,C1,Cz,C2,C4,C6,T8,TP7,CP5,CP3,CP1,CPz,CP2,CP4,CP6,TP8,P7,P5,P3,P1,Pz,P2,P4,P6,P8,PO7,PO5,PO3,POz,PO4,PO6,PO8,CB1,O1,Oz,O2,CB2
0.0,-1227018.2371139526,-1008337.6169204712,203732.9524755478,-1427754.282951355,153553.0537366867,-5108694.076538086,-3503268.4803009033,-3563021.659851074,-1509965.0621414185,872253.2391548157,321016.8480873108,-778286.5166664124,156811.29693984985,152033.13529491425,-4101003.1700134277,-3610177.755355835,-2575125.217437744,417215.34729003906,-115425.60160160065,-193379.65548038483,-395521.8195915222,-2593626.9760131836,129026.6364812851,-2290323.495864868,-4890660.285949707,-3194934.606552124,-1313453.3166885376,715914.9646759033,516999.0062713623,-531797.8858947754,-606059.9684715271,115681.58864974976,-265178.05457115173,-2458888.7691497803,-1756330.7285308838,-1315512.2995376587,38567.14442372322,-314922.2135543823,-348280.2212238312,-29177.643358707428,34755.636006593704,-1940263.271331787,-2425158.739089966,-1898446.0830688477,-1259125.1134872437,-414982.46788978577,-320810.0199699402,-58487.87724971771,-15464.874915778637,-61482.37735033035,-2440692.663192749,-2427114.248275757,-2465248.1079101562,-441876.20282173157,-72881.62410259247,-56995.84260582924,-88788.35290670395,-1868294.4774627686,-1965555.6678771973,-489813.1787776947,-50357.744097709656,-112921.96810245514
0.005,9882473.945617676,9974057.1975708,6142588.138580322,8513299.942016602,6604317.188262939,9363557.815551758,4297292.232513428,3856443.6435699463,3440920.352935791,5854793.071746826,6270130.634307861,-1119960.069656372,1953751.0871887207,2361274.9576568604,21105010.986328125,9666470.527648926,5619044.303894043,10281509.399414062,2268093.5859680176,1310884.714126587,-2404060.8406066895,-19740800.857543945,2282114.7441864014,41584136.962890625,5452888.011932373,4820382.118225098,2530424.5948791504,2280363.5597229004,-3817545.6523895264,-12284620.28503418,-18828523.635864258,2495218.7538146973,20996524.810791016,10260870.933532715,4938359.73739624,808534.7414016724,638546.2284088135,-1324476.718902588,-4811677.932739258,897502.1839141846,2082209.3486785889,8662446.022033691,2362446.069717407,3765191.3166046143,830177.0091056824,-1778389.6923065186,-2352327.823638916,462681.1742782593,1965356.3499450684,617216.169834137,2324483.871459961,2867885.5895996094,1934426.6653060913,-926412.4631881714,989239.2158508301,1496359.8251342773,317131.5789222717,-2466432.0945739746,-11169670.104980469,-1892485.0225448608,1088226.6759872437,388923.16818237305
0.01,16073316.57409668,14750517.845153809,7477636.814117432,13050079.345703125,8328151.702880859,15344178.199768066,7628413.677215576,7075769.424438477,6287736.415863037,7366814.613342285,7558735.8474731445,-1083513.2598876953,2867685.556411743,3573937.177658081,31433025.360107422,15121819.496154785,8796418.190002441,14511173.248291016,3706893.2056427,2345147.8481292725,-2188462.018966675,-26467802.047729492,3408347.1298217773,58195312.5,8851406.09741211,7345577.239990234,3590244.770050049,2641042.2325134277,-4102288.246154785,-15747086.524963379,-25304594.039916992,3842107.2959899902,27420612.335205078,14176383.972167969,6426635.265350342,803167.0451164246,1118112.0872497559,-40987.57728934288,-4812987.804412842,2085274.6963500977,3403582.811355591,11363585.472106934,2622321.844100952,4206486.701965332,-123351.30572319031,-2012401.1039733887,-1526205.5397033691,1457785.6063842773,3303231.0009002686,1551451.6830444336,2600413.3224487305,3472082.1380615234,2190745.1152801514,-941281.5570831299,2055960.8936309814,2769006.9675445557,1045209.2885971069,-2818885.087966919,-15585865.020751953,-2365764.379501343,2154819.7269439697,1189663.290977478
0.015,14727462.768554688,11373708.724975586,3167599.2012023926,10484465.599060059,4589519.023895264,12957030.296325684,6106712.341308594,5688314.437866211,5319204.330444336,4072723.388671875,3640495.777130127,-1767800.5695343018,2173989.772796631,3055218.6965942383,26993299.48425293,13013820.64819336,6933172.225952148,12196488.380432129,2940715.789794922,1667309.5226287842,-1215860.8436584473,-24181190.490722656,2855387.6876831055,49195186.614990234,6146968.841552734,4886602.401733398,1981715.6791687012,1565156.2213897705,-1441876.2922286987,-12434341.430664062,-21956497.192382812,3544474.8401641846,19496044.158935547,10192928.314208984,3524780.511856079,-617049.6344566345,1357669.1150665283,3099999.6662139893,-1497420.5493927002,2804466.0091400146,3507094.144821167,6504372.119903564,-894379.3177604675,831120.3122138977,-2330005.645751953,-992973.268032074,1705517.292022705,2203463.077545166,3444213.628768921,2163559.675216675,-905271.7685699463,9527.317248284817,-1134610.652923584,-316776.3948440552,2532265.6631469727,3217350.482940674,1550593.0185317993,-3986325.0255584717,-15982599.258422852,-1679151.177406311,2619471.549987793,1692819.4761276245
0.02,8159245.491027832,4161263.4658813477,-3017619.848251343,4292903.423309326,-631780.1475524902,9067453.384399414,3294737.1006011963,3030125.141143799,1255710.3633880615,-1796496.1528778076,-1425623.4169006348,-3449366.331100464,601131.4392089844,1546169.9962615967,19689788.818359375,9863736.152648926,4254027.843475342,7271524.429321289,199961.51328086853,-841236.5913391113,-1809766.6501998901,-21234375.0,1434617.042541504,37478141.78466797,4135396.4805603027,2787727.117538452,277458.22072029114,-342622.3695278168,24635.978043079376,-9926861.763000488,-19075576.782226562,2377060.890197754,9414336.204528809,6569724.559783936,1376558.3038330078,-1063301.5632629395,1306213.617324829,5676313.400268555,747819.721698761,2558431.86378479,2878406.524658203,1415796.160697937,-3278590.440750122,-637394.7858810425,-1816278.6960601807,379006.7136287689,4444041.2521362305,2085960.1497650146,2798133.373260498,2083744.5259094238,-3332390.069961548,-2546784.1625213623,-3544713.258743286,669224.0834236145,2231013.536453247,2903784.75189209,1452775.478363037,-6749210.357666016,-16245786.666870117,-440592.1697616577,2413837.432861328,1516457.438468933
0.025,3103091.239929199,626100.8977890015,-5460134.983062744,726955.1157951355,-2161193.1324005127,8849320.411682129,3050478.219985962,2799158.0963134766,-1871338.6058807373,-5545831.203460693,-2715738.296508789,-3577443.3612823486,487860.67962646484,1344588.041305542,18352890.014648438,10325841.903686523,4355220.317840576,4587676.525115967,-1682687.4017715454,-2643540.382385254,-2709426.4030456543,-20303298.950195312,1361635.9233856201,37486408.23364258,7145957.469940186,4756201.74407959,457519.88887786865,-2297231.1973571777,-968370.0203895569,-11098060.607910156,-20425235.748291016,2379431.72454834,5693587.303161621,8485964.77508545,2815279.245376587,195727.6314496994,1073480.725288391,6361002.9220581055,582412.600517273,2481355.1902770996,3020492.5537109375,1876627.802848816,-1349996.9244003296,2205677.7477264404,1545772.5524902344,1209962.7256393433,5034561.634063721,2182238.5787963867,2926528.6922454834,2281742.3343658447,-1441632.5092315674,-731364.3097877502,-1804021.716117859,1572671.1750030518,2289937.4961853027,3052017.2119140625,1691091.1798477173,-9380268.096923828,-17170827.865600586,554465.5323028564,2664682.388305664,1691403.6273956299
0.03,4891507.148742676,4364183.9027404785,-2243460.8936309814,3563521.146774292,1377846.7178344727,12042245.864868164,6333675.861358643,5939206.600189209,-165663.77878189087,-4089347.8393554688,816718.2207107544,-90941.63030385971,2930908.203125,3571769.4759368896,22028907.775878906,13496657.371520996,7213734.149932861,6154609.680175781,-108000.12201070786,-1185935.616493225,-1093047.6188659668,-17673223.4954834,3642778.158187866,43947563.17138672,12897434.23461914,9141397.476196289,2037829.1606903076,-3576900.7205963135,-1816931.6053390503,-12127628.326416016,-20941389.083862305,4458774.089813232,6824441.432952881,13243301.391601562,5740731.716156006,1581312.2987747192,899306.4165115356,6076408.863067627,426065.3257369995,3814286.231994629,4675527.572631836,6709356.307983398,2999596.118927002,6035806.655883789,3841653.58543396,1466766.119003296,4522663.593292236,3719863.176345825,4642721.176147461,3679341.3162231445,2988732.8147888184,3779895.067214966,2621142.3873901367,2211009.5024108887,3677488.8038635254,4494784.832000732,3153090.9538269043,-8941214.561462402,-16094301.223754883,1059357.6431274414,4193272.113800049,3182941.198348999
0.035,11559828.758239746,11086457.252502441,2676871.5381622314,10349818.229675293,6190833.568572998,15998998.641967773,10719492.91229248,10074436.18774414,5289659.023284912,631319.9400901794,5390636.444091797,4180359.363555908,5492440.700531006,5985057.830810547,26071897.506713867,16253030.776977539,10314713.478088379,10253939.628601074,3477985.143661499,2179897.0699310303,1761102.557182312,-13214893.341064453,6055615.9019470215,47070713.04321289,16497848.510742188,11695698.738098145,3248703.0029296875,-3627401.828765869,-794655.2038192749,-10599247.932434082,-17844022.750854492,6579515.45715332,8399795.532226562,15671823.501586914,6985517.0249938965,1763768.9113616943,948853.1947135925,5848134.0408325195,1361106.9917678833,5396710.8726501465,6288368.225097656,10848190.307617188,5625944.6144104,7017134.666442871,2782900.094985962,1553963.4227752686,4216736.793518066,5450455.665588379,6299022.197723389,5066936.492919922,5815777.778625488,6705251.216888428,5659087.657928467,2566289.6633148193,5167508.602142334,5896159.648895264,4577657.699584961,-5202318.6683654785,-12375096.321105957,1242828.4883499146,5656779.766082764,4690661.430358887
0.04,15363325.119018555,13120048.522949219,3929733.2763671875,14243164.0625,7521860.122680664,18233451.84326172,11978798.866271973,11085860.252380371,8631721.496582031,3434343.8148498535,6575130.462646484,3941888.0939483643,4861490.726470947,5457441.806793213,28080074.310302734,16618858.337402344,10936552.047729492,13166969.299316406,4727722.16796875,3224122.2858428955,1174988.7466430664,-12920287.132263184,5543427.467346191,45814998.626708984,15622873.306274414,10157498.359680176,3065388.2026672363,-2468257.6656341553,375741.77980422974,-9643923.75946045,-15712784.767150879,5983860.015869141,9598799.705505371,14518975.257873535,6125431.537628174,1174813.6281967163,1136588.9310836792,5005345.821380615,1128379.1065216064,4763853.549957275,5619243.144989014,11418661.117553711,4776112.079620361,5379356.384277344,409862.13088035583,1376299.1428375244,3496259.4509124756,4791046.619415283,5527348.041534424,4268829.345703125,5142127.990722656,5967340.469360352,5103331.565856934,2377223.9685058594,4551821.708679199,5112751.9607543945,3739350.3189086914,-1690706.0146331787,-9670688.62915039,1027305.7222366333,4875814.914703369,3899562.120437622
0.045,11387185.096740723,8125179.290771484,923556.923866272,10827503.204345703,4986310.005187988,16696037.292480469,7543517.589569092,6587678.4324646,5565635.204315186,1586660.8619689941,4155095.100402832,-1180216.670036316,1752615.0941848755,2614063.262939453,27179397.583007812,14014047.622680664,7894093.990325928,12193238.258361816,1937149.0478515625,347940.20652770996,-3694861.888885498,-18890024.185180664,2683425.188064575,43830669.40307617,11336870.193481445,5767796.993255615,1705531.358718872,-884240.448474884,-137920.70746421814,-11959362.983703613,-18041540.145874023,3295180.559158325,10698474.884033203,12082400.32196045,4598549.365997314,615694.1056251526,1220722.3176956177,2859884.738922119,-1453474.0447998047,2170509.099960327,3153058.0520629883,9514504.432678223,2146683.692932129,3713441.1334991455,-624945.1041221619,572572.0524787903,1494857.1920394897,2001004.2190551758,2901893.377304077,1719402.6708602905,2527097.463607788,3175895.4524993896,2323917.6273345947,1435460.8058929443,2181844.711303711,2628822.5650787354,1107396.2450027466,-1642594.337463379,-11084390.640258789,222231.1645746231,2318263.292312622,1261690.0205612183
0.05,3181171.417236328,1360364.9139404297,-2333139.419555664,3032467.6036834717,2354475.736618042,11344781.875610352,-234390.2885913849,-972301.8407821655,-1473382.9498291016,-2415746.9272613525,1722418.9043045044,-5428461.074829102,433712.81027793884,1460316.53881073,22950628.28063965,9287890.434265137,2700729.3701171875,8050205.230712891,-1711232.06615448,-3251702.7854919434,-7571942.8062438965,-24206502.91442871,1411905.6463241577,41626388.54980469,6028043.270111084,1529218.6737060547,-176477.8047800064,184022.9481458664,-1071629.524230957,-14569416.999816895,-20743192.672729492,2217091.0835266113,9536093.711853027,10177668.571472168,3141934.1564178467,-108525.55185556412,1096216.5594100952,1025757.0743560791,-3455550.9090423584,1154024.600982666,2142442.9416656494,7532436.847686768,342481.7621707916,3136375.904083252,-549093.6636924744,-245317.280292511,-306564.3012523651,758396.0294723511,1915110.9457015991,738472.8789329529,590227.1270751953,1189017.5342559814,187355.3991317749,500550.5681037903,1271784.782409668,1714377.0456314087,137643.9779996872,-3939520.835876465,-14390617.370605469,-524099.2307662964,1288612.723350525,283793.71762275696
0.055,-1738760.8289718628,-1428996.4437484741,-3512201.5476226807,-1912010.5504989624,1857201.9338607788,6031139.373779297,-5200817.108154297,-5600904.941558838,-6030046.9398498535,-4714639.663696289,1327268.123626709,-4916772.842407227,2476005.792617798,3507307.767868042,17736541.748046875,5366128.444671631,-937481.8205833435,4231365.203857422,-2823594.093322754,-4312120.9144592285,-6574582.576751709,-22783239.364624023,3361420.154571533,38711559.2956543,1922548.4132766724,-93518.9351439476,-1964943.766593933,314368.6354160309,-553651.3328552246,-13581038.475036621,-19035606.384277344,4215717.792510986,4410361.289978027,9074192.04711914,1920157.1941375732,-1153965.711593628,906269.7291374207,1866974.2345809937,-2034086.7042541504,3606059.0744018555,4175097.942352295,6825071.334838867,614137.8283500671,3250379.800796509,-511788.66624832153,485896.64697647095,489079.8628330231,3093497.9915618896,4222884.654998779,2966437.1013641357,720910.0127220154,1503141.99924469,388057.9471588135,1125095.6058502197,3466938.7340545654,3965129.613876343,2554234.743118286,-4661359.786987305,-14594414.710998535,215336.51649951935,3453811.1686706543,2722468.852996826
0.06,-976793.110370636,-976475.4176139832,-4965674.40032959,-678471.9824790955,1164007.9021453857,4964716.43447876,-3853541.851043701,-4080168.7240600586,-5084286.689758301,-5151675.701141357,764102.9953956604,-3133945.2266693115,4224259.376525879,5326378.345489502,15723634.719848633,4978155.136108398,-613452.6133537292,3307035.9230041504,-2554960.9661102295,-4116631.507873535,-4185206.413269043,-18976219.177246094,5304390.907287598,37168521.881103516,-264894.0086364746,1136782.5269699097,-3122788.667678833,-368690.9079551697,301118.6122894287,-10817857.74230957,-15816176.414489746,6175779.342651367,-2075140.4762268066,9023376.46484375,1755066.2755966187,-1555805.9215545654,836082.935333252,4915545.94039917,830527.9016494751,6717597.007751465,6752173.900604248,7749417.304992676,2692336.7977142334,4320958.614349365,321668.98250579834,3369679.6894073486,3498768.3296203613,6225989.34173584,7116423.606872559,5775851.726531982,2776025.0568389893,3799588.203430176,2684556.007385254,3908258.6765289307,6280462.265014648,6799417.495727539,5607062.816619873,-2162699.9378204346,-10305273.056030273,2982315.5403137207,6304915.904998779,5819605.827331543
0.065,696488.9168739319,-1866599.0829467773,-8571467.399597168,2602613.687515259,-2009422.0638275146,6573175.430297852,135206.6844701767,-171021.02935314178,-1921888.9474868774,-6366995.334625244,-2082274.9137878418,-4799857.616424561,2947206.497192383,4306740.283966064,17130968.09387207,6743094.444274902,1686847.5675582886,4159219.741821289,-4074435.7109069824,-5762795.925140381,-5511052.131652832,-20203203.201293945,4572836.875915527,38081657.40966797,-2245533.7047576904,3035811.424255371,-3471026.659011841,-1404355.0491333008,-637859.4636917114,-10709355.354309082,-16617088.317871094,5602543.830871582,-5788406.848907471,10308279.037475586,3154134.98878479,-565685.3914260864,890524.7449874878,7202331.54296875,1448224.0676879883,7378747.940063477,7344022.750854492,10085147.857666016,5476138.114929199,6941509.72366333,3024583.101272583,6802629.470825195,5771070.48034668,6965804.100036621,7817929.267883301,6452512.741088867,5662407.875061035,6755637.645721436,5654636.383056641,7353325.843811035,7086338.520050049,7543919.086456299,6365950.584411621,1250061.3927841187,-5171085.834503174,6319179.534912109,7175628.185272217,6604845.04699707
0.07,-1561748.98147583,-4642899.036407471,-10498026.847839355,2003426.0749816895,-4459140.300750732,4507781.505584717,185461.90857887268,-281212.6576900482,-1231831.1929702759,-8705237.38861084,-4232538.70010376,-7186980.724334717,2417383.4323883057,3938871.383666992,16684015.274047852,6025859.355926514,1694485.7835769653,3798302.8888702393,-6670492.172241211,-8339488.0294799805,-8300010.681152344,-23654953.002929688,4348854.541778564,37744571.685791016,-6422818.660736084,3064260.721206665,-3408954.381942749,-2008935.4515075684,-2099263.1912231445,-12346060.752868652,-19340772.62878418,5583688.735961914,-6686358.451843262,11839488.02947998,4678968.906402588,734641.6711807251,951655.8051109314,7437077.99911499,711350.0833511353,7496953.964233398,7899581.432342529,12515036.582946777,7403202.533721924,9823812.484741211,5777214.050292969,8409559.24987793,5991581.916809082,7094926.834106445,8215684.89074707,6896872.520446777,7712691.783905029,8681741.714477539,7556239.128112793,9138859.748840332,7665321.826934814,8047606.468200684,6694938.182830811,2685124.8741149902,-3172871.3512420654,8008979.797363281,7791244.983673096,6860430.717468262
0.075,-6637590.408325195,-4817224.025726318,-5473601.341247559,-2858822.5841522217,-814752.5787353516,-3689644.0982818604,-4868842.601776123,-5398126.602172852,-3515612.3638153076,-9316340.446472168,-785599.8277664185,-3283845.901489258,7890393.7339782715,9102221.488952637,10792242.050170898,1038507.4615478516,-1657751.202583313,1378384.4709396362,-6205102.443695068,-7647558.212280273,-5540080.547332764,-19394069.67163086,9369005.20324707,32503822.326660156,-12201023.10180664,1230546.5936660767,-3364467.144012451,-1504210.7105255127,-667683.482170105,-10403880.11932373,-16618881.225585938,10536643.028259277,-8443094.253540039,11852245.330810547,4377536.773681641,759868.860244751,970538.7949943542,7442665.100097656,2805481.195449829,11034431.457519531,11858412.742614746,13014871.597290039,7312103.748321533,10481746.673583984,5722742.557525635,7538403.034210205,5973495.4833984375,10520388.60321045,11858199.119567871,10628122.329711914,7641755.5809021,8447154.998779297,7336234.569549561,8478725.43334961,11351596.83227539,11753433.227539062,10297431.945800781,1978420.615196228,-4427605.152130127,7330607.4142456055,11432613.372802734,10227907.180786133
0.08,-10347723.007202148,-473593.5628414154,4480854.9880981445,-7382484.912872314,7805568.218231201,-12803182.601928711,-9877900.123596191,-10386442.184448242,-5931650.161743164,-7053586.959838867,7084937.09564209,6805660.247802734,17042932.510375977,17560165.405273438,2900521.993637085,-4567130.565643311,-5005350.589752197,-1038413.7630462646,-1825350.8806228638,-2990447.998046875,3163408.2794189453,-6519386.291503906,17623353.958129883,24660608.291625977,-16084445.95336914,-28966.92045032978,-3248539.924621582,-172794.59536075592,3413785.457611084,-4282663.822174072,-8108892.440795898,18302057.26623535,-12655528.06854248,10259426.11694336,2688477.9930114746,-149253.60679626465,979621.5295791626,8483514.785766602,7712024.688720703,16758739.471435547,17648351.669311523,10948595.04699707,5691113.471984863,8640922.546386719,3499358.4156036377,5725067.138671875,6986456.871032715,16114458.084106445,17335390.090942383,16193893.432617188,5914083.003997803,6644254.684448242,5618468.761444092,6735737.8005981445,16693584.442138672,17197145.462036133,15857288.360595703,970427.5131225586,-6189514.16015625,5604936.122894287,16661371.231079102,15486246.109008789
0.085,-11955325.12664795,3267269.8497772217,10369319.915771484,-8816539.764404297,13065780.639648438,-17072938.919067383,-11060791.015625,-11586808.204650879,-7102743.148803711,-5177626.132965088,11639010.429382324,13932686.805725098,21508174.896240234,21520236.96899414,-1739269.2565917969,-6930154.323577881,-5513379.096984863,-1723691.3442611694,1629894.2565917969,627465.6653404236,9234260.559082031,3136424.0646362305,21581556.32019043,19547676.08642578,-16760717.391967773,580026.8650054932,-2993953.9432525635,820841.372013092,5554936.408996582,-376901.2987613678,-2591864.1090393066,21632070.541381836,-16568876.266479492,8708397.86529541,1927659.511566162,-329725.2058982849,975001.8119812012,8827939.987182617,10015129.089355469,18869813.919067383,19667272.567749023,8109505.653381348,4408940.79208374,6928407.669067383,2700493.335723877,4826673.0308532715,7318903.923034668,18239738.46435547,19198207.85522461,18118310.928344727,4514010.906219482,5271829.128265381,4303976.058959961,5769830.226898193,18395954.132080078,18954671.85974121,17817111.96899414,803615.2124404907,-6524407.386779785,4617946.624755859,18301311.492919922,17311256.408691406
0.09,-14399111.7477417,457136.3031864166,6817011.35635376,-9151237.487792969,9518115.043640137,-17329351.4251709,-10629923.820495605,-11264569.282531738,-8314957.618713379,-6947716.71295166,8038146.97265625,11709575.653076172,18108741.760253906,18241638.18359375,-3379351.854324341,-6925753.593444824,-4508812.90435791,-1455908.2984924316,72312.22838163376,-893585.9799385071,6579438.209533691,990481.6746711731,18441940.307617188,18301399.23095703,-17502437.591552734,1269959.9266052246,-3186895.8473205566,857664.0486717224,3342765.3312683105,-2837507.963180542,-5438941.955566406,18204011.917114258,-17539243.698120117,7951300.144195557,2726920.3662872314,375537.1868610382,919263.5416984558,6911587.715148926,6951351.642608643,15602623.93951416,16420526.504516602,6549581.527709961,4422478.199005127,7146039.4859313965,4401802.062988281,5230759.620666504,5457065.105438232,15112052.917480469,16026796.340942383,14964113.235473633,4540525.913238525,5371072.769165039,4385456.085205078,6089387.893676758,15142490.38696289,15675047.874450684,14621321.678161621,920372.1284866333,-6063457.96585083,4906226.15814209,15157407.760620117,14251713.752746582
0.095,-18576795.57800293,-7306494.71282959,-1421569.585800171,-10541309.356689453,1906237.4830245972,-17615497.589111328,-11812661.170959473,-12583707.809448242,-10139699.935913086,-10589500.427246094,917327.8212547302,5065104.961395264,13100270.27130127,13761394.500732422,-5424427.509307861,-7313650.608062744,-4502414.703369141,-1659701.2281417847,-3918802.7381896973,-4905920.028686523,98076.65646076202,-6508211.135864258,14003742.218017578,17622533.798217773,-21183536.529541016,59247.54962325096,-4295369.1482543945,684240.8180236816,331146.0018157959,-7100700.855255127,-10680036.544799805,13974138.259887695,-17227294.921875,6689874.649047852,3015385.150909424,280267.8942680359,841351.8667221069,4681913.85269165,3128284.692764282,12244520.18737793,13089765.548706055,5646677.9708862305,4174059.8678588867,7483308.3152771,5250930.309295654,5772934.436798096,3372114.1815185547,11794561.386108398,12915186.882019043,11815816.879272461,4435385.704040527,5292412.281036377,4329108.238220215,6559146.404266357,11962213.516235352,12514106.750488281,11399460.792541504,-119491.50264263153,-6918908.596038818,5430082.321166992,12198123.931884766,11236271.858215332
0.1,-21273731.231689453,-12596330.642700195,-6046813.96484375,-11340597.152709961,-1005122.9000091553,-18525459.28955078,-13297655.10559082,-14127075.1953125,-10920681.953430176,-11514964.10369873,-1594115.972518921,2942533.254623413,12813340.187072754,13785058.02154541,-7691984.6534729,-7933436.393737793,-5176877.021789551,-2032678.6041259766,-4873066.425323486,-5908569.812774658,-1489048.6001968384,-8104885.101318359,13911486.625671387,15361396.789550781,-25635004.0435791,-2176509.141921997,-5636568.546295166,1204965.8298492432,885958.1351280212,-6650285.243988037,-10156593.322753906,14231739.99786377,-19361570.358276367,3557057.8575134277,1114054.0838241577,-1426754.2362213135,802965.2833938599,4975128.173828125,3840244.0547943115,13125430.1071167,13772200.584411621,2595520.496368408,1077034.7118377686,4838593.482971191,2270779.609680176,4903637.886047363,3809372.663497925,12492877.006530762,13747071.266174316,12602351.188659668,1445967.197418213,2213278.5320281982,1403421.8788146973,5553818.225860596,12699483.871459961,13361055.374145508,12182662.963867188,-3732988.3575439453,-10749864.57824707,4548449.0394592285,13022985.458374023,12001749.038696289
0.105,-19890239.715576172,-11414132.118225098,-4982001.781463623,-8947863.578796387,2749088.0489349365,-18445552.825927734,-12308191.299438477,-13069724.082946777,-9722911.834716797,-8432319.641113281,2155412.435531616,6363277.912139893,15137835.502624512,15894985.19897461,-7468277.931213379,-7344951.629638672,-4991314.888000488,-1429677.6056289673,-2194445.848464966,-3296188.5929107666,2486043.930053711,-3796061.9926452637,15856005.668640137,12474633.21685791,-27412500.381469727,-3553371.4294433594,-6179685.592651367,2077871.561050415,4024744.987487793,-2484670.639038086,-5301864.147186279,16220691.680908203,-24359882.354736328,-919977.3073196411,-2002394.199371338,-3484960.0791931152,763597.2499847412,6898858.547210693,7222108.364105225,15142912.864685059,15475464.820861816,-3764741.897583008,-5358032.703399658,-995318.7704086304,-2939987.897872925,2023527.8606414795,5733767.032623291,14288558.006286621,15367163.65814209,14280386.924743652,-5069390.296936035,-4446279.525756836,-5105995.178222656,2475600.004196167,14323160.171508789,15001402.854919434,13886910.438537598,-10317483.901977539,-17366765.97595215,1508160.5911254883,14451239.585876465,13431400.299072266
0.11,-16047752.380371094,-6724444.86618042,-2004706.1443328857,-4212539.196014404,7949256.896972656,-18255420.684814453,-10172897.338867188,-10807058.334350586,-8217666.6259765625,-4180657.386779785,7253306.865692139,9260581.970214844,14475141.525268555,14803655.624389648,-5364542.484283447,-6789182.186126709,-4645577.430725098,52794.4341301918,-132388.8599872589,-1272290.3490066528,5422451.019287109,-2430212.2592926025,14575618.743896484,10424476.623535156,-27737358.09326172,-4447288.990020752,-6092784.881591797,2427394.6285247803,5572505.950927734,-815461.8144035339,-3751937.1509552,14667477.60772705,-28142576.217651367,-4778900.146484375,-4361869.335174561,-4640039.920806885,621614.4561767578,6906800.270080566,7474046.70715332,13189536.094665527,13481881.141662598,-10502529.14428711,-12338288.307189941,-6822930.335998535,-6595837.593078613,-1880131.8407058716,5596299.171447754,12325064.659118652,13080952.644348145,12188768.38684082,-12275629.043579102,-11671301.84173584,-12385890.96069336,-1546695.8284378052,12213213.920593262,12679003.715515137,11748703.956604004,-17967649.459838867,-24376558.303833008,-2645161.8671417236,12033157.348632812,11011112.213134766
0.115,-12615184.783935547,-2657079.6966552734,622340.4407501221,-229487.86616325378,10804110.527038574,-19292945.861816406,-10167778.968811035,-10726724.624633789,-7874301.910400391,-1124618.411064148,10208024.978637695,8882817.268371582,11224946.022033691,11391000.747680664,-4167263.5078430176,-8022606.84967041,-5564512.252807617,1433461.4276885986,-684569.5972442627,-1787955.641746521,4124595.1652526855,-6461835.3843688965,10912342.071533203,10213299.751281738,-30005317.68798828,-6167108.535766602,-6256401.538848877,2469389.6770477295,4643049.716949463,-3308928.4896850586,-7207587.242126465,10783187.866210938,-26573781.967163086,-6173726.558685303,-5318303.108215332,-5213608.741760254,422638.08846473694,4080415.2488708496,3855013.370513916,8626906.394958496,9313411.712646484,-12882878.303527832,-15928503.99017334,-9391691.207885742,-7491237.640380859,-4881022.930145264,2657098.7701416016,7920516.014099121,8589560.508728027,7845923.42376709,-16040117.263793945,-15254067.420959473,-16192457.19909668,-4473643.3029174805,7875451.564788818,8102128.028869629,7341601.848602295,-22738843.91784668,-28370798.110961914,-5736923.694610596,7587551.116943359,6536074.161529541
0.12,-9876357.078552246,345747.32184410095,3913848.1616973877,1759491.8012619019,12496969.223022461,-18750331.87866211,-11516015.05279541,-12043845.176696777,-7477838.99307251,881924.6888160706,11976708.41217041,8718262.672424316,10553542.137145996,10893184.661865234,-2807394.26612854,-8790694.236755371,-6304366.111755371,2591603.994369507,-1061264.6341323853,-2066030.740737915,2343843.2216644287,-8629172.325134277,10222249.984741211,13450421.333312988,-32973621.368408203,-7498721.122741699,-6433544.158935547,3146998.643875122,4122884.2735290527,-5378374.099731445,-9770408.630371094,10135640.144348145,-19963075.637817383,-4372305.870056152,-5210472.106933594,-5739725.589752197,391737.6697063446,1319608.449935913,1264559.5073699951,7148565.292358398,8350011.825561523,-9094796.180725098,-14352619.171142578,-8183699.607849121,-7264208.793640137,-5626048.0880737305,-44812.20990419388,6492394.924163818,7476350.3074646,6600749.0158081055,-14436627.388000488,-13448862.075805664,-14536925.315856934,-5019465.446472168,6647721.290588379,6917412.281036377,6170742.988586426,-21691856.384277344,-27314975.73852539,-6297471.046447754,6523965.358734131,5494391.441345215
0.125,-6924324.512481689,3181285.858154297,7535117.626190186,2656560.6594085693,14194602.012634277,-13147994.995117188,-10534827.23236084,-10925035.47668457,-5765305.995941162,1696819.4246292114,13381773.948669434,11021459.579467773,13588647.842407227,14100392.34161377,2259623.2891082764,-5530404.567718506,-4320888.996124268,3969180.8223724365,770499.5274543762,-122010.11925935745,3433120.2507019043,-4362185.478210449,13497294.425964355,20706289.291381836,-32090362.548828125,-5916337.966918945,-5487359.523773193,4250988.483428955,5313958.644866943,-4046591.281890869,-7891533.851623535,13514086.723327637,-12602054.595947266,-281048.2978820801,-4076926.7082214355,-5588381.290435791,669639.1105651855,966301.8584251404,2312685.489654541,9897797.584533691,11294335.36529541,-2087055.2062988281,-9225678.443908691,-4942447.662353516,-7005632.8773498535,-4193081.3789367676,-244293.4513092041,9069938.659667969,10523534.774780273,9293916.702270508,-9109595.29876709,-8127963.066101074,-9177331.924438477,-3445184.2308044434,9406352.996826172,9954161.643981934,9067435.264587402,-15870963.096618652,-22095237.731933594,-4592559.337615967,9489221.572875977,8564480.781555176
0.13,-4566877.841949463,5013038.158416748,8953508.377075195,2823891.1628723145,14228309.631347656,-5499605.178833008,-7227590.084075928,-7316424.369812012,-4616335.868835449,-218096.73309326172,12914889.335632324,12832165.718078613,15981685.638427734,16415878.295898438,9455516.815185547,-13567.929156124592,-830962.598323822,4917997.83706665,2212785.243988037,1411137.1040344238,5271817.207336426,1142999.8874664307,16080667.495727539,28547147.750854492,-27513275.146484375,-2037122.4880218506,-3610706.329345703,4292230.606079102,5985933.303833008,-2129477.024078369,-5229394.912719727,16014741.897583008,-8429819.107055664,3794934.2727661133,-1993036.150932312,-4190367.6986694336,1094210.3862762451,2009559.6313476562,3930038.6905670166,12314052.58178711,13510044.09790039,3513368.3681488037,-3744955.539703369,-1433692.3360824585,-5945825.576782227,-1546649.8136520386,888363.9574050903,11292484.283447266,12972254.753112793,11526225.090026855,-3419610.5003356934,-2612096.071243286,-3572835.683822632,-839574.3370056152,11736245.155334473,12441916.465759277,11426475.524902344,-9583664.894104004,-15674778.938293457,-1853231.1916351318,11871604.919433594,11047058.10546875
0.135,-3923921.3466644287,5217541.217803955,7993110.179901123,1930027.1272659302,12125753.402709961,-2696740.6272888184,-5678487.777709961,-5509558.200836182,-6563070.297241211,-4589911.460876465,10576957.702636719,11608615.87524414,15265506.744384766,15491737.365722656,12449192.04711914,2042035.8180999756,109573.41641187668,4103075.5043029785,251911.13352775574,-503269.5531845093,4790862.560272217,1591948.2707977295,15304796.21887207,31869266.510009766,-24895936.965942383,595202.1479606628,-2615828.7525177,2639448.404312134,4517873.764038086,-2912280.321121216,-5934655.666351318,15076711.654663086,-7720742.702484131,6006652.355194092,245594.45679187775,-2445933.5803985596,1339442.7299499512,2575203.1803131104,3094006.5383911133,11689999.5803833,12629335.403442383,5741026.878356934,76024.05548095703,1804972.529411316,-3422262.191772461,1324045.4196929932,1459220.5286026,10696857.452392578,12227261.543273926,10922168.731689453,454284.3699455261,1181717.7534103394,219934.31448936462,1842826.1280059814,11142086.029052734,11740835.189819336,10746041.297912598,-6556019.306182861,-10858129.501342773,900079.4291496277,11242518.424987793,10451246.26159668
0.14,-4152405.261993408,4983137.607574463,7219936.370849609,654613.0776405334,10512816.429138184,-6003523.349761963,-7592742.919921875,-7458183.288574219,-10390563.011169434,-8103130.340576172,9112323.760986328,9424857.139587402,13942405.700683594,14092947.006225586,9295453.071594238,-835226.4165878296,-2394704.580307007,1653238.1772994995,-3596929.7885894775,-4373983.860015869,2892053.8425445557,-1694588.541984558,13807816.505432129,29731290.817260742,-27112581.253051758,441722.8400707245,-3394474.0295410156,638474.7624397278,2703838.109970093,-5019554.615020752,-8509525.299072266,13627072.33428955,-7986728.668212891,6587477.684020996,1790689.468383789,-1652864.933013916,1239499.4497299194,2757273.9124298096,1502619.0280914307,10537948.608398438,11488606.452941895,5860927.581787109,2062791.8243408203,4661538.124084473,-475238.5914325714,3456638.813018799,1642722.1298217773,9806350.708007812,11040133.476257324,10020209.312438965,2283305.4065704346,3145871.40083313,2144033.193588257,3809742.9275512695,10095685.958862305,10572302.81829834,9669178.96270752,-7330136.299133301,-9033659.934997559,2899177.5512695312,10226811.408996582,9461485.862731934
0.145,-4470021.2478637695,4392148.017883301,6609119.892120361,-180858.43324661255,10316091.537475586,-10053687.09564209,-10086873.054504395,-10217140.197753906,-12641582.489013672,-8688059.80682373,9129542.350769043,8593037.605285645,14173333.168029785,14464012.145996094,5144474.029541016,-4221508.979797363,-4790614.604949951,-745766.1032676697,-5795812.606811523,-6657217.979431152,1810828.447341919,-3788818.597793579,14106551.170349121,26207014.083862305,-30531381.607055664,-485553.503036499,-4649762.153625488,-138372.16794490814,2808568.4776306152,-5320875.16784668,-9292695.999145508,14209129.333496094,-7557067.394256592,6661897.1824646,2422734.9758148193,-1858536.0050201416,929599.7023582458,3603578.0906677246,2169586.420059204,11400239.944458008,12562014.57977295,5277733.325958252,2320013.7615203857,6103320.121765137,1022676.8255233765,3999416.5897369385,2471421.718597412,10983202.934265137,12051141.738891602,11115162.84942627,2293098.4497070312,3323709.487915039,2329968.4524536133,4387410.640716553,11026839.256286621,11580383.30078125,10652457.237243652,-9940030.097961426,-10239429.473876953,3439920.9022521973,11234821.319580078,10533977.508544922
0.15,-6381152.153015137,1435868.8592910767,3363928.0796051025,-1503582.239151001,8645155.906677246,-11856155.395507812,-11068300.247192383,-11380136.489868164,-12871382.713317871,-8446797.370910645,7506025.314331055,7669438.83895874,14598711.013793945,15126799.583435059,3646975.7556915283,-5349509.239196777,-4763898.849487305,-2101972.818374634,-6132189.750671387,-7099388.122558594,1068618.655204773,-3801277.1606445312,14962976.455688477,24535398.483276367,-31701465.606689453,-811291.3966178894,-5067386.150360107,144137.84444332123,4252534.38949585,-3781095.504760742,-7998507.976531982,15313459.396362305,-7297651.290893555,5907346.725463867,1972420.9308624268,-2408721.685409546,706781.3277244568,5005755.90133667,4632414.817810059,13086482.048034668,14346903.800964355,3647361.2785339355,455826.19309425354,4656208.515167236,117785.55065393448,3103996.992111206,3749545.5741882324,12871410.369873047,13926416.397094727,12863601.684570312,326715.97599983215,1331686.6159439087,344476.22299194336,3730462.074279785,12782183.647155762,13459352.493286133,12375350.952148438,-11990216.255187988,-13293853.759765625,2627577.304840088,12977727.890014648,12294939.994812012
0.155,-10151722.90802002,-2592000.2460479736,-498190.0453567505,-4078813.5528564453,5076284.885406494,-14330110.549926758,-12235265.731811523,-12499868.392944336,-13705231.666564941,-9672515.869140625,3875222.4445343018,5709991.931915283,14632516.860961914,15342825.889587402,1681965.8279418945,-6877906.799316406,-4428779.602050781,-2911806.344985962,-6858216.285705566,-7920686.2449646,-242924.5412349701,-3315710.0677490234,15419675.827026367,23472045.8984375,-32595375.061035156,-2083882.3318481445,-5233539.10446167,317945.09291648865,5222713.947296143,-2259948.492050171,-6303189.277648926,15784806.251525879,-8683748.245239258,3137494.0872192383,95449.85741376877,-3306226.4919281006,781117.3796653748,6173365.116119385,6524319.171905518,14208806.037902832,15358838.081359863,495882.5409412384,-3115744.113922119,583953.7382125854,-2530226.945877075,2146416.664123535,4732524.871826172,14027385.711669922,15053083.419799805,13931483.268737793,-3079624.4144439697,-2268848.8960266113,-3305948.01902771,2982127.6664733887,13999070.167541504,14607872.009277344,13445261.95526123,-12221858.024597168,-16065118.789672852,1719066.6198730469,14073146.82006836,13285812.377929688
0.16,-11199397.087097168,-900543.3917045593,3145022.6306915283,-5455957.412719727,5405586.242675781,-19135004.0435791,-14756928.443908691,-14927323.341369629,-15509007.453918457,-10347489.356994629,4059801.5785217285,6381145.95413208,16923452.377319336,17641548.15673828,-3962483.4060668945,-10856662.75024414,-6016824.722290039,-3411797.7619171143,-7658012.866973877,-8788416.862487793,151184.70788002014,-1213716.0301208496,17602493.286132812,20660676.956176758,-35887470.24536133,-5192033.290863037,-6068726.062774658,238589.00368213654,5750333.786010742,-789515.1972770691,-3954546.2131500244,17825912.475585938,-11238221.168518066,-879850.1491546631,-2560072.183609009,-4736495.9716796875,1113143.2056427002,6962555.408477783,7519720.554351807,16080488.204956055,17149318.69506836,-2922552.3471832275,-6411136.627197266,-3403244.0185546875,-5281688.690185547,2041177.51121521,5450618.743896484,15793225.288391113,16688068.389892578,15707668.30444336,-6116426.944732666,-5441758.155822754,-6488786.220550537,2816675.4245758057,15828884.12475586,16255935.668945312,15229483.604431152,-11334136.962890625,-17013826.370239258,1589698.314666748,15799620.628356934,14878997.802734375
0.165,-5547725.677490234,9719190.59753418,16753740.310668945,-2711213.3502960205,13559936.5234375,-22849174.49951172,-16396600.723266602,-16629528.045654297,-15243198.39477539,-7179914.474487305,11900317.192077637,12477644.920349121,22056999.20654297,22552305.221557617,-10338406.562805176,-14354415.893554688,-7948402.881622314,-2861872.673034668,-5702742.576599121,-6838521.0037231445,4514840.126037598,3828029.8709869385,22040224.075317383,16916515.350341797,-39622978.21044922,-7768788.3377075195,-6772757.053375244,844098.0911254883,6881190.776824951,1514055.9673309326,-351725.81672668457,22129972.457885742,-13092229.843139648,-3555267.333984375,-4212408.542633057,-5953938.961029053,1448304.6531677246,7375168.323516846,8538940.4296875,19067939.75830078,20271869.659423828,-5076171.398162842,-7929115.295410156,-4870740.89050293,-6826639.175415039,1818112.4925613403,5951358.795166016,18617673.873901367,19376956.939697266,18571155.548095703,-7595008.850097656,-6855785.846710205,-7784992.218017578,2337810.99319458,18519308.09020996,18922134.399414062,18087924.95727539,-11728823.6618042,-17005844.116210938,1302627.2058486938,18493621.826171875,17542346.954345703
0.17,1916383.147239685,20473125.457763672,29135667.80090332,1752500.5340576172,22917837.142944336,-23437814.712524414,-15683087.348937988,-16082080.841064453,-12031386.375427246,-1894166.2311553955,20921266.555786133,19081541.061401367,24938953.399658203,25102649.688720703,-13262064.933776855,-14642686.84387207,-7846450.328826904,-1476673.4838485718,-1093571.9013214111,-2143248.5580444336,9711921.691894531,8243880.271911621,24188142.776489258,14442709.922790527,-40716053.0090332,-7585938.930511475,-6137157.917022705,2235687.732696533,7893105.030059814,3182153.7017822266,2022280.6930541992,24197692.87109375,-13869311.332702637,-4082436.0847473145,-4083630.5618286133,-6037021.636962891,1526749.4916915894,6830286.979675293,8658367.156982422,19691062.927246094,21093437.19482422,-6639791.011810303,-8686329.84161377,-4518182.277679443,-7031726.360321045,196972.69797325134,5492797.8515625,19135362.62512207,19874084.47265625,19104999.542236328,-8597840.309143066,-7692029.4761657715,-8497525.215148926,613987.0882034302,18815380.096435547,19389741.897583008,18553501.12915039,-15284394.264221191,-18379968.643188477,-382099.86686706543,18842315.673828125,17921585.083007812
0.175,1683343.768119812,19425462.72277832,27611925.12512207,1847082.7341079712,23077238.082885742,-24487825.393676758,-15128272.05657959,-15620697.021484375,-9758829.116821289,-133960.17253398895,21089771.270751953,18644432.067871094,21271236.419677734,21284294.12841797,-13861679.077148438,-14278758.04901123,-6741151.332855225,-1212583.303451538,1780277.4906158447,845263.5407447815,10032748.222351074,7249689.57901001,20326675.415039062,13168565.75012207,-40356903.076171875,-6151775.360107422,-4984800.815582275,2999531.9843292236,7019319.0574646,1824463.129043579,183174.14820194244,20265462.87536621,-15238112.449645996,-4566159.248352051,-3603500.6046295166,-5402388.095855713,1298413.634300232,5320536.136627197,6348400.592803955,15428763.389587402,16852199.55444336,-9414363.861083984,-10493102.073669434,-4809602.2605896,-6463082.790374756,-1852946.5198516846,3943108.320236206,14898653.030395508,15726778.030395508,14895388.60321045,-10651952.743530273,-9690194.129943848,-10535130.500793457,-1204169.1541671753,14548989.295959473,15255721.092224121,14233708.381652832,-20801879.8828125,-21629417.419433594,-2452509.880065918,14574054.718017578,13628955.841064453
0.18,-5964505.672454834,9006621.360778809,16371675.491333008,-3128957.509994507,14709520.33996582,-28337373.733520508,-16748804.092407227,-17218725.204467773,-11391680.717468262,-3723243.474960327,13063384.056091309,12159183.502197266,14981793.403625488,15162521.362304688,-15152791.976928711,-16440788.269042969,-7032721.519470215,-3059551.000595093,47548.8007068634,-877137.7801895142,5453094.005584717,2821434.97467041,14342904.090881348,11411498.069763184,-41480140.686035156,-6172202.110290527,-5199041.366577148,2079849.7200012207,4721835.136413574,-1491505.50365448,-4053805.8280944824,14178784.370422363,-17995233.5357666,-6395837.306976318,-4227705.955505371,-5239412.784576416,952873.4087944031,4316384.315490723,3090158.224105835,9969969.749450684,11284893.035888672,-12934485.43548584,-12704545.021057129,-6092661.380767822,-5317455.291748047,-1916549.0865707397,2856420.0401306152,9549810.409545898,10477519.989013672,9594404.220581055,-12860871.315002441,-12030754.089355469,-12996253.967285156,-959009.8261833191,9378757.47680664,10033609.390258789,8912074.089050293,-24633268.356323242,-24200414.657592773,-2450714.349746704,9340704.917907715,8371305.465698242
0.185,-7777918.338775635,6162182.807922363,13661771.774291992,-5630916.595458984,10240641.593933105,-30202581.40563965,-17655023.5748291,-18063356.399536133,-13943511.009216309,-7764245.03326416,8641024.589538574,8838984.489440918,13706030.84564209,14093683.242797852,-16052646.63696289,-18792198.181152344,-8165279.388427734,-4900603.294372559,-3445385.217666626,-4489207.744598389,2386003.7326812744,1694266.2000656128,13253062.24822998,9000433.921813965,-43523853.30200195,-7392302.989959717,-6701798.439025879,535975.992679596,3725166.5592193604,-2807843.2083129883,-5608945.846557617,12912652.969360352,-20503078.46069336,-8047257.423400879,-5257040.977478027,-5728002.071380615,749421.4177131653,4914688.1103515625,2204397.201538086,8972855.567932129,10270166.397094727,-14710932.731628418,-13135839.462280273,-6373886.1083984375,-3657032.251358032,174618.25907230377,3462205.8868408203,8610836.98272705,9556694.984436035,8646293.640136719,-13164807.319641113,-12501186.37084961,-13433048.248291016,1138180.2558898926,8510259.628295898,9057658.195495605,8094980.239868164,-24879884.719848633,-23919780.731201172,-224509.17959213257,8445335.388183594,7603701.591491699
0.19,6673374.652862549,21932115.55480957,29315139.770507812,929700.3149986267,18037033.081054688,-24618970.87097168,-13967904.090881348,-14319363.594055176,-12369448.6618042,-6792284.965515137,15665774.34539795,13779191.017150879,18086305.618286133,18293775.55847168,-14009759.902954102,-16895473.48022461,-7426045.894622803,-3923394.203186035,-3924226.0456085205,-5054760.932922363,4982447.147369385,5280295.848846436,17185810.089111328,7372702.121734619,-43857555.3894043,-7633943.557739258,-7385616.302490234,431432.9922199249,5143003.463745117,-884858.4294319153,-3476178.6460876465,16553630.828857422,-21326202.392578125,-8118345.260620117,-5295201.301574707,-6052553.176879883,821746.8857765198,5812971.115112305,3798924.207687378,11762658.11920166,13151488.304138184,-14457885.7421875,-12281351.089477539,-5278458.118438721,-2621220.588684082,1258079.0519714355,4438460.350036621,11336147.30834961,12178421.020507812,11242644.309997559,-12362443.923950195,-11699995.994567871,-12427028.65600586,1926019.6685791016,10964606.285095215,11525960.922241211,10832728.385925293,-24261039.73388672,-22719436.645507812,957674.503326416,10991472.244262695,10373191.833496094
0.195,30587818.145751953,47273422.24121094,52598934.173583984,13236669.540405273,31989244.46105957,-14346584.32006836,-7096229.076385498,-7388156.414031982,-6597225.666046143,-1246616.8403625488,28377901.077270508,21701971.05407715,21061429.977416992,20675619.12536621,-10716216.087341309,-11548455.238342285,-4220641.613006592,-498626.61957740784,-727862.298488617,-1756497.1446990967,9957143.783569336,7886366.367340088,19209625.244140625,7039129.734039307,-42533142.08984375,-6544550.895690918,-6274029.25491333,2099167.3469543457,6728060.722351074,918985.12840271,-2250699.281692505,18197397.232055664,-21951086.044311523,-8199233.055114746,-4808117.866516113,-6011210.4415893555,1091335.8926773071,4864057.0640563965,4171947.956085205,11967020.988464355,13400375.366210938,-15512437.82043457,-13711274.147033691,-5571815.013885498,-3984487.295150757,-1408406.138420105,3547821.9985961914,11463658.332824707,12102642.059326172,11160714.149475098,-14045432.090759277,-13239523.887634277,-13820034.980773926,-980863.1539344788,10641608.238220215,11326396.942138672,10739238.739013672,-27341178.89404297,-24779893.87512207,-1756412.8637313843,10833073.616027832,10276116.371154785
0.2,46721511.84082031,63562534.33227539,65627098.083496094,21779191.970825195,39988754.27246094,-7467174.053192139,-2343721.389770508,-2591133.8329315186,-1458061.2182617188,3873603.8208007812,35629226.68457031,25023803.7109375,18189807.891845703,17261428.833007812,-9750764.846801758,-7832590.103149414,-873020.8277702332,2327337.9802703857,2718509.4356536865,1905029.7737121582,12137611.389160156,6102444.171905518,15508382.797241211,6845924.377441406,-41587745.666503906,-5655088.901519775,-4963373.184204102,3551692.9626464844,6229190.349578857,-260527.78959274292,-5001005.172729492,14150373.458862305,-24492244.720458984,-10221857.070922852,-5326780.796051025,-6314122.676849365,1322572.946548462,2328341.7224884033,1347671.389579773,6775620.460510254,8224021.911621094,-20109956.741333008,-18871511.459350586,-9084599.494934082,-7761866.092681885,-6477187.156677246,1064921.0214614868,6362260.818481445,6791318.416595459,5849333.2862854,-19366235.733032227,-18503416.061401367,-19105972.290039062,-6022588.729858398,5254465.103149414,6033344.268798828,5321671.485900879,-34705245.97167969,-30791793.823242188,-7023693.084716797,5536867.141723633,4793489.933013916
0.205,46217098.236083984,62540512.08496094,62802070.61767578,21657571.79260254,38059066.77246094,-7597244.739532471,-2359968.1854248047,-2599943.8762664795,-483559.1912269592,5064516.067504883,34009342.193603516,23135723.114013672,13358740.80657959,12357578.27758789,-10377206.802368164,-7939594.745635986,545170.7243919373,2998203.2775878906,3782563.6863708496,3085322.856903076,11450702.667236328,3679284.8110198975,10483453.750610352,6069847.583770752,-41084545.13549805,-5550866.603851318,-5207715.98815918,3099459.171295166,4755591.39251709,-2640600.9197235107,-8507144.927978516,8945237.159729004,-27340381.622314453,-12703237.533569336,-6725638.389587402,-7192149.639129639,1314333.3196640015,710100.8296012878,-1770502.5672912598,1070765.733718872,2678916.6927337646,-25171113.967895508,-23973800.659179688,-13251560.21118164,-11449251.174926758,-10020810.1272583,-437494.03953552246,897110.4621887207,1224150.538444519,237727.99968719482,-24368045.806884766,-23650144.577026367,-24297117.233276367,-9433927.536010742,-197923.4516620636,567515.4328346252,-316780.9844017029,-41180683.13598633,-36156253.814697266,-10801623.344421387,15759.723260998726,-919383.8834762573
0.21,35288227.08129883,50975681.30493164,52411708.83178711,16188156.127929688,31929491.04309082,-11836797.714233398,-5377073.764801025,-5623085.021972656,-2826398.1342315674,3166119.09866333,28873401.641845703,20450702.667236328,12316560.745239258,11643576.622009277,-9136006.355285645,-9570619.583129883,-42461.76406741142,2891316.6522979736,3064841.5088653564,2341288.3281707764,11270790.100097656,4425503.253936768,9890720.36743164,5627754.688262939,-39796314.23950195,-5528322.219848633,-6553178.787231445,1656196.117401123,4999515.056610107,-2781765.937805176,-8185045.24230957,8401260.375976562,-26198034.286499023,-12680252.075195312,-7377200.603485107,-7882270.336151123,1113381.5050125122,1326137.661933899,-1541723.132133484,712372.1837997437,2553280.5919647217,-25615125.65612793,-24415990.829467773,-14142992.01965332,-12699327.46887207,-9994363.784790039,322448.87948036194,663383.6030960083,1023283.6008071899,-1734.9784029647708,-24643178.939819336,-24080566.40625,-24691133.499145508,-9377429.962158203,-257217.31781959534,413935.5421066284,-497777.5514125824,-40839691.162109375,-36052055.35888672,-10892441.749572754,-188905.7457447052,-1085025.3105163574
0.215,24662302.017211914,39404102.32543945,43826595.306396484,11000168.800354004,27839275.360107422,-16667591.094970703,-8985523.223876953,-9226298.332214355,-5931643.486022949,1062461.3761901855,25581804.275512695,19185804.36706543,15030891.418457031,14727746.00982666,-6296904.563903809,-10861024.856567383,-1871745.3479766846,3207281.3510894775,2315791.606903076,1605535.0303649902,12406311.03515625,5978683.948516846,13332405.090332031,6885871.887207031,-38509513.85498047,-5467314.24331665,-7347972.393035889,1359655.8570861816,7142851.35269165,-591349.0653038025,-4780926.704406738,12108864.784240723,-19908346.17614746,-10203834.533691406,-6738542.556762695,-7729605.197906494,998881.459236145,2834520.3399658203,1462552.6666641235,5332283.973693848,7137449.741363525,-20777980.80444336,-20432970.04699707,-11534702.30102539,-11780150.413513184,-7667687.892913818,1902745.4853057861,5112998.962402344,5538688.182830811,4629338.74130249,-20671781.539916992,-20037551.879882812,-20654365.53955078,-7059889.793395996,4358982.563018799,4916491.985321045,4135476.1123657227,-33133243.560791016,-30705457.68737793,-8486113.548278809,4350844.860076904,3643356.5616607666
0.22,18460857.391357422,32364555.35888672,39173595.4284668,8341276.168823242,26573768.615722656,-20769201.278686523,-12112135.887145996,-12354684.829711914,-8401229.858398438,204044.22283172607,24413417.81616211,18249980.926513672,17519264.221191406,17438869.47631836,-5195601.463317871,-12299914.360046387,-4138723.373413086,2699226.140975952,2078562.7365112305,1546453.1183242798,12687087.059020996,4886359.214782715,16474657.05871582,10032268.524169922,-38698104.85839844,-5651863.098144531,-7046569.82421875,2365980.863571167,8717685.69946289,1292243.242263794,-2652700.424194336,15635890.007019043,-12594014.167785645,-7808548.450469971,-5773145.1988220215,-6873969.078063965,1169183.4926605225,3641106.8439483643,3967262.7449035645,10185836.791992188,11591588.020324707,-14744003.295898438,-15795760.154724121,-8378888.130187988,-10309659.004211426,-4994948.863983154,2698803.9016723633,9705876.350402832,10109740.257263184,9467214.584350586,-16156112.670898438,-15289963.722229004,-16062440.872192383,-4284597.873687744,9049757.957458496,9525457.382202148,8918155.670166016,-23129184.72290039,-24123559.951782227,-5613398.551940918,9064611.434936523,8454913.139343262
0.225,14297527.313232422,28225595.474243164,35506572.72338867,7178141.117095947,25365760.803222656,-23165578.842163086,-13894011.497497559,-14131208.419799805,-9979644.775390625,-508194.32735443115,22922595.977783203,16699552.536010742,17903055.19104004,17979427.337646484,-6083584.308624268,-13704664.23034668,-5774676.322937012,-73834.66511964798,1733513.2360458374,1408961.296081543,11006589.889526367,2986290.93170166,17320318.2220459,13684614.181518555,-39098152.16064453,-5309852.600097656,-6440458.297729492,2552163.1240844727,8191166.877746582,1507575.9887695312,-3347556.5910339355,16807447.43347168,-8636581.420898438,-6312487.1253967285,-4866816.520690918,-5690886.497497559,1488050.2223968506,3929529.905319214,4586996.555328369,12384315.490722656,13392162.322998047,-10836230.278015137,-12517337.799072266,-6275177.001953125,-8735795.974731445,-2466242.0749664307,2959818.3631896973,11905964.851379395,12209203.720092773,11737916.946411133,-12847722.053527832,-11870460.510253906,-12823887.825012207,-1621403.0981063843,11279201.50756836,11729410.171508789,11243271.827697754,-16255607.604980469,-19154027.938842773,-2963237.524032593,11341680.526733398,10671160.697937012
0.23,9439136.505126953,23283706.665039062,29668664.932250977,5793929.576873779,21775705.337524414,-23387588.500976562,-13993098.258972168,-14140129.089355469,-10922603.607177734,-2969060.8978271484,19427190.78063965,14284016.609191895,16873125.076293945,17131193.161010742,-6019267.559051514,-13585745.811462402,-6230739.116668701,-3817361.1164093018,586608.5290908813,273316.6813850403,8294509.8876953125,3306530.714035034,16607971.19140625,15675571.44165039,-37680759.42993164,-3720884.084701538,-6246453.762054443,684327.1851539612,6647653.579711914,718722.7606773376,-4740327.35824585,16235118.865966797,-7789585.590362549,-4518603.801727295,-3458821.7735290527,-4482332.706451416,1639013.5288238525,4332244.396209717,4263156.890869141,12242502.212524414,13173813.819885254,-8850637.435913086,-10052878.379821777,-4486836.910247803,-6677901.268005371,-71435.77933311462,3329443.93157959,12020501.136779785,12282685.279846191,11710669.51751709,-10135322.570800781,-9276035.30883789,-10268292.427062988,740013.1225585938,11391994.47631836,11856391.906738281,11391468.048095703,-14030560.493469238,-15992784.50012207,-657543.5400009155,11499928.47442627,10734557.151794434
0.235,3716118.097305298,15402745.246887207,20870601.654052734,3148860.9313964844,15652139.663696289,-23627069.4732666,-14232594.49005127,-14200222.01538086,-11943181.991577148,-7108812.33215332,14066102.027893066,10165574.073791504,14424037.93334961,14840196.60949707,-5006639.9574279785,-12528609.275817871,-6571796.894073486,-5774229.049682617,-1458290.457725525,-1985709.4287872314,5124971.866607666,3430678.129196167,14384659.767150879,14483132.362365723,-36224418.64013672,-2423685.5506896973,-6542281.150817871,-1626915.454864502,5603630.542755127,-791005.01537323,-5786251.068115234,14047631.26373291,-7338098.049163818,-3004181.146621704,-2105979.6810150146,-3900632.381439209,1493644.7143554688,4202961.444854736,3287950.277328491,10388299.942016602,11405541.41998291,-8084481.239318848,-8871544.83795166,-3178139.9250030518,-4968094.348907471,1259503.960609436,3130090.4750823975,10294449.806213379,10669919.01397705,9898242.950439453,-8695825.576782227,-8032783.508300781,-8935660.362243652,1899446.8450546265,9735213.279724121,10224917.4118042,9624840.73638916,-14782582.28302002,-14622463.22631836,483728.8558483124,9920848.846435547,9115983.963012695
0.24,-1474597.2156524658,6600329.399108887,11842116.355895996,-493588.26875686646,9642683.029174805,-26533899.307250977,-16820363.998413086,-16672048.568725586,-13379720.687866211,-10368948.936462402,8893744.468688965,4790183.544158936,10308946.60949707,10778179.168701172,-6468855.857849121,-13311881.065368652,-8142104.148864746,-5290670.394897461,-3554608.106613159,-4332538.12789917,1646007.6570510864,-539822.1611976624,10390080.451965332,10764216.423034668,-38202800.75073242,-3587555.6468963623,-7225235.939025879,-2183591.12739563,5077023.029327393,-3245171.546936035,-7823944.091796875,10188491.821289062,-6874850.749969482,-4228119.850158691,-2565695.04737854,-4589354.991912842,1192601.6807556152,2813173.294067383,1070156.3358306885,7143242.359161377,8117209.434509277,-9339849.472045898,-10583557.12890625,-4009330.7495117188,-5083432.197570801,651570.200920105,1668282.0320129395,6852413.177490234,7408778.190612793,6630352.49710083,-10338612.55645752,-9818900.108337402,-10592964.172363281,1220920.8011627197,6508819.580078125,7041089.057922363,6132257.93838501,-16499244.689941406,-15522973.06060791,-158702.13508605957,6776180.267333984,5945118.9041137695
0.245,-4783073.425292969,1620048.2845306396,7083802.223205566,-3506802.3204803467,7355176.4488220215,-30860153.198242188,-20688663.482666016,-20612148.28491211,-14286660.194396973,-10648354.530334473,6756725.788116455,1645246.3865280151,6714591.026306152,7117011.070251465,-10745726.585388184,-16360565.185546875,-10242723.46496582,-4196061.134338379,-4334273.815155029,-5204507.350921631,-575617.790222168,-5912192.821502686,6766184.329986572,7021371.841430664,-42479225.158691406,-6316412.925720215,-8090233.80279541,-1224821.8059539795,4551752.56729126,-5407877.9220581055,-10879517.555236816,6842474.460601807,-7881833.076477051,-7953998.08883667,-4919928.073883057,-6059642.314910889,901808.2618713379,1227079.2722702026,-1425328.8507461548,4215064.04876709,5101346.969604492,-12287713.050842285,-14012041.091918945,-6650230.407714844,-6588792.324066162,-961162.4479293823,70302.94090509415,3685967.6837921143,4317200.660705566,3709917.7837371826,-13868979.454040527,-13457969.665527344,-14070701.599121094,-295782.208442688,3603925.7049560547,4205933.570861816,2964157.3429107666,-17901891.708374023,-17546861.64855957,-1570119.857788086,3879026.6513824463,2967050.313949585
0.25,-6237867.35534668,1689717.8888320923,7456465.244293213,-4634319.305419922,9082588.195800781,-33245006.561279297,-22555946.350097656,-22622989.654541016,-13725746.154785156,-9173660.278320312,8062164.306640625,3187475.9197235107,6496685.028076172,6775533.199310303,-13610142.707824707,-18596807.4798584,-10938343.048095703,-3805917.263031006,-3495290.756225586,-4267245.769500732,-102499.66382980347,-6591960.430145264,6402234.5542907715,4775058.746337891,-44128887.17651367,-7528039.455413818,-8637104.988098145,-642640.8886909485,4271555.9005737305,-5418416.0232543945,-12524938.583374023,6719146.728515625,-9797469.139099121,-10353320.121765137,-6749750.137329102,-6957224.8458862305,660114.1095161438,1170585.6323242188,-2005974.531173706,3826914.7872924805,4833345.413208008,-14042127.60925293,-15231228.828430176,-8023873.329162598,-7314668.655395508,-1552557.8260421753,22204.25195991993,3335397.720336914,3901706.4571380615,3359767.6753997803,-15220357.894897461,-14854970.932006836,-15320652.961730957,-853303.3728599548,3349363.088607788,3979022.264480591,2662776.470184326,-18183456.420898438,-18036396.026611328,-1950887.7992630005,3594798.5649108887,2553563.5948181152
0.255,-7544106.483459473,1688432.216644287,7837470.531463623,-4709883.213043213,10436035.15625,-33891620.63598633,-21814571.380615234,-21870201.110839844,-12610529.899597168,-8916198.73046875,9307800.29296875,6052246.09375,8700537.68157959,8938745.498657227,-13051875.114440918,-18279371.26159668,-10040303.230285645,-3392328.977584839,-2631038.9041900635,-3230669.4984436035,1109704.0176391602,-3373861.55128479,8513823.509216309,2888095.1404571533,-41992576.599121094,-6711637.020111084,-8492371.559143066,-896043.1218147278,4431487.083435059,-4043427.9441833496,-11791258.811950684,8909140.586853027,-10061563.491821289,-9482508.659362793,-6461407.661437988,-6862629.413604736,482303.649187088,2351403.9516448975,-664131.5817832947,5634810.924530029,6844841.480255127,-12925074.577331543,-13219672.203063965,-6783122.0626831055,-6623731.61315918,-635965.9433364868,1143619.8949813843,5318727.016448975,5830029.010772705,5141429.424285889,-13283031.463623047,-12766382.217407227,-13268271.446228027,-119674.08657073975,5203271.389007568,5715761.184692383,4711769.580841064,-17536287.307739258,-16531585.693359375,-1065746.4265823364,5513476.371765137,4375876.903533936
0.26,-10060700.416564941,-3099890.70892334,3310061.9316101074,-5352953.4339904785,7591681.957244873,-35895851.135253906,-21256507.873535156,-21129829.40673828,-12640986.442565918,-10476650.23803711,7091112.6136779785,4735786.437988281,9453407.287597656,9885423.66027832,-12458865.16571045,-17615219.116210938,-9350209.23614502,-2084385.1566314697,-3372849.464416504,-3882928.8482666016,-329544.72303390503,-3390764.9517059326,9423233.032226562,39433.58734250069,-40360549.92675781,-6660081.86340332,-7977977.752685547,-640832.245349884,4442902.565002441,-4064850.8071899414,-10900007.247924805,9846202.850341797,-8283659.934997559,-8363902.0919799805,-5606670.85647583,-6851313.11416626,429565.75751304626,2765239.953994751,121693.31312179565,7001306.533813477,8111365.31829834,-11516358.375549316,-12020741.46270752,-5815114.498138428,-6515780.925750732,15627.996996045113,1465756.0586929321,6655819.892883301,7222012.042999268,6405626.29699707,-12100414.276123047,-11260581.970214844,-12013895.988464355,333849.2512702942,6348273.754119873,6648223.876953125,6095657.825469971,-17499418.258666992,-16002241.134643555,-626374.9599456787,6806010.723114014,5710941.314697266
0.265,-12372730.255126953,-9340613.36517334,-3471965.3129577637,-6229104.042053223,2955541.6107177734,-38947368.62182617,-22308786.392211914,-22071254.73022461,-13572495.460510254,-11404791.831970215,3156070.7092285156,-8908.475749194622,7841300.964355469,8659019.470214844,-14558384.895324707,-18585611.34338379,-9735816.955566406,-610097.5275039673,-4924981.117248535,-5499585.151672363,-3441950.0827789307,-8205415.725708008,8196080.207824707,-2228371.8585968018,-41717170.71533203,-8603344.917297363,-7722451.210021973,586423.6950874329,4282757.759094238,-5531969.07043457,-11168277.740478516,8699761.390686035,-7174468.040466309,-10090675.354003906,-6231098.651885986,-7710461.139678955,504753.4108161926,1779178.0233383179,-507109.22479629517,6841828.346252441,7543543.815612793,-13051759.719848633,-14820589.065551758,-7944882.392883301,-8451954.84161377,-1194615.8409118652,483722.5675582886,6280920.98236084,6898820.877075195,6175170.421600342,-14898460.388183594,-13851772.30834961,-14787755.966186523,-801457.1666717529,5874047.27935791,6097213.7451171875,5707626.819610596,-19217798.233032227,-18524129.86755371,-1932999.610900879,6363950.252532959,5468554.0199279785
0.27,-11419007.301330566,-9407984.733581543,-5022734.642028809,-5315699.100494385,2630787.3725891113,-38645172.119140625,-22659280.77697754,-22562494.2779541,-13383718.490600586,-9896609.30633545,2785052.2994995117,-1171942.8300857544,7371988.296508789,8433494.567871094,-16546461.10534668,-19190504.07409668,-9882318.496704102,-62013.085931539536,-4868440.1512146,-5572016.716003418,-2969418.525695801,-10203608.512878418,8018668.174743652,-957000.2555847168,-42722557.067871094,-9785464.2868042,-7792892.932891846,1296914.3390655518,5297942.161560059,-4867645.263671875,-10346513.748168945,8467741.966247559,-8135227.203369141,-12609478.950500488,-7480606.0791015625,-8602449.417114258,600465.6553268433,1084161.639213562,-148898.78034591675,6866303.443908691,7324988.36517334,-16252635.955810547,-18754167.556762695,-11282485.961914062,-10824335.098266602,-3439180.374145508,-111597.10586071014,6240111.827850342,6765732.765197754,6229311.466217041,-18860267.639160156,-17926919.93713379,-18719600.677490234,-2756057.7392578125,5800333.9767456055,6216077.80456543,5559431.076049805,-21448684.692382812,-21701774.59716797,-4027963.638305664,6129930.9730529785,5427855.491638184
0.275,-6620745.1820373535,-2197859.287261963,1015728.7120819092,-2085627.794265747,8382055.282592773,-33695816.04003906,-20289388.65661621,-20463750.8392334,-11344268.798828125,-7195425.033569336,7884540.557861328,4675175.189971924,10197258.949279785,11059441.566467285,-14898498.53515625,-16860267.639160156,-8738903.045654297,-75734.75688695908,-2560823.678970337,-3301287.4126434326,2955193.519592285,-4529657.84072876,10725732.803344727,3528947.8302001953,-40245048.52294922,-7955838.203430176,-7785649.77645874,474843.3828353882,8108573.913574219,-498776.8232822418,-6767664.432525635,10737744.331359863,-8751112.937927246,-11951369.285583496,-7126403.80859375,-8425105.094909668,637784.1234207153,1962188.2438659668,2716485.5003356934,8165187.835693359,8840931.89239502,-17091461.181640625,-19045957.565307617,-11936428.07006836,-11230693.817138672,-4549540.5197143555,816291.1534309387,7719403.7437438965,8105701.446533203,7618167.400360107,-19231056.213378906,-18561149.59716797,-19053567.88635254,-3718528.985977173,7242176.532745361,7919486.045837402,6876362.8005981445,-21820602.416992188,-21942445.755004883,-4955902.099609375,7431888.103485107,6691613.674163818
0.28,-1269380.807876587,4881803.035736084,8643141.746520996,1371093.6307907104,15203841.209411621,-28988386.154174805,-17082468.032836914,-17397094.7265625,-9104446.411132812,-5483487.606048584,14263643.264770508,11985075.950622559,13324785.232543945,13718331.336975098,-11570384.979248047,-13298550.605773926,-7353840.351104736,436690.47951698303,-193361.2823486328,-860371.6492652893,8972687.721252441,2268436.4318847656,13429759.979248047,7034972.667694092,-36968261.71875,-5448959.827423096,-7611879.825592041,-562122.5237846375,10723979.949951172,3659683.2275390625,-3466088.5334014893,12811326.98059082,-6490101.337432861,-8725875.854492188,-5407486.438751221,-7623685.359954834,675259.3517303467,3270567.4171447754,5519911.289215088,9120582.580566406,10177941.32232666,-14769559.860229492,-16087799.072265625,-9898607.25402832,-10000860.214233398,-3783145.1892852783,2083064.5561218262,8802407.264709473,9222752.571105957,8680858.612060547,-16358655.92956543,-15812828.063964844,-16204769.134521484,-3123076.915740967,8333413.124084473,9020690.91796875,7870063.781738281,-19991563.79699707,-19658166.885375977,-4244979.8583984375,8609724.998474121,7605409.145355225
0.285,1032935.7385635376,5517870.903015137,11107273.10180664,2994530.67779541,17526979.446411133,-28950658.798217773,-16125373.840332031,-16367231.369018555,-8308969.497680664,-5266754.627227783,16690940.856933594,13444602.012634277,13025744.438171387,13220570.56427002,-11105785.369873047,-12421957.969665527,-7088289.260864258,1339451.3130187988,120528.75757217407,-515912.65201568604,9139669.418334961,1400530.0998687744,12882539.749145508,6699081.4208984375,-37070194.244384766,-5808227.5390625,-7544885.158538818,-92432.57343769073,10628882.40814209,3210422.2774505615,-4363701.820373535,12023826.599121094,-2716020.107269287,-7282651.424407959,-4730574.607849121,-7458539.962768555,793647.4084854126,3311272.621154785,5109783.64944458,8288018.226623535,9443162.91809082,-12495993.614196777,-14355997.085571289,-8773388.862609863,-9419667.24395752,-2376833.438873291,2135929.584503174,7834744.453430176,8444949.15008545,7974157.810211182,-14657988.548278809,-14090486.526489258,-14590490.341186523,-1961026.3109207153,7487098.217010498,7928821.086883545,6990287.780761719,-18024703.979492188,-18199899.673461914,-3094042.0627593994,7952104.568481445,6748058.795928955
0.29,-46633.95136594772,1348167.1810150146,8057496.070861816,2879638.910293579,15093557.357788086,-31670150.756835938,-17337528.228759766,-17454011.917114258,-8832536.697387695,-6019469.738006592,14486420.631408691,9225079.536437988,10349897.384643555,10865030.288696289,-13645587.921142578,-14555673.599243164,-7424116.134643555,1381942.9874420166,-1039610.2666854858,-1771670.5799102783,4664970.397949219,-5261940.002441406,10431187.629699707,4746868.133544922,-39331954.95605469,-8105972.2900390625,-7505251.407623291,1274516.1056518555,8282052.993774414,-399833.7388038635,-8039663.314819336,10008984.565734863,-741630.9118270874,-8905929.565429688,-5703748.2261657715,-7952339.649200439,948631.227016449,2443788.2900238037,2638384.3421936035,7153219.223022461,8091278.076171875,-12312095.642089844,-15270491.600036621,-9976155.281066895,-10021083.83178711,-1503303.7662506104,1400613.54637146,6496419.429779053,7179066.6580200195,6920226.573944092,-15576026.916503906,-15028938.293457031,-15539726.257324219,-1064747.3335266113,6303644.180297852,6577997.207641602,5880371.570587158,-17513708.114624023,-18485990.524291992,-2368458.032608032,6772834.777832031,5661617.755889893
0.295,-2319259.4051361084,-2412204.5040130615,3678056.7169189453,2077527.9998779297,11597139.358520508,-32968627.9296875,-18325691.22314453,-18432981.491088867,-9843079.566955566,-7531829.357147217,10957437.515258789,5452123.641967773,9030419.34967041,9995211.601257324,-15398699.760437012,-16311664.581298828,-7071083.068847656,280553.2217025757,-1557404.3989181519,-2364920.3777313232,1619320.273399353,-8638620.376586914,9538626.670837402,4880166.530609131,-39308166.50390625,-8254565.238952637,-7035684.585571289,1512762.5465393066,6629290.1039123535,-2096484.4226837158,-9536924.362182617,9773909.568786621,-1381884.6940994263,-10238851.547241211,-6205162.048339844,-7961176.39541626,1017042.3984527588,2190785.1696014404,1772914.6480560303,7648124.217987061,8345458.984375,-12815322.875976562,-15804831.504821777,-10978076.934814453,-10040849.685668945,-1113957.6435089111,1215927.7200698853,6990874.290466309,7498379.707336426,7320130.825042725,-16185281.753540039,-15714863.777160645,-16049100.875854492,-396722.10812568665,6850140.09475708,7237891.19720459,6592092.990875244,-18170778.274536133,-18453712.463378906,-1830720.1862335205,7093219.28024292,6246631.622314453
0.3,-3967686.176300049,-3843923.568725586,1002359.2710494995,943230.2713394165,9980818.748474121,-33007102.966308594,-18289987.564086914,-18476715.087890625,-10848778.72467041,-8880538.940429688,9213358.879089355,5660084.7244262695,9672465.324401855,10668442.726135254,-15081019.401550293,-16037202.835083008,-6197383.880615234,-381137.04323768616,-408070.5940723419,-1105370.5215454102,2778958.0821990967,-5860666.275024414,10297968.864440918,6640562.057495117,-36653625.48828125,-5344753.265380859,-6120985.507965088,398926.0196685791,7231121.063232422,-513987.77961730957,-7680706.977844238,10703246.116638184,-2789668.7984466553,-9181690.216064453,-5009369.373321533,-7208790.7791137695,938738.6441230774,2540889.263153076,3027633.4285736084,8558790.20690918,9149154.663085938,-12835438.72833252,-14542404.174804688,-10094621.658325195,-8785623.550415039,-1181632.2803497314,1393330.0971984863,8055754.661560059,8344346.046447754,7968380.451202393,-15070522.30834961,-14579021.453857422,-14817993.1640625,-268063.0683898926,7867921.829223633,8437943.458557129,7724987.983703613,-19615003.58581543,-17882844.924926758,-1618609.90524292,7874453.067779541,7188998.699188232
0.305,-4447212.219238281,-4033124.4468688965,441044.56901550293,-127309.06903743744,10833680.152893066,-34568572.998046875,-18333992.00439453,-18526199.340820312,-10926737.785339355,-7653347.015380859,10166441.917419434,7881879.3296813965,9673286.437988281,10259819.984436035,-15320301.055908203,-15744479.179382324,-5814678.66897583,1138480.78250885,1987470.6268310547,1479491.4722442627,5617724.418640137,-2795008.897781372,9988515.853881836,6445389.270782471,-35339794.15893555,-2900086.8797302246,-5316661.357879639,-36033.38450193405,8830402.374267578,967316.8063163757,-6187820.4345703125,9966727.256774902,-3647758.722305298,-8202793.121337891,-3815564.3939971924,-6806665.897369385,755934.476852417,2092107.7728271484,3485711.3361358643,7320310.115814209,7876901.149749756,-13783415.794372559,-14426843.643188477,-9466237.06817627,-8166440.010070801,-2537660.837173462,668790.6980514526,6882133.007049561,7129647.731781006,6528823.375701904,-15010828.018188477,-14401182.174682617,-14809629.440307617,-1735699.0575790405,6661056.5185546875,7188852.310180664,6445023.059844971,-22333883.28552246,-19539073.944091797,-2875951.2901306152,6575482.368469238,5897101.402282715
0.31,-3624152.898788452,-3303001.4038085938,1595428.8244247437,191323.69756698608,13516336.441040039,-36809040.06958008,-18479358.673095703,-18535520.553588867,-8794434.547424316,-2702986.478805542,13177299.499511719,9371973.991394043,8262702.941894531,8472816.467285156,-17196500.778198242,-16701646.80480957,-5538379.192352295,4576844.215393066,4981669.902801514,4478213.310241699,7430056.571960449,-3439951.6582489014,8221727.37121582,4128890.9912109375,-36739330.29174805,-3196261.167526245,-4811361.312866211,1416814.5656585693,9889761.924743652,338342.93484687805,-7049952.507019043,7753653.526306152,-3830650.3295898438,-9622693.061828613,-4244779.586791992,-7319618.701934814,564126.2531280518,714544.2366600037,2090084.7911834717,4573931.2171936035,5152918.815612793,-16308879.852294922,-17403779.983520508,-11211806.297302246,-9647136.688232422,-5254449.367523193,-797731.5783500671,4038219.928741455,4376281.261444092,3838864.0880584717,-17815156.936645508,-17166015.625,-17847194.67163086,-4718660.354614258,3838171.7205047607,4169113.1591796875,3424002.6473999023,-25666275.024414062,-23899864.196777344,-5764413.356781006,3756914.6156311035,3089640.8557891846
0.315,-1652137.041091919,-1330152.7500152588,3747377.1572113037,2593936.2049102783,16617235.18371582,-35695007.32421875,-17280128.479003906,-17200216.29333496,-4982526.779174805,3007508.9931488037,16621267.318725586,10043551.445007324,7820075.035095215,8027719.497680664,-17612619.400024414,-16552501.678466797,-3944633.722305298,7665465.354919434,7786025.047302246,7071123.123168945,8419975.280761719,-4494748.592376709,7747393.1312561035,4491111.278533936,-37276626.58691406,-3940059.4234466553,-4127981.185913086,3305342.674255371,10558979.034423828,-80677.65086889267,-7398616.313934326,7310452.938079834,-2515521.764755249,-11113172.53112793,-4948083.877563477,-7636480.331420898,479524.31440353394,74584.78212356567,1502564.6686553955,3774734.2586517334,4517519.474029541,-17611717.224121094,-20210411.071777344,-13398492.813110352,-11539143.562316895,-7298376.560211182,-1308157.9208374023,3120279.7889709473,3545887.4702453613,3264607.6679229736,-20321792.602539062,-19741594.314575195,-20581106.185913086,-6891571.044921875,2955368.757247925,3244272.9473114014,2428534.746170044,-26865280.151367188,-26575897.216796875,-8051102.638244629,2915493.4883117676,2288627.862930298
0.32,549224.9131202698,692220.0918197632,5500570.297241211,5420336.2464904785,18122106.552124023,-30701372.146606445,-14826560.020446777,-14814287.185668945,-2469404.697418213,4872448.444366455,18351207.733154297,10483421.325683594,9521636.962890625,9966169.357299805,-14275357.246398926,-13238153.457641602,-1290223.5984802246,8314316.749572754,8989450.454711914,8113387.107849121,9289010.047912598,-2399800.7774353027,9678760.528564453,10334756.851196289,-34508861.54174805,-2549233.1981658936,-3173696.0411071777,3737879.753112793,11437130.92803955,1890624.6423721313,-4828405.857086182,9596341.133117676,1137362.3609542847,-9410526.275634766,-3890745.6398010254,-6719805.717468262,592005.7892799377,966010.6301307678,3497184.0381622314,5953342.914581299,6976809.024810791,-15249402.99987793,-19053400.03967285,-12963356.971740723,-11413301.467895508,-6706854.820251465,-323589.89119529724,5278886.795043945,5807666.778564453,5593745.708465576,-18985687.255859375,-18407455.444335938,-19278213.500976562,-6253378.391265869,5154666.900634766,5632877.826690674,4702086.448669434,-24437040.328979492,-24271495.819091797,-7572055.339813232,5237780.0941467285,4503798.484802246
0.325,1868116.9748306274,1144373.1784820557,6008200.645446777,6219238.758087158,17080028.533935547,-26859888.076782227,-13722906.112670898,-13992242.813110352,-3401349.3061065674,2176360.3687286377,17373046.875,9898885.726928711,11044284.82055664,11659934.997558594,-10375855.445861816,-9563184.73815918,-90054.4598698616,6746693.6111450195,7754648.208618164,6942224.025726318,9343520.164489746,285595.6554412842,11377211.570739746,16715749.740600586,-31717561.721801758,-940128.0879974365,-2844085.931777954,3238243.579864502,12177991.86706543,4475324.1539001465,-1915085.9117507935,11502017.974853516,5042276.859283447,-6452988.147735596,-2195842.504501343,-5551473.617553711,862037.6586914062,1892572.283744812,5789741.039276123,7973308.086395264,9185067.176818848,-11839375.495910645,-16062446.594238281,-11095435.14251709,-10116204.261779785,-4661614.418029785,512774.34825897217,7370249.271392822,8018934.24987793,7596858.024597168,-16035669.326782227,-15347471.237182617,-16164621.353149414,-4196072.101593018,7269927.501678467,7934365.272521973,6981670.379638672,-21088230.13305664,-20535493.850708008,-5526592.254638672,7569253.921508789,6524579.048156738
0.33,2192491.7697906494,504580.7957649231,6049227.714538574,4846971.51184082,14914411.544799805,-28250366.2109375,-15595168.113708496,-16121686.935424805,-6105653.285980225,-1144706.36844635,15097178.45916748,7812149.0478515625,10281155.586242676,10921712.875366211,-10741134.643554688,-10194200.51574707,-1900740.2658462524,5326733.112335205,5477958.679199219,4777545.928955078,8313522.3388671875,-452786.05818748474,10622117.99621582,16530639.6484375,-33126117.706298828,-2609707.3554992676,-3729481.4586639404,3775614.9768829346,12361765.86151123,4851066.589355469,-2277285.33744812,10672212.600708008,5530476.5701293945,-7091478.8246154785,-2774635.3149414062,-5878769.874572754,1098168.3731079102,1496621.9663619995,5648534.297943115,7318534.374237061,8456857.681274414,-11964651.107788086,-16392463.684082031,-11731072.425842285,-10630324.363708496,-4138268.9476013184,11441.35557115078,6833196.640014648,7412843.227386475,6862751.007080078,-16480949.401855469,-15782561.302185059,-16405799.865722656,-3782156.467437744,6619564.533233643,7309693.336486816,6462221.622467041,-20462934.494018555,-21002269.744873047,-4993367.1951293945,7109157.562255859,5802643.775939941
0.335,2353835.105895996,439518.2132720947,6515172.958374023,3491180.419921875,13771280.288696289,-32244812.01171875,-18228921.89025879,-18746231.079101562,-7169151.782989502,-1902154.2072296143,13765002.250671387,5676889.896392822,8745650.291442871,9381873.13079834,-14434856.414794922,-14552118.301391602,-4680172.920227051,6046196.460723877,4624970.91293335,3831452.3696899414,7397706.985473633,-3390829.563140869,9133919.715881348,10894454.956054688,-36783355.712890625,-6279827.117919922,-4688751.697540283,5448019.504547119,12420122.146606445,3363889.455795288,-4953622.817993164,9089049.339294434,3055411.1003875732,-10940575.59967041,-5295147.895812988,-7307777.404785156,1117289.9007797241,957910.6569290161,4195528.984069824,5944633.960723877,6823833.465576172,-14863636.97052002,-19630584.716796875,-14751531.600952148,-12938431.739807129,-5271866.321563721,-441314.54825401306,5597135.543823242,5819864.273071289,5464606.285095215,-19746084.213256836,-19258121.490478516,-19571964.263916016,-4944094.657897949,5087078.57131958,5750615.119934082,4999661.445617676,-21588838.577270508,-24249765.396118164,-6068015.098571777,5620381.832122803,4383890.628814697
0.34,2719056.8447113037,819298.1481552124,6616898.536682129,3353878.0212402344,13850888.2522583,-33206481.93359375,-18338649.74975586,-18611850.73852539,-6013323.3070373535,-1448362.5888824463,13777423.858642578,4951358.318328857,8975708.0078125,9652131.080627441,-15413233.757019043,-16752782.821655273,-5053849.220275879,8309699.058532715,5558215.618133545,4532298.564910889,7058232.78427124,-4694068.431854248,9655262.94708252,8769903.182983398,-36568641.662597656,-6738011.837005615,-3963523.1494903564,6088846.683502197,12636910.438537598,2219031.0955047607,-6297194.480895996,9683227.5390625,3125282.5260162354,-11629397.39227295,-5727482.795715332,-7373213.768005371,947493.3743476868,2179497.480392456,4249630.451202393,7049676.418304443,7720880.98526001,-14562040.328979492,-19335678.100585938,-14946089.744567871,-13114881.51550293,-4661707.401275635,996348.7982749939,6823048.114776611,6742460.250854492,6637190.818786621,-19428199.768066406,-19162504.196166992,-19272296.905517578,-4115722.179412842,6066308.02154541,6755181.312561035,5976743.698120117,-20071458.81652832,-22975194.931030273,-5250710.964202881,6516096.591949463,5626038.074493408
0.345,2536515.235900879,-128644.34719085693,5089444.637298584,3066481.351852417,13638279.914855957,-30424036.026000977,-16228565.216064453,-16292324.06616211,-5337176.322937012,-2647213.6974334717,13709236.145019531,4949831.485748291,10377097.129821777,11118185.997009277,-11223536.491394043,-13690961.837768555,-2654203.176498413,9786779.403686523,6092032.909393311,5002047.061920166,5974569.797515869,-4310965.061187744,11464221.000671387,14805199.62310791,-30981109.619140625,-2390192.747116089,-1650556.9219589233,4506381.034851074,12356393.814086914,1712042.5701141357,-5618744.850158691,11627192.497253418,8810167.31262207,-5997419.834136963,-2053864.9559020996,-4966079.7119140625,811192.3933029175,4414282.321929932,5525159.83581543,9882581.71081543,10543885.231018066,-8512777.328491211,-12592267.990112305,-9549902.91595459,-8975248.336791992,-599427.5212287903,3363934.5169067383,9720138.549804688,9789460.182189941,9625699.043273926,-12756974.220275879,-12475150.108337402,-12651463.508605957,221829.56337928772,9038776.397705078,9717410.08758545,8841666.221618652,-15262078.285217285,-15152379.035949707,-931377.5897026062,9389558.792114258,8779793.739318848
0.35,1139482.7365875244,-2764425.754547119,2523622.0359802246,1353918.6716079712,12488552.09350586,-28775386.810302734,-15196187.973022461,-15274704.933166504,-6783209.800720215,-4996100.425720215,12783451.080322266,4262625.694274902,10267577.171325684,11072856.903076172,-7037279.6058654785,-9529266.357421875,-381751.6565322876,9459641.456604004,4870991.230010986,4000355.7205200195,3770842.5521850586,-5090956.211090088,11495780.944824219,22462833.404541016,-25690305.709838867,1983363.151550293,197466.56715869904,2376722.0973968506,11272747.039794922,620287.5971794128,-5237585.067749023,11722391.128540039,15166510.581970215,343616.9624328613,2262221.574783325,-2190400.3620147705,887315.6309127808,4866490.364074707,5241233.348846436,10675182.342529297,11446229.934692383,-2267428.6365509033,-5459934.711456299,-3331740.617752075,-4080443.3822631836,3420872.211456299,3809471.1303710938,10509633.06427002,10996979.713439941,10596037.864685059,-5802372.455596924,-5326654.91104126,-5720236.778259277,4256270.885467529,10099394.798278809,10681219.100952148,9757279.396057129,-12398716.926574707,-8489119.529724121,3145907.8788757324,10416916.847229004,9786294.937133789
0.355,-580423.5339164734,-5060667.037963867,836565.6733512878,-215206.51876926422,11486845.016479492,-30967073.440551758,-16248235.702514648,-16476997.375488281,-8266035.079956055,-5371917.247772217,11911938.667297363,3265259.027481079,8204518.3181762695,9044136.047363281,-8198813.438415527,-9382019.04296875,-201204.49364185333,8721857.070922852,3565742.9695129395,2953782.796859741,2673818.1114196777,-6888873.100280762,9107875.82397461,23074522.018432617,-25619985.580444336,1983042.9553985596,259185.2843761444,1824991.226196289,10436753.273010254,-712779.4623374939,-5897050.857543945,9369772.911071777,15178035.736083984,356446.2661743164,2729862.928390503,-1689738.2736206055,1118944.1680908203,2790521.8601226807,2985962.6293182373,8192943.572998047,8996977.806091309,-2548112.8692626953,-5317515.850067139,-2793878.7937164307,-3461046.4572906494,2983616.352081299,1717471.2419509888,7964838.50479126,8558003.425598145,8157325.744628906,-5784280.776977539,-5177671.432495117,-5716080.665588379,3593633.8901519775,7604315.757751465,8175041.198730469,7261053.562164307,-15340926.170349121,-10300278.663635254,2524693.727493286,7949552.059173584,7122190.952301025
0.36,-840524.1966247559,-5421906.471252441,435944.0207481384,809947.4310874939,11390246.391296387,-32904499.053955078,-16485504.150390625,-16799814.224243164,-7053567.886352539,-3114062.3092651367,11819254.875183105,3176861.524581909,6447502.136230469,7239276.40914917,-12067502.975463867,-11715188.980102539,-846392.9891586304,8891930.58013916,4281229.019165039,3680729.866027832,4381155.014038086,-6834960.460662842,6871660.7093811035,17850524.90234375,-28341590.881347656,-463711.3809585571,-582788.1693840027,2453801.6319274902,10788811.683654785,-565753.8175582886,-5973097.324371338,7192841.529846191,9850230.21697998,-4565490.72265625,-131023.57089519501,-3240415.573120117,1275568.127632141,871590.1374816895,1658510.0889205933,5381502.628326416,6052299.976348877,-8119335.174560547,-10801430.702209473,-7351957.321166992,-6836302.280426025,-939096.8084335327,-150659.17372703552,5048460.483551025,5321553.707122803,5163528.4423828125,-11216339.111328125,-10614686.012268066,-11171376.22833252,-457217.0078754425,4431443.214416504,5208918.09463501,4284614.086151123,-20344596.86279297,-17133501.052856445,-1546828.5083770752,4779356.479644775,3898492.5746917725
0.365,761249.4826316833,-4987375.736236572,-421595.4840183258,3743391.990661621,11151391.983032227,-29395160.675048828,-14085991.859436035,-14384778.022766113,-4059625.6256103516,-1564611.9117736816,11525711.059570312,3283885.955810547,6156320.095062256,6847936.153411865,-11664569.854736328,-11177258.491516113,-657484.5314025879,9039244.651794434,6055117.607116699,5237848.75869751,6796154.499053955,-5388228.893280029,6511457.920074463,15419821.739196777,-28543453.216552734,-1056642.4131393433,-1079921.3647842407,2409891.6053771973,11510371.208190918,930767.6553726196,-5284817.695617676,6834859.848022461,7623758.792877197,-6869749.069213867,-1982463.3598327637,-4492843.151092529,1188991.0697937012,1474858.045578003,2899014.472961426,4975590.229034424,5455296.516418457,-11293945.3125,-13924551.010131836,-10335709.571838379,-9274734.497070312,-3182488.6798858643,486123.0254173279,4558366.775512695,4620238.304138184,4500404.357910156,-14171088.218688965,-13599885.940551758,-14120208.740234375,-2599919.319152832,3794505.834579468,4794804.573059082,3828638.5536193848,-20661718.368530273,-19549264.907836914,-3691292.0475006104,4020136.833190918,3369074.821472168
0.37,2364981.4128875732,-6181700.706481934,-3205657.958984375,4997500.419616699,9279311.180114746,-21990249.633789062,-12072760.581970215,-12382088.661193848,-2971594.81048584,-3634793.758392334,9612553.596496582,1293871.521949768,5717619.4190979,6421874.523162842,-5917029.857635498,-7276612.758636475,-590295.9704399109,7626443.386077881,5956712.72277832,4957644.462585449,6342923.164367676,-7065975.666046143,6596240.520477295,19098001.48010254,-26318952.560424805,-244130.7157278061,-1603214.2639160156,1511069.1785812378,11101980.209350586,1380087.2564315796,-6003166.675567627,6838352.680206299,13289121.627807617,-3628016.233444214,-963301.7182350159,-4445370.197296143,918348.5507965088,3244415.283203125,4450317.3828125,6021728.038787842,6384914.398193359,-7730583.667755127,-10950374.603271484,-8201727.867126465,-8178995.132446289,-1475100.2788543701,2186198.2345581055,5617500.305175781,5922728.061676025,5458499.908447266,-11066653.25164795,-10490987.777709961,-10954590.797424316,-837170.0644493103,5104400.634765625,6048460.006713867,5070677.280426025,-15482901.573181152,-14947533.60748291,-1794221.9972610474,5119280.3382873535,4771517.753601074
0.375,1944221.9734191895,-9640746.116638184,-7383921.146392822,2841182.4703216553,5736020.565032959,-16951997.756958008,-14078463.554382324,-14469079.01763916,-5372277.736663818,-8027407.646179199,6087590.69442749,-3304947.853088379,3584038.496017456,4517588.138580322,-635790.0500297546,-4839596.271514893,-2143710.3748321533,5245838.642120361,3237471.81892395,2253634.9296569824,2662346.363067627,-13358606.338500977,5148802.757263184,23600669.860839844,-25983341.217041016,-1603964.4479751587,-2965264.320373535,1171510.5772018433,9378230.094909668,-572886.049747467,-8900009.155273438,5414967.5369262695,21864437.103271484,433444.082736969,519517.0044898987,-4236783.027648926,669091.3438796997,3188255.786895752,3548147.439956665,6021233.081817627,6299747.467041016,-1024251.8186569214,-6160478.591918945,-4398661.6134643555,-6064146.041870117,1070342.5407409668,2016205.072402954,5701495.170593262,6331595.897674561,5545392.990112305,-6258046.627044678,-5683398.246765137,-6103154.65927124,1496190.4287338257,5533061.981201172,6210755.348205566,5252195.835113525,-10231435.775756836,-9788762.092590332,767203.5098075867,5468709.945678711,5173529.624938965
0.38,-340772.1221446991,-13614907.264709473,-11584343.910217285,-357619.13657188416,1643108.1295013428,-16541124.34387207,-18438716.888427734,-18844696.044921875,-8930919.647216797,-11421854.972839355,2052236.557006836,-8158153.533935547,660401.9999504089,1885064.6018981934,641233.8614463806,-5957560.5392456055,-3987572.66998291,3674361.7057800293,217134.0137720108,-659763.8726234436,-1413836.0023498535,-19329795.837402344,2562642.5743103027,24310188.29345703,-28007768.630981445,-4668938.159942627,-4393922.805786133,1493574.0232467651,7161223.888397217,-3571882.0095062256,-11911071.77734375,3126307.487487793,25470918.655395508,992953.896522522,330555.5582046509,-4599321.365356445,577572.8821754456,1149804.4729232788,823708.5938453674,4598215.103149414,4699303.150177002,2926926.612854004,-4407314.777374268,-3213875.7705688477,-5649279.594421387,1329255.8193206787,-41303.250938653946,4319133.758544922,4882021.903991699,4174856.185913086,-4542021.27456665,-3975710.63041687,-4462232.58972168,1501252.0551681519,4159297.9431152344,4729173.183441162,3734217.643737793,-8608237.266540527,-9249621.391296387,907006.3829421997,4306451.797485352,3768477.439880371
0.385,-2689687.728881836,-16194002.151489258,-15079544.067382812,-1810642.123222351,-1985879.65965271,-17149806.97631836,-20524621.963500977,-20769943.237304688,-11024720.191955566,-12703149.795532227,-1569823.5034942627,-10862795.82977295,-1248645.1864242554,76680.83906173706,794809.1626167297,-7163477.420806885,-3748310.327529907,2799755.334854126,-1143995.8810806274,-2018596.6491699219,-3985990.047454834,-20126211.166381836,651491.2843704224,23316547.393798828,-28081527.709960938,-5125352.382659912,-4544649.124145508,930142.4622535706,4803176.8798828125,-5742182.731628418,-13439597.129821777,1618231.5349578857,22918727.87475586,-292394.2506313324,-460041.344165802,-4692249.774932861,601938.9033317566,-39921.62644863129,-1031335.711479187,3306392.6696777344,3193976.1638641357,2636569.023132324,-4953713.893890381,-4020640.8500671387,-5824008.464813232,586110.9495162964,-1097332.47756958,2990639.9250030518,3264602.8995513916,2839213.8481140137,-5095366.477966309,-4498027.324676514,-5174158.573150635,813650.1908302307,2614539.623260498,3377066.3738250732,2272636.4135742188,-8840057.373046875,-10795469.284057617,136964.8575782776,3086443.6626434326,2312769.889831543
0.39,-4069724.0829467773,-17180358.88671875,-17318393.70727539,-2162039.9951934814,-4331731.796264648,-16617349.624633789,-20141532.89794922,-20168884.27734375,-12152701.377868652,-13021100.044250488,-3955921.411514282,-11377754.211425781,-1761668.6820983887,-535896.6588973999,2255911.8270874023,-6287406.921386719,-2522841.691970825,903444.5881843567,-1522058.7253570557,-2524338.0069732666,-5556436.061859131,-17640775.680541992,171824.55956935883,23650123.596191406,-25155445.098876953,-2684801.8169403076,-4018179.8934936523,-603675.6038665771,2556871.6526031494,-6717329.502105713,-14297762.870788574,1291488.4090423584,19502340.31677246,-461072.4747180939,-421363.7411594391,-4152009.963989258,630088.210105896,1162533.2832336426,-1087621.0927963257,2980840.6829833984,2851755.380630493,585342.288017273,-4983572.006225586,-4120069.0269470215,-4716584.6824646,1446567.6546096802,314328.1638622284,2656029.9396514893,2914874.315261841,2568288.3262634277,-5078478.3363342285,-4435142.993927002,-5237596.51184082,1959979.1765213013,2296391.248703003,3265462.3985290527,2104906.5589904785,-8575895.309448242,-10202859.878540039,1053421.4973449707,2842277.5268554688,2112031.936645508
0.395,-4557510.852813721,-17216491.69921875,-17168325.424194336,-3335638.2846832275,-4453717.7085876465,-17369623.1842041,-21384067.53540039,-21360795.974731445,-14013367.652893066,-12891785.621643066,-3993214.8456573486,-10814661.026000977,-1440359.115600586,-296939.7306442261,2559379.5776367188,-6199347.972869873,-3682845.115661621,-1785269.2604064941,-2212254.762649536,-3320293.90335083,-6303961.753845215,-16737663.269042969,662789.8216247559,23810371.39892578,-23902154.92248535,-2455626.7261505127,-4593767.6429748535,-810543.5371398926,1692935.824394226,-6707210.063934326,-14846059.799194336,1578226.089477539,19469646.453857422,-420846.7900753021,-420570.4629421234,-4200956.82144165,638095.6172943115,2814266.6816711426,-563439.7268295288,3114224.433898926,3242070.9133148193,-997096.7173576355,-4895756.721496582,-3814911.6039276123,-3836536.169052124,2932164.192199707,2103333.9500427246,2857377.767562866,3399285.5548858643,2944838.285446167,-4937522.888183594,-4305208.683013916,-5001327.991485596,3546197.1759796143,2825545.7878112793,3703968.048095703,2654003.381729126,-8893114.08996582,-8610719.680786133,2449341.058731079,3112663.745880127,2606133.9378356934
0.4,-3592842.5788879395,-15983846.664428711,-14114275.932312012,-4131886.9590759277,-2234597.2061157227,-19816354.751586914,-24465379.71496582,-24607139.587402344,-15688414.573669434,-11820556.640625,-1520545.3634262085,-9380832.67211914,-388616.5916919708,770089.9839401245,597115.159034729,-8452555.656433105,-6690096.855163574,-2388025.5222320557,-2655406.713485718,-3739970.922470093,-4912907.600402832,-17430917.739868164,1718360.7816696167,22142177.58178711,-26283025.74157715,-6066492.557525635,-5882003.7841796875,1374433.8750839233,3208866.1193847656,-5406788.349151611,-13399693.489074707,2309306.859970093,21978506.088256836,-1809885.2634429932,-1318137.0496749878,-5365600.109100342,698380.172252655,2389978.6472320557,-237297.11771011353,3265880.823135376,3691721.6777801514,-1581516.8619155884,-6430318.355560303,-5031404.495239258,-5805616.855621338,1824485.0635528564,1638290.0476455688,3023092.269897461,3722757.10105896,3287650.1083374023,-6473138.809204102,-5899075.031280518,-6355918.884277344,2206685.5430603027,3229299.783706665,3790660.858154297,2950600.1472473145,-11080691.33758545,-9512651.443481445,1117719.292640686,3252182.2452545166,2846473.6938476562
0.405,-102622.06941843033,-12580371.856689453,-9725565.910339355,-1463978.886604309,774100.4228591919,-18760429.38232422,-23641054.153442383,-23980258.94165039,-14451336.860656738,-10439174.65209961,1545456.051826477,-6810387.134552002,1243647.0985412598,2329895.9732055664,1228337.1686935425,-8728217.124938965,-6479572.772979736,552469.2535400391,-1567556.381225586,-2572697.401046753,-1282054.4242858887,-15650440.216064453,3009227.0374298096,21568210.60180664,-26719659.80529785,-7528586.387634277,-5288820.266723633,3433869.1234588623,5595771.789550781,-3038200.1399993896,-9578217.506408691,3384080.8868408203,23651588.439941406,-2693587.064743042,-1575724.3633270264,-5929900.646209717,837581.8729400635,175869.77779865265,364202.26097106934,3437782.7644348145,3970944.881439209,-1386425.8527755737,-8446653.366088867,-7089159.01184082,-9607700.34790039,-2166312.2177124023,-769926.130771637,3054859.8766326904,3619220.495223999,3361504.7931671143,-8550707.817077637,-8006291.389465332,-8340173.721313477,-2034988.6417388916,3150944.709777832,3481297.016143799,2787220.001220703,-13025328.636169434,-12223538.398742676,-2895441.2937164307,3199906.587600708,2692970.7527160645
0.41,4902077.674865723,-7656792.163848877,-6383323.669433594,4077951.9081115723,2917190.7901763916,-11586218.83392334,-16483499.526977539,-16872852.325439453,-10252522.468566895,-10154325.485229492,3153539.4191741943,-3712193.012237549,2585084.915161133,3389467.239379883,7661553.382873535,-3816792.2496795654,-1162074.9235153198,4580062.389373779,659577.0120620728,-336658.89501571655,2042175.29296875,-10745256.423950195,3909815.549850464,24805158.615112305,-20833330.154418945,-2547411.4418029785,-2190650.701522827,2749989.9864196777,6060943.126678467,-1104312.3006820679,-6465661.525726318,4154418.468475342,22610225.677490234,-938756.2274932861,79952.6572227478,-4554638.862609863,945208.489894867,-1629016.0417556763,1285337.3289108276,3464658.9756011963,3999366.9986724854,-1182399.1537094116,-8646585.464477539,-7758295.53604126,-11738677.024841309,-5661024.09362793,-2774797.9164123535,2936167.2401428223,3356452.9418945312,3144055.8433532715,-8797473.907470703,-8242830.276489258,-8655372.619628906,-5501140.117645264,2783567.428588867,3115880.4893493652,2457237.720489502,-11972124.099731445,-12986557.006835938,-6060907.84072876,3031120.538711548,2437898.874282837
0.415,7756824.016571045,-3982019.4244384766,-4809520.721435547,7278955.936431885,4447858.3335876465,-5389535.903930664,-10177199.363708496,-10491547.584533691,-6893352.508544922,-10411027.908325195,3850088.596343994,-1250474.3337631226,3292778.253555298,3807737.8273010254,13659849.166870117,982015.1329040527,3526441.812515259,6516951.560974121,2393241.1670684814,1351974.7257232666,2858772.7546691895,-7136364.936828613,4399631.977081299,28302919.387817383,-14316932.678222656,3039267.3015594482,241909.51883792877,792842.3285484314,4364374.160766602,-671723.6042022705,-6517486.572265625,4499401.569366455,19881618.49975586,865884.4828605652,1488988.3995056152,-3011498.6896514893,869756.3409805298,-2095586.0614776611,1645294.7854995728,3439740.4193878174,4090448.8563537598,-1990496.8738555908,-7866230.9646606445,-7441589.35546875,-11491673.469543457,-6114769.93560791,-3308648.3478546143,2976816.177368164,3460278.5110473633,3048776.626586914,-7955613.136291504,-7402316.093444824,-7966605.663299561,-5748234.272003174,2722830.7723999023,3160186.767578125,2509645.938873291,-8728876.113891602,-11022180.557250977,-6167094.2306518555,3023812.2940063477,2509785.4137420654
0.42,5822084.426879883,-4219938.278198242,-4465065.479278564,4452723.979949951,6145983.2191467285,-8895580.291748047,-13104775.428771973,-13375306.129455566,-7740119.457244873,-9177335.739135742,5342912.673950195,-394981.38427734375,4175090.789794922,4676782.131195068,10908559.799194336,-1979496.1214065552,1189965.4865264893,6291242.599487305,2870165.8248901367,1856150.2695083618,1803237.795829773,-8081092.834472656,5321864.128112793,26902860.641479492,-16157146.453857422,608459.7110748291,-878059.6256256104,1045875.1916885376,3146886.3487243652,-1140747.5471496582,-7892255.783081055,5322681.903839111,18455368.041992188,-1089795.3510284424,-157640.32304286957,-3890312.433242798,600466.787815094,-2284585.71434021,1024469.0179824829,4128811.836242676,4972030.162811279,-3232896.089553833,-8600358.963012695,-8356349.945068359,-11419611.930847168,-4565381.5269470215,-3436395.6451416016,3883684.8735809326,4490300.65536499,3876073.8372802734,-8518691.062927246,-7982635.498046875,-8632849.69329834,-4089248.6572265625,3664221.76361084,4135456.085205078,3493579.387664795,-6162137.985229492,-9169293.403625488,-4621117.59185791,3809182.4054718018,3403143.6443328857
0.425,1070065.7367706299,-8324439.04876709,-5873253.345489502,-1487516.164779663,6426874.63760376,-19242301.94091797,-22784862.518310547,-23135412.216186523,-11734708.786010742,-6885014.533996582,6541060.924530029,-2231120.824813843,5116083.145141602,5872805.595397949,1917485.8331680298,-11071208.953857422,-6216876.50680542,5777561.187744141,2335119.4858551025,1453586.6975784302,242236.01818084717,-12077294.34967041,6446753.978729248,22361753.463745117,-25270475.387573242,-8279195.785522461,-4064794.5404052734,3584723.2341766357,3607804.536819458,-1943230.6289672852,-7978525.638580322,6536800.384521484,20707269.6685791,-4980143.070220947,-3365132.5702667236,-6346452.713012695,327531.0695171356,-3207128.0479431152,-111687.44415044785,5532779.216766357,6372090.816497803,-2450014.591217041,-10094460.487365723,-9847743.034362793,-12319034.576416016,-3246825.695037842,-4290750.980377197,5372103.214263916,5975929.737091064,5376934.52835083,-9862975.120544434,-9325637.817382812,-9959796.905517578,-2806973.695755005,5189173.221588135,5609740.734100342,4883422.8515625,-5024014.949798584,-8956217.765808105,-3539293.050765991,5187851.905822754,4732068.061828613
0.43,-1386178.731918335,-13195871.353149414,-10018486.022949219,-3898000.2403259277,2629486.7992401123,-24192964.553833008,-28080820.083618164,-28568534.85107422,-14677473.068237305,-6817775.726318359,4054810.5239868164,-7567751.884460449,3841126.4419555664,4881033.897399902,-2225039.7205352783,-16552532.196044922,-10560215.950012207,5601058.006286621,618947.3271369934,-136569.44036483765,-2537387.3710632324,-16735279.083251953,5479853.630065918,21287397.384643555,-31109796.52404785,-13408506.393432617,-5536795.616149902,4849862.575531006,3164539.337158203,-4154357.91015625,-8542534.828186035,5855108.737945557,25559150.69580078,-5162022.590637207,-3648875.4749298096,-6808037.757873535,281216.44258499146,-4510121.822357178,-1675114.8700714111,5705329.418182373,6256599.903106689,1360391.616821289,-8930397.987365723,-8492247.581481934,-11469688.415527344,-2497175.2166748047,-5609177.589416504,5387364.864349365,5928101.539611816,5492768.287658691,-8712840.08026123,-8175735.4736328125,-8724004.745483398,-2085831.4037322998,5267880.439758301,5652956.008911133,4706715.5838012695,-4084026.336669922,-8763623.237609863,-2862827.5394439697,5279161.9300842285,4674784.6603393555
0.435,1391058.8026046753,-15134413.719177246,-15303493.49975586,356193.57228279114,-4295275.688171387,-17955518.72253418,-23099767.684936523,-23631643.295288086,-13688466.07208252,-9997818.946838379,-2435802.698135376,-14835980.415344238,-1098229.8851013184,118679.27014827728,2978044.5098876953,-13285103.797912598,-7757681.369781494,5404419.898986816,-2582097.291946411,-3299269.437789917,-7591301.441192627,-22042291.64123535,933995.3660964966,24971143.72253418,-27633728.02734375,-9870925.903320312,-4152165.412902832,3019513.1301879883,-721330.7619094849,-8613363.265991211,-13194741.249084473,1659026.6227722168,28758253.09753418,-597345.4713821411,161669.93975639343,-4001557.8269958496,500817.77572631836,-5267517.08984375,-4165933.132171631,2879266.9773101807,3120042.324066162,5390367.50793457,-4652775.287628174,-3690788.0306243896,-7344377.517700195,-1224541.0680770874,-6436507.225036621,2380994.5583343506,2932734.727859497,2620195.8656311035,-4606583.595275879,-4111746.311187744,-4585496.425628662,-772309.0052604675,2429668.664932251,2849749.803543091,1679567.4562454224,-3187892.9138183594,-7250612.735748291,-1413941.9794082642,2532615.6616210938,1884113.4309768677
0.44,6655952.930450439,-13596939.086914062,-18440469.74182129,7510251.045227051,-9606211.66229248,-8261285.781860352,-13778004.64630127,-14182617.1875,-9836811.065673828,-12804704.666137695,-8537676.811218262,-20076175.689697266,-7373064.994812012,-6039820.194244385,9934498.78692627,-6351627.349853516,-1815436.9592666626,5792022.228240967,-6172308.921813965,-6881121.635437012,-13246085.166931152,-27944732.666015625,-5051778.793334961,27336357.11669922,-20075408.935546875,-3564178.466796875,-2016104.9365997314,552488.386631012,-6186076.641082764,-13519202.23236084,-20859174.728393555,-4030134.677886963,27252216.339111328,3528962.3737335205,4225412.368774414,-675691.9026374817,805959.9995613098,-5058210.849761963,-7222793.5791015625,-1714734.9119186401,-1547904.9682617188,6097994.327545166,-1045543.5514450073,496054.2619228363,-2780640.3636932373,900936.1267089844,-6247563.83895874,-2193999.2904663086,-1572409.0337753296,-1896530.8666229248,-1173085.331916809,-729218.9598083496,-1230238.437652588,1377152.0853042603,-1942445.158958435,-1476294.2790985107,-2705197.334289551,-3342009.7827911377,-5517119.407653809,845409.1548919678,-1778718.5907363892,-2326966.5241241455
0.445,7732390.880584717,-13104688.64440918,-19839422.22595215,10214392.66204834,-11076123.237609863,-6170334.815979004,-10024351.119995117,-10225049.97253418,-7139169.216156006,-12235182.762145996,-10972176.551818848,-21283170.700073242,-11595861.434936523,-10195124.626159668,9853843.688964844,-3418414.354324341,1060040.1163101196,7135687.828063965,-8256716.728210449,-8917006.492614746,-16642513.275146484,-32627227.783203125,-9202633.85772705,23891630.172729492,-16725683.212280273,-1840472.1021652222,-1062288.8803482056,327846.6463088989,-8947486.877441406,-16133895.874023438,-26501552.58178711,-7986629.486083984,22660202.026367188,3160705.327987671,4891587.257385254,302443.35532188416,1012195.1103210449,-4161255.359649658,-9460671.424865723,-5337240.695953369,-5093824.863433838,3485943.078994751,-1080801.010131836,620205.0447463989,-1158122.8971481323,2965369.462966919,-5227305.4122924805,-5656619.548797607,-4984001.159667969,-5458889.007568359,-1249347.6867675781,-818343.460559845,-1422176.9571304321,3406646.728515625,-5296879.768371582,-4867231.369018555,-5982326.984405518,-4684252.738952637,-5254693.508148193,2807811.737060547,-5077438.831329346,-5544745.922088623
0.45,179203.70399951935,-19449775.69580078,-24294305.8013916,4310530.185699463,-12202260.01739502,-13974649.429321289,-15236054.420471191,-15357077.598571777,-8985063.552856445,-10549387.93182373,-11948094.367980957,-21312009.811401367,-13945467.948913574,-12592070.579528809,2774106.979370117,-6641317.367553711,-1226252.794265747,7528626.441955566,-8431857.109069824,-9065569.877624512,-17636777.877807617,-35588283.53881836,-11548877.716064453,17496265.411376953,-19565265.655517578,-4888990.879058838,-1429637.6705169678,1826851.725578308,-7822829.246520996,-16405046.463012695,-28145841.598510742,-10275444.984436035,19063034.057617188,-138668.87986660004,2704583.6448669434,-769207.6563835144,1120217.8001403809,-3454372.6444244385,-10403500.5569458,-7637433.5289001465,-7435673.713684082,221193.87984275818,-3756071.5675354004,-1990337.1334075928,-1876751.42288208,3870533.227920532,-4233334.541320801,-7837553.977966309,-7156980.514526367,-7860619.54498291,-3844777.5840759277,-3444776.2966156006,-4081207.752227783,4279692.649841309,-7490492.820739746,-7170817.3751831055,-8134633.0642700195,-6979035.8543396,-7082751.750946045,3512651.6819000244,-7167108.535766602,-7693649.2919921875
0.455,-12282393.455505371,-31638801.57470703,-32974025.72631836,-6294068.813323975,-15995342.254638672,-24839641.571044922,-24441713.333129883,-24693216.32385254,-14276192.665100098,-11115374.565124512,-14444392.204284668,-23481815.338134766,-16773925.78125,-15544013.977050781,-5186047.554016113,-12991518.9743042,-6331076.145172119,5302755.355834961,-7779146.194458008,-8519842.147827148,-18108343.12438965,-38695159.912109375,-14329836.84539795,13596472.74017334,-24899957.65686035,-8525325.775146484,-2705362.7967834473,2832775.115966797,-5635946.273803711,-16496107.10144043,-28510459.899902344,-13156085.968017578,18320327.758789062,-3067137.0029449463,256836.86137199402,-2057075.7389068604,1235562.6821517944,-4016123.2948303223,-11107142.448425293,-10372015.953063965,-10380743.026733398,-2277743.5779571533,-6806486.129760742,-4148661.1366271973,-2386144.8764801025,3020193.576812744,-4459920.406341553,-10521251.678466797,-9908958.435058594,-10759478.569030762,-6806864.261627197,-6522641.658782959,-7079006.195068359,3420880.3176879883,-10287771.224975586,-10020518.30291748,-10895112.991333008,-11109604.835510254,-10953660.011291504,2541790.9622192383,-9863378.524780273,-10528492.92755127
0.46,-19022272.10998535,-39507839.20288086,-38339000.7019043,-11884918.212890625,-18560316.08581543,-30097841.262817383,-29649044.036865234,-30073345.184326172,-17324584.9609375,-12022185.325622559,-15864623.069763184,-25585615.158081055,-19231878.28063965,-18047636.032104492,-8968745.231628418,-17841947.555541992,-10093533.515930176,3056665.1821136475,-6482709.4078063965,-7439840.793609619,-17752443.313598633,-41575950.622558594,-16894733.428955078,13933015.823364258,-28557682.037353516,-10276698.112487793,-4309448.2421875,2962474.822998047,-4718682.289123535,-16813791.275024414,-28908592.224121094,-15929687.5,19187767.028808594,-4802042.007446289,-1309718.2512283325,-3029135.9424591064,1352248.9070892334,-5973213.672637939,-12001009.941101074,-13153883.934020996,-13321804.04663086,-4252734.661102295,-9531970.024108887,-5326720.237731934,-2911806.106567383,457965.8806324005,-6265902.042388916,-13245423.316955566,-12815894.12689209,-13595956.802368164,-9529247.283935547,-9347940.444946289,-9875463.485717773,806033.6709022522,-13245428.085327148,-12874934.196472168,-13708054.542541504,-17256193.161010742,-15954430.58013916,-91795.61585187912,-12799765.586853027,-13568984.985351562
0.465,-12770175.93383789,-33810039.52026367,-32631816.864013672,-6524735.450744629,-13959876.06048584,-25489076.614379883,-26426626.205444336,-26818058.013916016,-13723927.49786377,-8794608.116149902,-11427769.660949707,-22487134.93347168,-17562587.73803711,-16332460.403442383,-6659068.1076049805,-17220960.61706543,-9152138.710021973,5111517.906188965,-3644289.73197937,-4766383.647918701,-14215571.403503418,-39876831.0546875,-15676497.459411621,17149465.560913086,-28208126.068115234,-9831592.559814453,-4817409.038543701,3397547.721862793,-4199525.833129883,-15290470.123291016,-26628437.042236328,-14944128.99017334,20205469.131469727,-5704981.803894043,-2223268.985748291,-4142884.2544555664,1349068.8800811768,-7796072.006225586,-11684519.76776123,-12884221.076965332,-13007683.753967285,-5133773.326873779,-11687250.137329102,-6972498.893737793,-5773278.713226318,-2838933.9447021484,-8281404.495239258,-12954252.243041992,-12721636.772155762,-13299565.315246582,-11776059.1506958,-11527733.80279541,-12169878.005981445,-2594797.134399414,-13241879.4631958,-12702327.728271484,-13486486.434936523,-22470508.575439453,-19562812.80517578,-3487406.015396118,-12821021.08001709,-13650919.914245605
0.47,1127570.9867477417,-18578731.536865234,-19742559.4329834,4466522.693634033,-4166985.9886169434,-14420647.621154785,-18001499.17602539,-18147008.895874023,-6525573.73046875,-2461035.4900360107,-2814770.221710205,-14689629.554748535,-11620360.374450684,-10443042.755126953,291992.57493019104,-11118607.521057129,-4133718.0137634277,10553799.629211426,-56466.11377596855,-1188491.1060333252,-8226466.178894043,-32261810.302734375,-10269624.710083008,21540033.3404541,-24444704.055786133,-7686760.902404785,-3390593.2903289795,4314349.65133667,-2587690.3533935547,-11374456.405639648,-20726188.65966797,-9739219.665527344,21154787.063598633,-5508144.855499268,-2693616.3902282715,-5264761.924743652,1196246.862411499,-7697748.184204102,-9219379.425048828,-8732767.105102539,-8730537.414550781,-3997629.8809051514,-12351393.699645996,-9191377.639770508,-10677161.21673584,-5147624.492645264,-8599092.483520508,-8938822.746276855,-8728844.64263916,-9187244.415283203,-12557821.273803711,-12124517.440795898,-12815762.519836426,-4936430.45425415,-9352697.372436523,-8777436.256408691,-9479872.703552246,-23429555.892944336,-19539833.068847656,-5844087.12387085,-8896492.958068848,-9812808.0368042
0.475,9664266.586303711,-7934570.3125,-11712529.182434082,9917164.80255127,2053756.2370300293,-6226589.202880859,-12817142.486572266,-12775815.963745117,-3535854.1011810303,740593.3141708374,2512441.396713257,-9089838.981628418,-6560063.83895874,-5622936.725616455,6402383.327484131,-5507480.144500732,-393609.01713371277,13200204.849243164,1470606.9231033325,416483.0148220062,-4497252.941131592,-25048061.37084961,-5392377.853393555,25037477.493286133,-21372966.766357422,-6083087.44430542,-1877866.506576538,4746994.495391846,-620010.495185852,-7830903.053283691,-15595813.751220703,-4994916.915893555,21914884.567260742,-4755981.4453125,-3182272.434234619,-6043234.825134277,1026431.9181442261,-5794575.214385986,-6167593.955993652,-4386549.949645996,-4357119.560241699,-2147609.7106933594,-11521907.806396484,-10616092.681884766,-14133885.383605957,-5341746.807098389,-7015901.565551758,-4840290.069580078,-4474274.158477783,-4937816.619873047,-11766227.722167969,-11251965.522766113,-11710955.619812012,-5007459.64050293,-5099082.469940186,-4682692.050933838,-5282193.660736084,-21143312.454223633,-16922378.540039062,-5927721.5003967285,-4534544.944763184,-5564263.343811035
0.48,7607009.8876953125,-8894492.149353027,-12938332.557678223,6377306.4613342285,1076250.3147125244,-7017023.086547852,-15274475.09765625,-15309198.379516602,-7355358.600616455,-1484995.3651428223,1615973.711013794,-9314169.883728027,-5699691.295623779,-4994458.198547363,6313695.907592773,-6373550.891876221,-2288895.606994629,10140807.151794434,111096.18097543716,-909055.233001709,-5313235.282897949,-24301406.860351562,-4400471.6873168945,25465202.33154297,-22534088.134765625,-7633806.7054748535,-2878171.682357788,4501004.219055176,131730.95881938934,-6843500.61416626,-14974729.537963867,-4014038.562774658,22112314.224243164,-4978658.676147461,-4353472.709655762,-6799661.159515381,951640.8443450928,-3976628.065109253,-4590732.574462891,-3038854.5989990234,-3027168.9891815186,-1864034.89112854,-10617321.014404297,-10587670.32623291,-14087865.829467773,-4023117.5422668457,-5229502.6779174805,-3625444.173812866,-3137408.0181121826,-3580767.1546936035,-10771267.890930176,-10328022.956848145,-10466625.213623047,-3526805.877685547,-3643332.9582214355,-3396825.5519866943,-3932285.3088378906,-19494415.283203125,-14830420.49407959,-4407239.4371032715,-3022958.278656006,-4071335.792541504
0.485,3179303.6460876465,-13357808.113098145,-15084097.862243652,1828743.815422058,-918333.7092399597,-11963062.286376953,-19957107.543945312,-20193016.052246094,-11761833.190917969,-4021536.8270874023,45945.23087143898,-10382946.014404297,-5657474.994659424,-4955359.935760498,1879286.527633667,-11169027.328491211,-6857887.744903564,6065597.5341796875,-978561.9974136353,-2037637.2337341309,-6657720.565795898,-26346574.783325195,-4382015.228271484,23671260.833740234,-25252634.048461914,-10720149.040222168,-5520721.435546875,4349900.245666504,-41779.36166524887,-6624985.694885254,-15849614.143371582,-3887418.270111084,22258327.48413086,-5682893.753051758,-5477999.210357666,-7631319.046020508,933411.180973053,-3521322.727203369,-4043640.13671875,-2864571.8097686768,-2709230.1845550537,-2474662.3039245605,-10073725.700378418,-9494685.173034668,-12349287.033081055,-2802111.6256713867,-4611905.097961426,-3350138.9026641846,-2885727.882385254,-3233189.821243286,-10109184.265136719,-9673650.741577148,-9804411.888122559,-2310882.568359375,-3327848.6728668213,-3040126.8005371094,-3642002.820968628,-19355579.376220703,-14133046.15020752,-3057577.37159729,-2819873.094558716,-3669660.3298187256
0.49,5256305.694580078,-11203512.191772461,-10592553.13873291,3533042.4308776855,1866696.4769363403,-11610802.65045166,-18965232.849121094,-19250873.565673828,-10585509.300231934,-2510676.622390747,2716300.2490997314,-6801637.172698975,-2034634.5901489258,-1163635.3731155396,471227.37765312195,-11708094.596862793,-7322832.5843811035,6197879.791259766,997152.2092819214,-78923.08384180069,-4015533.447265625,-23000082.01599121,-1114606.3804626465,23391069.412231445,-23420000.076293945,-10178550.720214844,-6132197.856903076,4429176.807403564,344076.6632556915,-4425093.173980713,-13080006.59942627,-508798.2416152954,23266939.163208008,-4249351.024627686,-4640087.604522705,-7592208.385467529,904211.6403579712,-3816132.068634033,-2638951.063156128,-445131.8383216858,34678.08663845062,-1139441.728591919,-8623102.188110352,-7665174.48425293,-11368282.318115234,-2461489.677429199,-4730888.843536377,-750482.2015762329,-312731.7428588867,-625405.1327705383,-8682627.67791748,-8059473.037719727,-8508687.019348145,-2173868.417739868,-873342.6928520203,-354839.7123813629,-1165399.3129730225,-17991994.857788086,-12972877.502441406,-2717647.7909088135,-596975.8033752441,-1089409.1129302979
0.495,10174694.061279297,-5458688.735961914,-4312424.659729004,7399867.057800293,5589143.753051758,-5924229.145050049,-13656766.891479492,-13815525.05493164,-6515272.617340088,-226521.834731102,5916858.673095703,-1842456.2215805054,3099982.976913452,4103330.612182617,4138777.256011963,-6569888.591766357,-3149910.9268188477,8729549.407958984,3883993.8640594482,2896253.824234009,468077.95763015747,-15011424.06463623,3727878.3321380615,25887432.098388672,-17127593.994140625,-5119134.902954102,-3811617.374420166,3998947.6203918457,1344062.8051757812,-1265380.3825378418,-7823283.672332764,4336876.86920166,24516725.540161133,-641764.5215988159,-1834454.7748565674,-6177627.5634765625,896327.9128074646,-3731568.0980682373,-503487.2889518738,3318661.4513397217,4045114.517211914,1980841.1598205566,-6206829.54788208,-5551681.5185546875,-10894041.061401367,-2299519.5388793945,-4497664.451599121,3039762.9737854004,3584289.312362671,3169119.358062744,-6439731.597900391,-5630330.562591553,-6292579.174041748,-2208263.635635376,2872614.3836975098,3554641.2467956543,2530414.819717407,-14734132.766723633,-10896511.07788086,-2620295.286178589,2982656.0020446777,2750471.830368042
0.5,7926333.427429199,-6842233.657836914,-5727024.555206299,4951193.332672119,2968920.4692840576,-4626005.172729492,-12864055.633544922,-12964071.273803711,-6467181.205749512,-2695660.352706909,3203182.4588775635,-3117518.424987793,3929088.830947876,4969623.565673828,6155908.584594727,-3670737.5049591064,-1214977.9796600342,8462389.945983887,3248016.357421875,2395402.669906616,729895.830154419,-12168836.59362793,4707298.755645752,27317348.48022461,-13903264.045715332,-1558299.0646362305,-2100062.131881714,2830983.6387634277,1399531.8412780762,-849445.3430175781,-6268303.394317627,5258471.488952637,24204269.409179688,1198251.2474060059,155198.93169403076,-4650090.217590332,931198.000907898,-3212025.1655578613,86171.56744003296,4393935.203552246,5060522.556304932,3126567.602157593,-5050516.605377197,-4202477.45513916,-9332897.186279297,-1304661.2739562988,-3829001.1882781982,3955442.428588867,4648867.130279541,4100619.316101074,-5379238.128662109,-4658197.402954102,-5160895.824432373,-1193538.5465621948,3983836.1740112305,4576746.940612793,3487418.4131622314,-12928483.009338379,-10100519.180297852,-1693339.9438858032,4121899.127960205,3836922.6455688477
