time,Fp1,Fpz,Fp2,AF3,AF4,F7,F5,F3,F1,Fz,F2,F4,F6,F8,FT7,FC5,FC3,FC1,FCz,FC2,FC4,FC6,FT8,T7,C5,C3,C1,Cz,C2,C4,C6,T8,TP7,CP5,CP3,CP1,CPz,CP2,CP4,CP6,TP8,P7,P5,P3,P1,Pz,P2,P4,P6,P8,PO7,PO5,PO3,POz,PO4,PO6,PO8,CB1,O1,Oz,O2,CB2
0.0,4894183.63571167,6764203.5484313965,8278947.830200195,5443507.671356201,4515037.536621094,2813446.044921875,1933479.4282913208,5024179.935455322,5382203.102111816,3237055.3016662598,3703803.539276123,5099048.614501953,5158530.235290527,5099817.276000977,1579690.933227539,3592845.916748047,5571912.2886657715,2851877.9277801514,1063166.7375564575,1063824.17678833,1044770.7176208496,5088293.552398682,5145158.290863037,3837896.8238830566,4020003.318786621,3075527.6679992676,1022224.0686416626,-332059.3237876892,1105329.7519683838,1936907.0529937744,4524297.714233398,4421266.078948975,3525134.801864624,3156275.987625122,2375988.483428955,1240068.9125061035,100010.9314918518,1775158.0476760864,1956465.3635025024,4034523.4870910645,3144402.7423858643,1566687.7031326294,2167626.142501831,2193524.5990753174,3117956.3999176025,1831063.7474060059,2125673.770904541,1142917.9906845093,3268441.2002563477,4122602.4627685547,1898728.1322479248,2081441.6408538818,2627689.5999908447,1854083.6572647095,2117873.430252075,2116020.441055298,2600432.1575164795,2847090.482711792,2401379.5852661133,1311066.98513031,2082270.1454162598,2003912.4488830566
0.005,20479455.947875977,-103702.97729969025,11083724.975585938,-4682055.950164795,3016219.139099121,-9273913.383483887,-5682337.284088135,-4964947.22366333,133624.31526184082,4193039.894104004,271723.7174510956,-172740.81707000732,1513062.1194839478,-288504.1534900665,-15649279.594421387,-1533240.0798797607,-1343103.051185608,925423.264503479,2183725.357055664,3719250.440597534,2579015.016555786,-337798.5954284668,-3299682.140350342,-7356885.4331970215,-14883836.74621582,-2541897.2969055176,1718749.0463256836,3936561.107635498,3523181.915283203,-2713331.699371338,947302.2222518921,1881818.5329437256,-7557967.185974121,-10469768.524169922,-9815772.05657959,-1586624.9799728394,294747.0545768738,-3420091.390609741,-2600264.549255371,-266293.37668418884,-4149131.2980651855,-15259034.156799316,-15113236.427307129,-13966297.149658203,-13756670.951843262,-12966553.688049316,-7140000.343322754,-6865445.137023926,-4751963.138580322,-4226471.424102783,-21383663.177490234,-24335041.046142578,-20982982.635498047,-12506246.566772461,-8472382.545471191,-9804871.559143066,-8415194.511413574,-15228989.601135254,-21260927.200317383,-12351526.260375977,-9285936.35559082,-9913853.645324707
0.01,30159978.86657715,1002957.3440551758,15505452.156066895,-5380553.245544434,4618643.760681152,-12603115.08178711,-7469142.436981201,-7797112.941741943,-1780302.5245666504,6726696.968078613,474220.99113464355,-626886.5466117859,1644994.9741363525,-757672.905921936,-20364418.029785156,-2080077.1713256836,-4048273.0865478516,519934.59463119507,3580108.642578125,5552587.032318115,4167581.081390381,-957849.8601913452,-4991962.432861328,-8704136.848449707,-22423931.121826172,-5345061.779022217,1641238.2125854492,5051287.651062012,4860782.623291016,-3778197.765350342,302456.64715766907,2535109.758377075,-9941417.694091797,-16084243.774414062,-16791870.1171875,-4169475.0785827637,290401.72696113586,-4579528.80859375,-3786128.7593841553,18049.243837594986,-3992591.381072998,-22186777.114868164,-24374109.268188477,-22620628.356933594,-21511224.7467041,-19180881.50024414,-10432544.708251953,-9038985.252380371,-7294447.898864746,-5635556.697845459,-32510650.634765625,-36486270.904541016,-31373191.833496094,-18464223.861694336,-12255434.036254883,-14201908.111572266,-11135292.053222656,-23105905.532836914,-31426040.649414062,-18266546.24938965,-13428405.76171875,-14327743.530273438
0.015,31726533.889770508,6669856.548309326,19183038.71154785,-461026.668548584,7010502.815246582,-9188210.487365723,-5202456.951141357,-4979055.404663086,-2321898.6988067627,8115468.978881836,2517035.0074768066,2038455.7247161865,3990256.7863464355,1956405.0436019897,-15254098.892211914,932223.2604026794,-3494525.671005249,526287.0192527771,4058317.184448242,5469678.87878418,4578444.957733154,1612364.649772644,-1413001.1796951294,-2369000.4348754883,-18485589.9810791,-4436630.2490234375,399876.207113266,2729822.1588134766,4494866.371154785,-1812794.56615448,1874487.5192642212,5529439.926147461,-3970689.535140991,-13129916.191101074,-16762151.718139648,-5333075.046539307,75754.8063993454,-2335407.018661499,-2018684.3872070312,3769051.0749816895,1511629.7006607056,-18285345.07751465,-23493055.34362793,-21732622.146606445,-18898591.995239258,-16605264.663696289,-7857838.153839111,-6421071.529388428,-4566707.611083984,-743577.4803161621,-29426992.416381836,-32541339.874267578,-27365903.854370117,-15753489.49432373,-9077406.883239746,-10892403.602600098,-6062245.845794678,-19705266.95251465,-27297798.15673828,-15934818.267822266,-10162388.801574707,-11099258.422851562
0.02,27716659.545898438,7453731.536865234,18234872.817993164,-574246.346950531,5638848.304748535,-7308593.273162842,-4967738.628387451,-3814117.670059204,-5741633.892059326,4848316.669464111,1744946.7182159424,2127624.273300171,3787825.345993042,2047556.4002990723,-11867076.873779297,2779847.1450805664,-3810482.0251464844,-1029030.442237854,2366496.801376343,3220249.891281128,2746094.7036743164,1734530.9257507324,263214.43915367126,2278776.168823242,-12323077.201843262,-1439388.8711929321,-1409008.264541626,-307332.9031467438,2920762.062072754,-137640.72954654694,2268043.9949035645,7121802.806854248,3082770.824432373,-7671134.948730469,-12445818.901062012,-4395936.012268066,-184745.71406841278,-408433.198928833,-347104.37059402466,5940104.007720947,4466154.5753479,-10540353.775024414,-17185714.721679688,-15685132.98034668,-12436881.065368652,-11904211.044311523,-4276687.145233154,-4348163.604736328,-1289236.6647720337,3863096.7140197754,-20235429.763793945,-22377763.748168945,-18734228.134155273,-10900988.578796387,-4281129.837036133,-5796171.66519165,-451111.0186576843,-12593669.891357422,-19106887.817382812,-11100688.934326172,-5144287.586212158,-6136678.218841553
0.025,22881196.975708008,1323342.6809310913,12654273.03314209,-7749272.82333374,403501.6596317291,-9896190.643310547,-8732748.031616211,-7624379.1580200195,-11903752.326965332,-1306289.9112701416,-2918008.56590271,-2591059.684753418,-726745.2478408813,-2726825.714111328,-14315072.059631348,1156059.6227645874,-6536996.364593506,-3659750.6999969482,-509868.860244751,390881.38937950134,-137002.76613235474,-2915727.138519287,-3831946.1345672607,1424611.0916137695,-11321509.36126709,837163.6271476746,-2444651.6036987305,-1149972.677230835,1519698.977470398,-723543.1671142578,-783502.3403167725,4966449.737548828,5795677.661895752,-5497103.214263916,-8937604.904174805,-2813981.533050537,-304923.951625824,-924589.1571044922,-768046.498298645,3601106.4052581787,1440569.1623687744,-6031492.710113525,-12700081.825256348,-11369990.348815918,-9349302.291870117,-10688359.260559082,-3575597.5246429443,-5534210.205078125,-1306910.8724594116,3150135.278701782,-14714200.973510742,-16643388.748168945,-15123406.410217285,-9570805.549621582,-2655980.110168457,-4187546.2532043457,125340.59584140778,-9690593.719482422,-16155342.102050781,-9184863.090515137,-3448485.851287842,-4603417.39654541
0.03,20189483.642578125,-4643039.703369141,6717405.319213867,-13816331.86340332,-4320411.682128906,-13006045.3414917,-12985427.856445312,-12460597.038269043,-16065057.754516602,-4566175.937652588,-8003278.732299805,-8852711.67755127,-6680189.609527588,-9000260.353088379,-17199970.245361328,-1860325.4556655884,-9278954.50592041,-4872924.8046875,-1921614.646911621,-744262.2184753418,-1467851.4003753662,-9196160.316467285,-10869103.43170166,-1248526.5731811523,-14629499.435424805,828535.3779792786,-2090065.9561157227,508083.4627151489,1163890.4809951782,-3034203.52935791,-6512603.282928467,47284.71860289574,4280039.7872924805,-7483949.661254883,-9649336.814880371,-2974659.6813201904,-198519.2745923996,-3168306.1122894287,-3014636.278152466,-1704823.613166809,-4280699.253082275,-6888472.080230713,-14016000.747680664,-12698471.069335938,-11475746.154785156,-13272901.53503418,-6003109.931945801,-8715669.631958008,-4795834.064483643,-2471876.859664917,-16489727.020263672,-18356090.545654297,-18212905.883789062,-12232564.926147461,-5142475.605010986,-6933587.074279785,-4325119.495391846,-12684694.290161133,-19352190.017700195,-11247497.55859375,-6028847.694396973,-7287086.009979248
0.035,19092807.76977539,-5171010.971069336,4054756.6413879395,-13223742.485046387,-5795784.473419189,-13926310.539245605,-14695430.755615234,-13573577.880859375,-15384341.2399292,-2539377.9277801514,-10426731.10961914,-12757670.402526855,-10615326.881408691,-12818118.09539795,-17135354.99572754,-3398722.4102020264,-9772843.360900879,-3720006.9427490234,-565249.6814727783,526207.447052002,-195773.4078168869,-13171896.934509277,-16079053.87878418,-2801111.6981506348,-17347133.63647461,-374763.8463973999,-1304796.9341278076,2651049.1371154785,1413866.9967651367,-5850142.955780029,-12376749.992370605,-4908576.488494873,979564.7263526917,-10787969.589233398,-13451697.34954834,-5248039.245605469,100134.03743505478,-5794926.166534424,-5941198.348999023,-6780198.097229004,-9003686.904907227,-10840147.018432617,-19032489.776611328,-17716878.89099121,-15401304.244995117,-16826896.66748047,-9781995.77331543,-12230969.429016113,-9505489.349365234,-9497003.555297852,-21979932.78503418,-23390075.68359375,-23317836.76147461,-16020143.508911133,-9855934.143066406,-11771105.766296387,-10646871.566772461,-17617507.934570312,-23990409.85107422,-14964470.863342285,-10823824.882507324,-12000417.709350586
0.04,18109867.095947266,-2560383.081436157,4985156.536102295,-9392593.383789062,-5177163.124084473,-14301669.120788574,-14267127.03704834,-10979470.252990723,-12112593.650817871,1218328.4759521484,-10136111.25946045,-13267377.853393555,-11344846.725463867,-13221022.605895996,-17138055.8013916,-2733624.6967315674,-8584400.177001953,-1778668.8804626465,2345263.0043029785,3067108.631134033,2414609.909057617,-13689241.409301758,-17117979.049682617,-4122425.5561828613,-17118661.880493164,-275485.96262931824,-1412100.5535125732,3655551.4335632324,1610642.433166504,-8076696.395874023,-15762322.425842285,-7174789.905548096,-1989347.3386764526,-12441693.305969238,-15977673.530578613,-7549710.750579834,455801.397562027,-7839392.66204834,-8223856.9259643555,-9424520.492553711,-11932313.919067383,-13804252.624511719,-22091268.53942871,-20867326.736450195,-16977174.758911133,-18763210.29663086,-12788361.549377441,-15165619.850158691,-12498412.132263184,-14447734.832763672,-25016059.87548828,-25951814.651489258,-25320308.685302734,-18119789.123535156,-13755729.675292969,-15507769.584655762,-15069006.91986084,-19680433.27331543,-25792169.57092285,-17244049.072265625,-14652460.098266602,-15690308.570861816
0.045,18134721.755981445,-419695.07932662964,8746389.389038086,-6956328.392028809,-3490810.8711242676,-14948533.058166504,-12564253.807067871,-7101667.404174805,-9383712.768554688,2863409.0423583984,-7750607.967376709,-10672372.817993164,-8781901.359558105,-10604333.877563477,-19030963.897705078,-469574.54085350037,-7227547.645568848,-406662.4641418457,5091040.61126709,5712309.837341309,4979919.43359375,-11059833.526611328,-13667484.283447266,-5097627.16293335,-14990917.205810547,2144225.835800171,-2406541.8243408203,3790882.349014282,2050126.552581787,-8346158.981323242,-15099053.382873535,-4940120.220184326,-2609138.7271881104,-11638043.403625488,-14394631.385803223,-8163572.311401367,682773.9477157593,-8099192.6193237305,-8351647.37701416,-8655019.760131836,-12523139.953613281,-12888587.951660156,-19967008.590698242,-18894227.981567383,-15239962.577819824,-18086318.969726562,-13127965.927124023,-15935171.127319336,-11443221.092224121,-14894149.780273438,-22788152.69470215,-23593805.31311035,-22632999.420166016,-17395132.064819336,-13989412.307739258,-15495702.743530273,-14308686.256408691,-17087629.318237305,-23636655.807495117,-16298898.696899414,-14700592.994689941,-15726957.321166992
0.05,21050048.828125,1757184.386253357,14678050.994873047,-5058811.187744141,113595.93272209167,-13790029.525756836,-9359390.258789062,-2848364.83001709,-7417361.259460449,2796272.5162506104,-3397557.9738616943,-5519451.61819458,-3485390.6631469727,-5522080.898284912,-19691955.56640625,2427266.1209106445,-6189671.039581299,532905.9362411499,6999852.180480957,7955801.010131836,7130076.4083862305,-5955683.708190918,-6947008.13293457,-3639565.2294158936,-12692055.702209473,4923765.182495117,-3361365.795135498,3838244.1997528076,3084286.4513397217,-6105951.78604126,-11404842.376708984,942675.8885383606,-132596.99940681458,-10058232.307434082,-10680123.329162598,-7860268.115997314,664668.3812141418,-6001676.559448242,-5962527.751922607,-4968289.375305176,-9705278.396606445,-9249685.287475586,-15385906.219482422,-14479510.307312012,-12663301.467895508,-15505352.973937988,-10465848.922729492,-13399574.279785156,-6578187.942504883,-10594353.675842285,-18308130.264282227,-18908658.981323242,-17638565.063476562,-14643453.598022461,-10118938.446044922,-11532834.05303955,-8129656.791687012,-11839815.139770508,-19244569.778442383,-12879715.919494629,-10706871.98638916,-11804923.057556152
0.055,24890501.022338867,4136733.055114746,19420412.063598633,-2310698.2707977295,4359468.936920166,-10991741.180419922,-6202078.342437744,616154.2534828186,-6100618.362426758,2708105.0872802734,675522.3274230957,-758917.8681373596,1285002.8276443481,-870551.4669418335,-17804574.966430664,3666528.7017822266,-6182222.843170166,337046.38481140137,7479235.1722717285,8751624.10736084,8050425.5294799805,-1308165.6694412231,-1331248.8794326782,-1110053.300857544,-11928817.749023438,4895580.768585205,-4181186.1991882324,3514089.1075134277,3687388.8969421387,-3263253.927230835,-8865849.494934082,5872716.903686523,2477837.085723877,-10510983.46710205,-9448214.530944824,-8555177.688598633,461148.7090587616,-3316520.4524993896,-3203623.7716674805,-1191411.2567901611,-5293838.5009765625,-7510906.219482422,-13809512.1383667,-13076241.493225098,-12426380.157470703,-12858516.693115234,-7180433.750152588,-9504446.029663086,-1655856.6093444824,-5005646.705627441,-16983449.935913086,-16852807.998657227,-14527394.29473877,-11885404.586791992,-5369039.058685303,-6864840.507507324,-1431720.3760147095,-7938824.653625488,-15900529.861450195,-9659481.048583984,-6026727.676391602,-7095357.894897461
0.06,24199293.13659668,2916922.092437744,17530025.482177734,-1934421.6585159302,4695633.411407471,-10666385.650634766,-6639857.769012451,-121128.45480442047,-7554868.221282959,1771599.7695922852,317449.77831840515,-1002436.5186691284,848976.0160446167,-1238363.265991211,-17446613.311767578,670970.08228302,-8699319.839477539,-3116982.4600219727,5619617.462158203,6787104.606628418,6304341.793060303,-1546066.6418075562,-2169673.6812591553,-2426741.123199463,-14459866.523742676,1202565.5508041382,-5689682.960510254,2282698.631286621,2523298.978805542,-2663542.9859161377,-11292524.337768555,5173456.66885376,881092.2503471375,-14118529.319763184,-12613627.433776855,-10568113.327026367,264304.36968803406,-2786744.8329925537,-2852203.369140625,-669302.5827407837,-3865707.8742980957,-10408966.064453125,-16981447.219848633,-16363283.157348633,-15398545.265197754,-11488508.224487305,-6318880.558013916,-7718486.785888672,-742944.5385932922,-3124186.7542266846,-20562129.974365234,-19601354.598999023,-15711911.20147705,-10561106.68182373,-3712368.2498931885,-5367055.416107178,-203390.77711105347,-8165819.16809082,-16127628.326416016,-8535714.149475098,-4555921.0777282715,-5489513.874053955
0.065,17781963.348388672,-3166089.5347595215,9060881.614685059,-6138815.402984619,-175172.3438501358,-14247806.549072266,-10959393.501281738,-5917987.34664917,-12292108.535766602,-884380.8174133301,-4651323.7953186035,-6323542.11807251,-4597733.974456787,-6686168.670654297,-20871534.34753418,-5179616.451263428,-13079694.747924805,-9314038.276672363,2364070.415496826,3202200.8895874023,2709100.9616851807,-6683365.345001221,-8662336.349487305,-7781805.038452148,-19599210.739135742,-3318051.0997772217,-7812861.919403076,884234.7860336304,403563.7080669403,-4419067.3828125,-16892379.760742188,340486.7649078369,-4252971.172332764,-18390903.47290039,-17253107.07092285,-12203900.337219238,210924.34227466583,-4509016.036987305,-4758361.81640625,-3177570.104598999,-6744532.585144043,-14963658.332824707,-21175895.69091797,-20501888.275146484,-19345697.4029541,-11195112.228393555,-7983437.061309814,-8528617.858886719,-3462649.345397949,-5863845.8251953125,-25318691.25366211,-24225959.77783203,-19511518.478393555,-10422198.295593262,-5414451.599121094,-7256333.827972412,-4268209.457397461,-11607597.351074219,-19255769.729614258,-8953140.258789062,-6354155.06362915,-7242681.503295898
0.07,12774652.481079102,-7182249.069213867,3028837.9192352295,-9571012.496948242,-4353077.8884887695,-16673925.399780273,-13893019.676208496,-10417654.991149902,-15473427.772521973,-2607131.4811706543,-8141204.833984375,-10060222.625732422,-8213799.476623535,-10480167.388916016,-23269344.329833984,-7993698.596954346,-15197923.66027832,-13023363.11340332,1178230.4048538208,1919453.8593292236,1182971.2390899658,-10239832.878112793,-12549200.057983398,-9977560.043334961,-22734230.041503906,-4900258.541107178,-9050938.606262207,561553.3590316772,-169424.1613149643,-5656755.447387695,-19277044.29626465,-1485594.391822815,-6600864.410400391,-19360782.623291016,-19262033.462524414,-11991658.210754395,250538.170337677,-5689617.156982422,-5964332.103729248,-4581371.307373047,-9468530.654907227,-16249160.766601562,-22276023.864746094,-21400539.39819336,-21135974.884033203,-11361097.33581543,-9394759.178161621,-9183964.729309082,-5293771.743774414,-8528780.937194824,-26825233.459472656,-26348016.7388916,-22031667.709350586,-10699652.671813965,-7184514.999389648,-9211390.495300293,-7233897.686004639,-14612177.848815918,-22020769.119262695,-9568457.60345459,-8058967.590332031,-9070392.608642578
0.075,16114299.774169922,-2269559.621810913,7340416.431427002,-5699699.878692627,-2231338.2625579834,-13720185.279846191,-11244805.335998535,-6497804.641723633,-12258418.083190918,-500617.5637245178,-5472684.860229492,-7065609.931945801,-5020616.054534912,-7397638.79776001,-20111761.09313965,-4331552.028656006,-12311484.336853027,-9973854.064941406,4067100.0480651855,4988443.851470947,4121623.992919922,-7225428.581237793,-8202280.044555664,-4628513.813018799,-19959892.27294922,-3025478.8398742676,-8597482.681274414,1002700.2096176147,1463228.9409637451,-4667233.467102051,-15620798.110961914,3420899.6295928955,-2592174.530029297,-16420827.865600586,-18063529.96826172,-10545101.165771484,228124.81224536896,-4760742.664337158,-4909705.638885498,-2203104.019165039,-8061127.662658691,-13991120.338439941,-20707321.166992188,-19702512.741088867,-19816097.259521484,-12211274.147033691,-8902694.702148438,-8200594.902038574,-3340603.3515930176,-6897369.384765625,-24980936.05041504,-25116308.212280273,-21474990.844726562,-11497600.555419922,-6922606.945037842,-9027966.499328613,-5079489.707946777,-14655026.43585205,-22159416.19873047,-10396160.125732422,-7723681.926727295,-8847783.088684082
0.08,24083398.818969727,6979503.154754639,17175399.780273438,2352108.0017089844,2691014.528274536,-9293366.432189941,-6421142.101287842,2935596.704483032,-5738451.4808654785,3229912.757873535,-726847.4102020264,-1615103.9600372314,461155.56359291077,-1751244.9026107788,-15204294.204711914,1200877.070426941,-7868527.889251709,-3374254.9419403076,8163780.212402344,9163387.298583984,8460726.737976074,-1822807.1928024292,-1052697.777748108,2119634.1514587402,-14019715.309143066,-1048126.4591217041,-7900308.132171631,573233.3064079285,2817451.000213623,-3442173.480987549,-11205057.144165039,9760066.986083984,2860322.4754333496,-13768627.166748047,-16614303.588867188,-9850105.285644531,89639.67114686966,-3757479.9060821533,-3690844.2974090576,1115509.1524124146,-5118553.161621094,-12344503.402709961,-19940628.051757812,-19029026.03149414,-17480510.711669922,-13871483.80279541,-8166907.31048584,-7430008.888244629,-60118.24309825897,-3152431.011199951,-23104705.810546875,-23276689.529418945,-19776216.506958008,-13003004.07409668,-6286043.643951416,-8266608.238220215,-1567349.1954803467,-12860496.520996094,-20693271.63696289,-11970405.578613281,-7140685.081481934,-8207723.617553711
0.085,26579168.31970215,9685228.34777832,20605180.740356445,5022625.923156738,2543054.1038513184,-9742598.533630371,-5975271.224975586,7347558.975219727,-3832731.7237854004,3902253.1509399414,-1159159.541130066,-1597424.030303955,359065.2346611023,-1566481.9478988647,-15019568.44329834,1640215.277671814,-7599073.41003418,-530994.8921203613,9220353.126525879,10007152.557373047,9520054.817199707,-1761646.032333374,-252086.341381073,2081924.9153137207,-11598990.440368652,-2010717.6303863525,-8794212.341308594,-1096747.875213623,1801722.764968872,-4595037.937164307,-12479730.606079102,10424942.016601562,2985228.5385131836,-15589224.815368652,-17229970.932006836,-10936222.076416016,-39969.03821825981,-5112924.575805664,-4840334.415435791,795432.8656196594,-5758005.142211914,-13332585.334777832,-21428554.53491211,-20694755.55419922,-16940759.658813477,-15056135.177612305,-9293620.109558105,-8631359.100341797,243055.17971515656,-2673484.8022460938,-23224124.908447266,-23053457.260131836,-19629098.892211914,-14128146.171569824,-7509650.707244873,-9227040.29083252,-2286248.9223480225,-12003931.999206543,-20004199.981689453,-13343311.309814453,-8438396.453857422,-9386882.781982422
0.09,21758703.231811523,4757677.07824707,15487537.384033203,194039.0169620514,-2739375.114440918,-13277189.254760742,-10004290.580749512,2953728.437423706,-8102273.941040039,1624616.8613433838,-5991857.051849365,-6451451.778411865,-4572833.53805542,-6375584.602355957,-17796533.584594727,-2218577.8617858887,-11339277.267456055,-3233856.678009033,7609042.644500732,8186889.6484375,7667409.896850586,-6517825.126647949,-5092764.377593994,-2133858.9191436768,-14033232.688903809,-4686343.669891357,-10679759.979248047,-2237869.0242767334,-47102.01546549797,-7279614.448547363,-17734533.309936523,6954657.554626465,-795182.5857162476,-20477560.04333496,-18642593.383789062,-12624588.966369629,-9078.548289835453,-7731845.855712891,-7408947.944641113,-2770541.191101074,-9338800.430297852,-13838108.06274414,-22828405.380249023,-22127584.45739746,-18493700.02746582,-14182711.601257324,-11370102.882385254,-10430042.266845703,-2804034.471511841,-5917132.85446167,-23926414.489746094,-23583984.375,-20739816.665649414,-13371174.812316895,-9494399.070739746,-11015202.522277832,-5977434.6351623535,-12411305.42755127,-20305934.90600586,-12691493.034362793,-10331018.447875977,-11293203.353881836
0.095,18742305.755615234,2449960.231781006,11982356.071472168,-3893514.1563415527,-5214775.085449219,-12166536.331176758,-12167678.833007812,-2515306.4727783203,-11748950.958251953,882754.2066574097,-7516423.70223999,-8011356.353759766,-6120627.403259277,-8003592.491149902,-15917355.53741455,-3012116.6706085205,-13320550.918579102,-6189396.381378174,7276327.610015869,7984260.082244873,7253387.451171875,-8078870.77331543,-6458665.370941162,-896402.2994041443,-15476168.632507324,-5267784.595489502,-11170525.550842285,-1396753.0727386475,83234.2654466629,-8363621.711730957,-19711410.522460938,6986809.253692627,-1101654.6487808228,-23011693.954467773,-17837331.771850586,-12899721.145629883,148667.93155670166,-8479921.340942383,-8315575.59967041,-4678521.633148193,-10191177.368164062,-10557488.441467285,-21235345.8404541,-20451354.98046875,-19619346.618652344,-11494563.102722168,-11724880.21850586,-10451022.148132324,-5657627.582550049,-7744581.699371338,-22772193.908691406,-22624914.169311523,-20322271.3470459,-10825228.691101074,-9229076.385498047,-10783819.198608398,-6410588.74130249,-11611523.628234863,-19460937.5,-9819798.469543457,-9852271.08001709,-10937413.215637207
0.1,23455514.907836914,7970675.945281982,16117921.829223633,-1493406.057357788,-1344200.0150680542,-5314910.411834717,-9432014.465332031,-2260019.063949585,-10275570.8694458,2700876.474380493,-3235434.055328369,-3435796.9760894775,-1585676.908493042,-3562259.4356536865,-8693566.32232666,1527026.5340805054,-11144360.542297363,-5662051.200866699,9130983.352661133,10196139.335632324,9374996.185302734,-3625482.7976226807,-1415210.0086212158,6758269.786834717,-12258407.592773438,-2773980.6175231934,-9563892.364501953,468244.13537979126,1884126.1863708496,-6917517.66204834,-16610988.61694336,12278812.408447266,3719426.8703460693,-21251176.834106445,-14274796.485900879,-11551642.417907715,233031.86893463135,-6716176.509857178,-6777710.437774658,-2527115.3450012207,-6321389.198303223,-5360723.01864624,-16972108.840942383,-16219949.722290039,-18416578.29284668,-8886937.141418457,-9861300.468444824,-8754986.763000488,-5925558.090209961,-5234518.527984619,-19613433.837890625,-19696060.180664062,-17290910.720825195,-8226423.263549805,-6320670.604705811,-8114731.788635254,-1935461.8787765503,-8451967.239379883,-16439949.035644531,-6678030.014038086,-6837387.561798096,-7968696.117401123
0.105,29253740.310668945,13119689.94140625,20332139.96887207,2442907.3333740234,2834451.43699646,-1192866.2061691284,-6561335.563659668,-253630.93614578247,-7912621.974945068,2616976.022720337,327509.3138217926,414883.73279571533,2114424.705505371,145821.213722229,-4904609.203338623,4419133.186340332,-9436707.496643066,-4554789.066314697,9703516.006469727,10976064.682006836,10267283.43963623,87134.89025831223,2305902.4810791016,10317755.699157715,-9089807.510375977,-673153.7580490112,-8013165.473937988,1437450.0513076782,2451553.5831451416,-5170400.142669678,-14501019.477844238,16016088.485717773,6577919.006347656,-20060316.08581543,-11150474.548339844,-10757924.07989502,158008.6201429367,-4926933.765411377,-5109532.833099365,544714.9872779846,-2472665.0714874268,-3322174.7875213623,-13592376.708984375,-13026799.201965332,-16479482.650756836,-7840236.186981201,-8113455.772399902,-7296891.212463379,-4842379.093170166,-1960992.8131103516,-16930917.739868164,-16828102.111816406,-14475680.351257324,-7106640.338897705,-3820823.1925964355,-5862741.470336914,1853486.180305481,-5638533.115386963,-13546946.52557373,-5299773.216247559,-4397882.461547852,-5454224.586486816
0.11,27069826.126098633,9434926.03302002,16089248.657226562,1035009.503364563,1587884.783744812,-5606677.055358887,-8672418.594360352,-3052485.227584839,-9963190.078735352,-1878725.6479263306,-1823655.128479004,-1805294.8713302612,-199954.25641536713,-2131655.9314727783,-10116853.713989258,53794.652223587036,-12209143.63861084,-6391826.152801514,7376183.50982666,8587821.006774902,7953959.941864014,-2237645.387649536,-802942.9912567139,3343172.073364258,-11661576.271057129,-2155287.027359009,-8565532.684326172,1325683.2361221313,945594.6087837219,-4787534.713745117,-17316223.14453125,13737530.708312988,2499289.9894714355,-24869096.755981445,-11781536.102294922,-12412866.592407227,130957.20112323761,-4738697.052001953,-4929936.88583374,1110494.0176010132,-2750488.519668579,-6388125.419616699,-14207992.553710938,-13736731.52923584,-16901010.513305664,-8355450.630187988,-8075102.806091309,-6797403.335571289,-4145336.151123047,-2178514.9574279785,-17152696.60949707,-16415792.465209961,-15346679.6875,-7592620.372772217,-3927487.61177063,-6020155.429840088,515698.1348991394,-6319205.284118652,-13861165.046691895,-5956042.766571045,-4539418.697357178,-5554677.963256836
0.115,19511281.967163086,2217379.570007324,8505613.327026367,-3198969.3641662598,-1812555.5515289307,-12599221.229553223,-13397451.400756836,-7581987.8578186035,-13756258.964538574,-6631096.363067627,-5402266.502380371,-5352975.368499756,-3640715.1222229004,-5593884.9449157715,-17797502.517700195,-6487663.745880127,-15955566.40625,-8722771.644592285,5681195.7359313965,6772830.009460449,5985750.675201416,-5870438.575744629,-4735920.9060668945,-5747532.844543457,-16705564.498901367,-5556823.73046875,-10351103.782653809,1580447.3161697388,-160643.14544200897,-4590680.122375488,-20435354.232788086,10568699.836730957,-2956538.200378418,-33666248.3215332,-15262191.772460938,-15369431.495666504,408247.9476928711,-4746681.690216064,-4907127.857208252,447781.2647819519,-4462109.088897705,-10857817.649841309,-17887340.545654297,-17261930.465698242,-19628074.645996094,-9540117.263793945,-8295542.7169799805,-6164483.070373535,-3009745.1210021973,-4230828.285217285,-19546176.91040039,-18231338.500976562,-19017292.022705078,-8760956.764221191,-4838662.147521973,-6758109.569549561,-2588041.5439605713,-9135592.460632324,-16811626.434326172,-7254364.967346191,-5343121.528625488,-6442577.838897705
0.12,17048883.43811035,2841578.0067443848,8863484.382629395,-2503906.011581421,-1269526.720046997,-12615945.816040039,-14435980.796813965,-5632078.647613525,-12867621.421813965,-6690780.162811279,-4298765.182495117,-3484694.004058838,-1595825.1953125,-3586340.1889801025,-17971054.077148438,-6335824.966430664,-14739820.48034668,-6986176.013946533,7771737.575531006,8815170.288085938,7808338.165283203,-4016320.7054138184,-1723621.4876174927,-4769518.852233887,-15903886.795043945,-6527151.107788086,-10934248.924255371,2861514.091491699,744727.6711463928,-3173921.3466644287,-18307685.85205078,12994052.88696289,-1147940.754890442,-38673110.96191406,-17132751.46484375,-16482542.037963867,871876.4781951904,-3397648.811340332,-3467072.7252960205,1520226.9554138184,-2866049.05128479,-11519859.313964844,-20241659.16442871,-19402837.7532959,-20987852.096557617,-10387196.54083252,-6819802.284240723,-4951647.758483887,-115556.09852075577,-3740069.86618042,-20447540.283203125,-19138355.255126953,-20672271.728515625,-9512081.146240234,-3632456.5410614014,-5343018.531799316,-1679552.9127120972,-9642446.517944336,-18321641.92199707,-7531527.519226074,-4051197.5288391113,-5244413.85269165
0.125,22800273.895263672,11887001.037597656,17153301.239013672,4038156.9862365723,2590987.6823425293,-5640316.486358643,-10317740.440368652,2640007.495880127,-7035861.015319824,-2858154.296875,-143276.72123908997,1743972.897529602,3627362.9665374756,1687546.2532043457,-10524517.059326172,506359.0407371521,-9146905.899047852,-1973373.532295227,11316182.136535645,12261009.216308594,11279383.659362793,1337770.700454712,5260143.280029297,5296747.207641602,-8279396.057128906,-3829144.9546813965,-9607044.219970703,4195271.015167236,1805482.029914856,-1740232.7060699463,-13498497.009277344,18731956.481933594,7135986.804962158,-36192028.0456543,-14844005.584716797,-14533382.415771484,1048304.4385910034,-1915601.7303466797,-1778520.2264785767,3604714.1551971436,1175981.1639785767,-7499497.890472412,-18320713.04321289,-17481351.852416992,-18853643.4173584,-10445539.474487305,-4597593.307495117,-4501173.973083496,2997533.7982177734,-1027209.7587585449,-17661125.18310547,-16820001.60217285,-17812376.022338867,-9478079.795837402,-992889.404296875,-2647342.2050476074,2468799.114227295,-6810081.005096436,-16193849.563598633,-6456485.748291016,-1527862.0719909668,-2692854.881286621
0.13,29265586.853027344,19165018.08166504,22420570.373535156,9591220.85571289,4952575.206756592,-32125.34263730049,-5487813.472747803,8561470.031738281,-1945756.9122314453,1086625.4568099976,1574444.6516036987,3709454.7748565674,5384953.498840332,3612578.6304473877,-4164194.5838928223,5891741.752624512,-5109412.670135498,1461847.6629257202,12432577.133178711,13156634.330749512,12464996.337890625,3488090.753555298,7733867.645263672,12353741.645812988,-1987264.0371322632,-564010.2624893188,-7914616.107940674,4689471.72164917,1011975.5268096924,-2270170.6886291504,-12216661.45324707,21012138.36669922,12631647.109985352,-31329610.82458496,-11154478.073120117,-11795609.474182129,673504.2333602905,-2365615.3678894043,-1991511.2257003784,3737041.234970093,3029418.468475342,-3285709.857940674,-14405696.868896484,-13767864.227294922,-16158554.077148438,-10520863.53302002,-4341824.531555176,-5848027.70614624,3442879.4384002686,-466545.4626083374,-14023814.20135498,-13423400.87890625,-13987854.00390625,-9634163.856506348,-549717.6647186279,-2259800.1956939697,3935124.397277832,-4917813.777923584,-13439973.831176758,-5650134.563446045,-1289023.3993530273,-2357846.975326538
0.135,30097503.662109375,18979320.526123047,19393743.51501465,9885573.387145996,5428882.122039795,-343954.50353622437,-3663440.227508545,7755842.208862305,-589882.2546005249,4332943.439483643,1110348.105430603,2478083.372116089,3975215.196609497,2401660.680770874,-4117871.2844848633,5525127.410888672,-5177487.850189209,1577709.3172073364,11975629.806518555,12556615.829467773,12074049.949645996,2320029.4971466064,5421256.065368652,10071277.618408203,-2891066.551208496,441451.40051841736,-7187384.605407715,4868465.423583984,-197843.7751531601,-4186951.160430908,-13998979.568481445,19561626.434326172,10052949.905395508,-31158664.70336914,-10751619.338989258,-10934351.921081543,82050.1372218132,-4214001.655578613,-3757108.688354492,1980939.8651123047,2024298.4294891357,-3856244.3256378174,-13507806.777954102,-13035122.871398926,-17182983.3984375,-12189276.695251465,-6599176.88369751,-7913665.771484375,1140308.3801269531,-3309481.620788574,-14629090.309143066,-13634036.06414795,-14423387.52746582,-11501366.61529541,-3706790.2088165283,-5408668.518066406,732694.0894126892,-7587875.843048096,-14469000.816345215,-7153097.629547119,-4482258.319854736,-5526252.746582031
0.14,27818107.60498047,16318809.509277344,14630517.00592041,8173894.882202148,7607922.554016113,-2692494.6308135986,-4014935.01663208,4999726.77230835,-404876.2619495392,8069052.696228027,3220187.6640319824,3911163.091659546,5410989.284515381,3921979.1889190674,-6836966.514587402,3462367.7730560303,-6124107.360839844,952519.1187858582,13611434.936523438,14330410.957336426,13691596.984863281,3640249.729156494,5709462.1658325195,4647873.401641846,-7508021.831512451,-63970.63285112381,-7100562.572479248,5639493.942260742,724944.7107315063,-5314801.216125488,-12928152.084350586,20025556.564331055,3746504.068374634,-36076663.970947266,-14537346.839904785,-11584564.208984375,-161900.66933631897,-5269720.554351807,-4966596.603393555,959965.8846855164,1864672.5416183472,-9290845.87097168,-17358232.498168945,-16869838.71459961,-21797304.153442383,-15869641.304016113,-9250624.656677246,-9117053.985595703,-1334005.355834961,-6233077.526092529,-20370128.631591797,-18748502.731323242,-19467321.395874023,-15238007.545471191,-7869769.57321167,-9495210.647583008,-2870323.1811523438,-12920450.210571289,-19346990.58532715,-10980049.133300781,-8489251.136779785,-9586971.282958984
0.145,27988645.553588867,17287101.74560547,14851401.329040527,9207391.738891602,11823496.81854248,-2197655.439376831,-3878814.935684204,5388572.692871094,1309061.1696243286,11276972.770690918,8235216.14074707,9130189.895629883,10713129.043579102,9093827.247619629,-6885241.508483887,4335680.961608887,-5021134.376525879,1434474.9450683594,17339029.31213379,18351621.627807617,17332620.62072754,8690900.802612305,10939199.447631836,4261366.367340088,-9374652.862548828,318682.4321746826,-6789341.449737549,6796025.276184082,2996590.3759002686,-5471888.065338135,-8037308.692932129,23848112.106323242,546418.7860488892,-40464195.251464844,-18824167.251586914,-11287678.718566895,62523.7375497818,-5311631.679534912,-5317704.677581787,787903.1300544739,3560571.4321136475,-14678576.469421387,-22419679.641723633,-21790292.739868164,-25859640.12145996,-19792362.213134766,-10875224.113464355,-9716161.727905273,-2760606.288909912,-7305612.087249756,-26376674.65209961,-24594333.64868164,-24778457.641601562,-18975728.98864746,-10376675.605773926,-12049160.957336426,-3531676.5308380127,-16771671.295166016,-24109252.9296875,-14796996.116638184,-10882040.023803711,-11989160.537719727
0.15,31264877.319335938,20943073.272705078,17773744.583129883,12873847.007751465,14355409.622192383,497275.9783267975,-2279673.8147735596,7665667.0570373535,3760622.501373291,11895305.633544922,11099259.376525879,12523763.656616211,14130440.711975098,12232953.071594238,-4044924.736022949,6991265.296936035,-3102064.609527588,2196581.1252593994,19401086.807250977,20563533.782958984,19315118.78967285,11988372.802734375,14957722.663879395,8594976.425170898,-7581564.903259277,2221309.9002838135,-6190307.140350342,7423702.239990234,3406562.566757202,-6505407.810211182,-5487572.66998291,25977149.963378906,1686904.1919708252,-40418121.337890625,-19966897.96447754,-9117824.55444336,374328.3152580261,-6195896.148681641,-6512997.627258301,-1193273.1866836548,3261817.216873169,-15600069.999694824,-24334684.371948242,-23550006.866455078,-26646863.93737793,-21754905.700683594,-12329573.631286621,-10990751.266479492,-4379905.700683594,-8745430.946350098,-27979125.9765625,-26638727.18811035,-27303972.244262695,-20714584.350585938,-11761006.355285645,-13650296.211242676,-3424898.624420166,-18664804.458618164,-26263788.2232666,-16549852.37121582,-12343116.760253906,-13354660.987854004
0.155,34307491.302490234,23476640.701293945,18485862.731933594,15662846.565246582,13711540.222167969,1998260.6172561646,-165631.68168067932,8714077.949523926,5070260.524749756,10665363.311767578,9491239.547729492,11062939.643859863,12665271.759033203,10587401.390075684,-1762605.7863235474,8078557.968139648,-2500412.702560425,2655491.828918457,18248258.590698242,19355588.912963867,18163497.924804688,10552947.998046875,13672036.170959473,12071444.511413574,-5486241.817474365,4368377.208709717,-5817783.832550049,7310547.351837158,1274224.2813110352,-8511110.305786133,-8787313.461303711,23755994.79675293,3882550.7164001465,-37517883.30078125,-17880149.841308594,-6732574.939727783,475536.3166332245,-8125189.781188965,-8585023.880004883,-4757706.642150879,-927133.2621574402,-12796283.721923828,-22513143.53942871,-21638248.443603516,-25092655.181884766,-21385337.829589844,-14056519.508361816,-12391634.941101074,-6267642.498016357,-11773588.180541992,-26086828.231811523,-25304901.123046875,-28000160.217285156,-20284185.4095459,-13390391.34979248,-15412570.95336914,-5214095.115661621,-21003358.840942383,-27110977.172851562,-16478080.749511719,-14115031.242370605,-15013035.774230957
0.16,34824333.19091797,24200204.849243164,17537641.525268555,15113782.88269043,12325052.261352539,1265198.7075805664,801892.0421600342,8519940.376281738,4507047.176361084,9641633.033752441,6844217.300415039,8611442.565917969,10270893.096923828,8313036.918640137,-2013822.317123413,7131843.090057373,-3126180.410385132,3050596.9524383545,16286487.579345703,17363201.141357422,16313909.530639648,8263074.87487793,11029370.307922363,12379229.545593262,-4744606.494903564,5677377.223968506,-6018127.918243408,7117721.080780029,-584753.9901733398,-8996040.344238281,-13255131.721496582,21361566.5435791,4676446.914672852,-35106266.021728516,-14624367.713928223,-5785825.252532959,487052.0234107971,-8721682.54852295,-9032106.399536133,-5609820.84274292,-4948852.5390625,-10309436.798095703,-19217554.092407227,-18382478.713989258,-22778223.037719727,-19917488.09814453,-14367913.246154785,-11823108.673095703,-6001624.584197998,-13333058.35723877,-24542364.1204834,-24002584.45739746,-28314550.399780273,-18874704.360961914,-14223249.435424805,-16097257.614135742,-6931871.41418457,-23670740.127563477,-28094747.54333496,-15879119.873046875,-14953276.634216309,-15839859.962463379
0.165,32965412.139892578,24051422.119140625,17887313.842773438,11598428.726196289,11650673.866271973,-326316.11824035645,-500627.9945373535,7998064.994812012,1973889.2316818237,8080998.420715332,6102164.745330811,8851897.239685059,10594519.61517334,8946869.850158691,-3992776.393890381,5556388.378143311,-4148620.128631592,2127516.508102417,15310636.520385742,16537328.720092773,15549604.415893555,8745056.15234375,11532961.84539795,11563769.340515137,-4364092.826843262,6239463.329315186,-6860143.661499023,7141186.237335205,-330847.76997566223,-6951117.515563965,-13314620.971679688,22622404.098510742,4251849.65133667,-33939567.56591797,-11520178.79486084,-5914040.565490723,606022.4175453186,-6924222.469329834,-6889771.461486816,-1955010.6525421143,-4786376.476287842,-9856278.419494629,-16017900.466918945,-15361203.19366455,-19848215.103149414,-18471168.518066406,-12261979.103088379,-9315437.316894531,-2700212.7170562744,-11006483.07800293,-24044366.83654785,-23424722.67150879,-27237606.048583984,-17467712.40234375,-12553908.348083496,-14184691.429138184,-5587264.060974121,-23468439.10217285,-27809381.48498535,-15101791.381835938,-13118951.797485352,-14124149.322509766
0.17,30247455.596923828,22635950.088500977,18655027.389526367,7875940.322875977,10266602.516174316,-1413765.6688690186,-3027954.8168182373,6740003.1089782715,-1606359.4818115234,3993391.0369873047,5712013.721466064,9786260.604858398,11544174.194335938,10056919.09790039,-5957206.726074219,3922749.7577667236,-5463295.936584473,-1587925.4341125488,14202363.014221191,15615563.39263916,14694427.490234375,9815131.187438965,13266059.875488281,11234121.322631836,-3606225.9674072266,6714391.231536865,-8039141.654968262,6750917.434692383,362699.0020275116,-5056344.032287598,-10194917.678833008,24963533.401489258,3837866.0678863525,-32849105.834960938,-8995338.439941406,-5990436.07711792,733803.5702705383,-5188810.8253479,-4961215.972900391,1832411.289215088,-2511357.069015503,-9317879.676818848,-13263780.59387207,-12809996.604919434,-16901729.583740234,-17550258.63647461,-9965559.959411621,-7973747.253417969,389511.70444488525,-7728153.228759766,-22073282.24182129,-21211862.564086914,-23784942.626953125,-16559061.050415039,-9606251.71661377,-11206378.936767578,-2879474.878311157,-19472688.674926758,-24650774.002075195,-13942333.221435547,-9966443.061828613,-11147828.102111816
0.175,29228864.669799805,20577466.96472168,17596899.032592773,7646553.039550781,8032936.096191406,-1073784.351348877,-3527266.9792175293,5822392.94052124,-3114442.3484802246,-675076.0674476624,4102552.4139404297,8705249.786376953,10425684.928894043,8795559.883117676,-6457637.786865234,2827730.178833008,-6093537.8074646,-5559181.213378906,12551470.756530762,13965402.603149414,13216085.433959961,8619826.316833496,12798158.645629883,11064655.303955078,-2530961.275100708,7634086.132049561,-8531135.559082031,5493896.007537842,-410464.6444320679,-5763637.065887451,-8041380.882263184,24683105.46875,4510716.915130615,-31794111.251831055,-7990832.328796387,-6166000.843048096,688735.4254722595,-5820991.992950439,-5795471.19140625,1553390.0260925293,-2156859.3978881836,-7186197.757720947,-12099509.239196777,-11710420.608520508,-16090267.181396484,-17584093.09387207,-10123820.304870605,-9671006.202697754,145469.0247774124,-7540089.130401611,-18546760.55908203,-17365583.419799805,-20247135.162353516,-16640026.092529297,-8319022.178649902,-10076378.82232666,-2720933.675765991,-15453988.075256348,-20619918.823242188,-13102079.391479492,-8578003.883361816,-9882810.592651367
0.18,31933938.98010254,21072294.235229492,16427818.298339844,12110177.040100098,7835182.189941406,976051.6881942749,-284405.8573246002,8105770.111083984,7895.635440945625,-1031244.9932098389,3679041.1472320557,7870362.758636475,9579336.166381836,7748129.844665527,-5107941.150665283,3477011.6806030273,-4167691.707611084,-4903475.284576416,12852636.337280273,14104602.813720703,13493932.723999023,7556112.766265869,11981232.643127441,10966789.245605469,-1031727.5524139404,8913573.265075684,-7265448.093414307,4234714.031219482,-1411270.260810852,-7209487.438201904,-6301229.476928711,23868745.803833008,6303453.9222717285,-32240379.333496094,-9430890.083312988,-7492847.442626953,583492.0406341553,-7083767.890930176,-7439386.84463501,-28405.95878660679,-2514626.0261535645,-5796430.587768555,-14079494.47631836,-13552628.517150879,-18270685.19592285,-18436630.249023438,-11552688.598632812,-11617806.434631348,-1470236.06300354,-8969773.292541504,-17412250.518798828,-15943689.346313477,-20069684.982299805,-17551525.115966797,-8792479.515075684,-10626372.337341309,-4500782.489776611,-15060522.079467773,-19577253.341674805,-13407639.503479004,-9124029.159545898,-10408543.586730957
0.185,36585647.58300781,25110006.33239746,18253728.86657715,17453880.310058594,11136800.765991211,2797790.288925171,3417558.431625366,12564072.608947754,5233488.082885742,3849404.3350219727,6993861.198425293,10723814.964294434,12425941.467285156,10652457.237243652,-3603792.428970337,4872902.393341064,-426820.2781677246,171887.39776611328,16573017.120361328,17742637.634277344,17047378.540039062,10345893.859863281,14442625.999450684,11232231.140136719,77291.71961545944,9481217.384338379,-4757949.352264404,4396737.575531006,-410892.0395374298,-5799347.400665283,-1610264.6589279175,26685264.587402344,7287961.483001709,-34897487.64038086,-12328131.675720215,-10050045.013427734,675749.2423057556,-5615230.083465576,-6089149.951934814,2721374.750137329,639256.7157745361,-7953008.651733398,-18215507.50732422,-17414525.985717773,-20896457.67211914,-18525609.970092773,-10610759.735107422,-9687049.865722656,7140.305824577808,-7185117.244720459,-20655229.568481445,-19089132.30895996,-22933231.353759766,-17653968.811035156,-7865079.402923584,-9651172.637939453,-3535262.3462677,-16897111.892700195,-21873172.760009766,-13771173.477172852,-8421327.590942383,-9526556.968688965
0.19,38475074.768066406,28377658.84399414,21930438.995361328,18723756.790161133,15354058.265686035,1245598.316192627,2709660.768508911,13444346.42791748,7134947.776794434,9288155.555725098,12111835.479736328,15712937.355041504,17323299.407958984,15818486.213684082,-4577512.264251709,3637712.4786376953,1381341.2189483643,3430511.713027954,20878120.42236328,22188049.31640625,21268367.767333984,15462745.666503906,18780067.443847656,11041480.06439209,-1206185.221672058,8178418.159484863,-3141882.1811676025,6049062.728881836,1934491.0383224487,-1632123.9471435547,4864322.662353516,31724290.84777832,5358227.252960205,-38253520.96557617,-14033839.225769043,-12629502.296447754,927584.3501091003,-1539408.6837768555,-1783253.9081573486,9516629.219055176,6741918.087005615,-11969088.554382324,-20752017.974853516,-19668550.491333008,-21022388.458251953,-16069664.001464844,-6429898.738861084,-4138533.592224121,5151575.565338135,-1568442.940711975,-24012756.34765625,-22501874.923706055,-24533475.875854492,-15196215.629577637,-3675712.5854492188,-5515428.066253662,1799447.8940963745,-16685760.498046875,-23366668.701171875,-11887123.107910156,-4488914.012908936,-5354548.931121826
0.195,36006443.02368164,26920948.028564453,23712144.85168457,16422220.230102539,17500965.118408203,-3527817.487716675,-1905916.5716171265,8798366.54663086,4904727.458953857,11328067.779541016,15079803.466796875,18413509.368896484,19870353.69873047,18517652.51159668,-7896786.212921143,-614682.3763847351,-160279.9892425537,1380991.4588928223,22024353.02734375,23557352.06604004,22545005.798339844,18216382.98034668,20747070.3125,9641872.40600586,-4728887.557983398,5694213.8671875,-3683013.677597046,7448669.43359375,2916345.8347320557,1622096.1809158325,7860889.911651611,33870819.091796875,1965078.592300415,-39633949.279785156,-12953041.076660156,-14235745.429992676,1042100.0719070435,1664622.6644515991,1650656.3425064087,14428649.90234375,10446197.509765625,-13084044.456481934,-19265094.757080078,-18027507.781982422,-19246507.64465332,-11630216.598510742,-2060687.0651245117,648721.3969230652,10102289.199829102,3293003.0822753906,-22067178.72619629,-20520215.98815918,-21913921.356201172,-10794807.434082031,1738924.3841171265,-301235.8844280243,7478238.105773926,-13139756.202697754,-20784770.965576172,-7514059.066772461,806059.718132019,83651.23718976974
0.2,33590896.60644531,23868801.11694336,23696405.4107666,16229532.241821289,18033620.834350586,-6557550.90713501,-4255085.468292236,5480961.799621582,3958829.641342163,11152829.17022705,15357512.474060059,18332056.045532227,19709871.292114258,18266706.466674805,-9419875.144958496,-2490038.8717651367,-1024244.9045181274,-1355490.3268814087,20422475.814819336,22011034.01184082,21118368.14880371,17976697.92175293,20609119.415283203,8828828.811645508,-6222400.665283203,4767850.399017334,-5000682.353973389,6979321.479797363,1875384.0923309326,1831277.9664993286,5965660.572052002,32777267.456054688,1896071.434020996,-37513999.938964844,-10207546.23413086,-15101424.217224121,942662.4774932861,1952192.1873092651,1936306.8342208862,14476016.0446167,9674272.537231445,-9810997.96295166,-15763319.01550293,-14577019.691467285,-18578598.022460938,-8388801.574707031,-337429.2552471161,1570710.0629806519,11976887.702941895,4272420.406341553,-16213867.1875,-14484019.27947998,-17394378.662109375,-7575929.641723633,5067172.050476074,2967563.8675689697,9279270.17211914,-9495314.598083496,-16363483.428955078,-3808624.029159546,4245434.284210205,3498819.589614868
0.205,35559314.7277832,25280471.801757812,25294595.71838379,20847246.170043945,18789941.787719727,-3947616.1003112793,-693801.4030456543,10071906.089782715,8002169.609069824,11422752.380371094,15424273.490905762,18805341.720581055,20227468.490600586,18676120.75805664,-5669303.417205811,2423172.4739074707,2656259.775161743,773026.4067649841,19473789.21508789,20897027.96936035,20124938.96484375,18291379.928588867,22272432.327270508,11276041.984558105,-2360335.8268737793,7114088.05847168,-4935105.323791504,5209547.996520996,896679.5206069946,309822.9765892029,3582519.054412842,33050270.080566406,7150692.462921143,-33138484.954833984,-8270562.171936035,-16100429.53491211,883399.7845649719,475517.213344574,418973.77371788025,12627750.396728516,7985881.328582764,-6233713.150024414,-14365708.351135254,-13356465.339660645,-20232131.958007812,-9174654.960632324,-1291688.2038116455,-835644.9007987976,11267754.554748535,2884956.5982818604,-13625006.675720215,-11870393.753051758,-16019004.821777344,-8273346.900939941,4823913.57421875,2968891.8590545654,7174719.81048584,-9579873.085021973,-15446455.001831055,-4342014.789581299,4274465.560913086,3423213.7203216553
0.21,39452808.38012695,30534519.19555664,28638116.83654785,25869609.832763672,19383966.44592285,1180863.1420135498,4599802.017211914,18433725.357055664,13360950.469970703,11809213.638305664,16094284.057617188,20623039.24560547,22102039.337158203,20622819.900512695,871479.0940284729,10131280.899047852,8041712.760925293,5531473.636627197,20430494.30847168,21672800.064086914,20821281.43310547,20172019.958496094,25487598.419189453,15885798.454284668,3435804.605484009,10762758.255004883,-3635089.39743042,4294638.156890869,1313209.1760635376,-1421598.6728668213,3677301.6452789307,35618339.53857422,13092773.4375,-29869089.126586914,-8557165.145874023,-17667146.682739258,983612.596988678,-1384817.6002502441,-1304824.2330551147,11681054.11529541,7803273.677825928,-6789446.3539123535,-16581295.013427734,-15685672.760009766,-22663011.55090332,-13515143.394470215,-3855310.4400634766,-4930963.516235352,9015123.36730957,1282091.2599563599,-17854339.599609375,-16469781.875610352,-19648632.049560547,-12458674.430847168,1538934.350013733,-65312.96670436859,3469614.7441864014,-13770672.798156738,-19883064.27001953,-9081795.692443848,1224054.455757141,337748.55732917786
0.215,38960849.76196289,32093379.974365234,29176334.381103516,25825685.501098633,17850738.525390625,1808311.8200302124,5034696.578979492,20579900.74157715,14090932.846069336,10688178.062438965,15347172.737121582,20139013.290405273,21603433.60900879,20244920.73059082,3666568.2792663574,12171611.785888672,8552899.360656738,6212157.726287842,21215295.791625977,22464370.727539062,21396413.803100586,19870050.43029785,24677888.870239258,17553596.49658203,4068252.0866394043,11942676.544189453,-3320430.7556152344,5316113.471984863,1799713.0155563354,-3786023.3783721924,3189960.241317749,35116180.419921875,13351844.787597656,-30336109.161376953,-10703477.85949707,-19383045.196533203,965005.2785873413,-3911315.91796875,-3685195.6844329834,10035921.096801758,6501074.79095459,-10885937.690734863,-20242683.41064453,-19325845.71838379,-24386838.912963867,-18157047.271728516,-7478802.20413208,-9797618.865966797,5158664.703369141,-1032894.1345214844,-24264654.1595459,-23395696.64001465,-24936456.68029785,-17053169.25048828,-3140939.712524414,-4872646.808624268,-335393.0115699768,-19101552.963256836,-25753070.831298828,-14280571.937561035,-3444300.1747131348,-4243431.091308594
0.22,32568687.438964844,25941335.678100586,24570505.142211914,21375959.396362305,13933979.034423828,-4316949.367523193,110091.1870598793,14351459.503173828,9969379.425048828,8834231.37664795,12079509.735107422,15132056.23626709,16588958.740234375,15167962.074279785,-248038.50054740906,6576901.435852051,2777495.3842163086,1542027.9502868652,20238386.154174805,21625463.485717773,20424760.818481445,14918217.658996582,17443937.301635742,13196371.078491211,-2109126.091003418,9744939.804077148,-4943084.239959717,6970665.454864502,817778.2893180847,-6962866.78314209,-1426614.8805618286,28634860.99243164,7634633.0642700195,-33718685.150146484,-13325723.648071289,-20320091.247558594,560234.3082427979,-7054636.001586914,-6942707.061767578,5929221.630096436,1881650.9246826172,-14236981.391906738,-22527542.114257812,-21585004.806518555,-25437816.619873047,-20327148.4375,-11031232.833862305,-13909358.978271484,830264.2107009888,-4663549.900054932,-26516077.041625977,-25871837.615966797,-27323709.48791504,-19376096.725463867,-6731655.597686768,-8893409.729003906,-3261002.3021698,-22342988.967895508,-28184028.62548828,-16427309.036254883,-7264770.5078125,-7938971.996307373
0.225,25679618.83544922,17507612.228393555,19166362.762451172,17455537.796020508,9993864.059448242,-11933428.764343262,-4690452.098846436,7706600.189208984,5876557.82699585,8441343.307495117,8652515.411376953,9381655.6930542,10936175.346374512,9308248.519897461,-6551132.2021484375,379668.32518577576,-3567156.7916870117,-3009724.8554229736,18859941.482543945,20284172.05810547,19160036.087036133,9063863.754272461,9809477.806091309,6362021.923065186,-8817001.342773438,7304304.599761963,-6738254.547119141,7284237.861633301,-841947.7343559265,-9096909.523010254,-7522460.9375,22112173.080444336,2069369.5545196533,-36286056.51855469,-14946333.885192871,-19997797.0123291,-24616.97719991207,-9015782.356262207,-9155242.919921875,2043205.4996490479,-2685703.754425049,-14146451.950073242,-22619878.7689209,-21751554.489135742,-25874305.725097656,-20114240.646362305,-12518857.955932617,-15070263.862609863,-898877.3226737976,-7525236.129760742,-24493064.880371094,-23754299.16381836,-25956304.5501709,-19407230.377197266,-7285777.0919799805,-9734832.763671875,-4002842.903137207,-22545314.78881836,-26827116.012573242,-15654079.43725586,-8087157.249450684,-8715019.226074219
0.23,23152048.110961914,14246384.620666504,18584106.4453125,16013463.973999023,8663757.32421875,-15251134.872436523,-5827174.663543701,6724440.574645996,4616441.72668457,9529634.475708008,8288896.560668945,8516403.198242188,10199500.08392334,8464450.83618164,-9184003.829956055,-180216.41671657562,-5498079.776763916,-3671842.575073242,19156879.425048828,20449710.845947266,19539270.401000977,8098488.807678223,9205748.558044434,2968617.9161071777,-10170502.662658691,7374444.484710693,-6948632.24029541,6042768.0015563965,-1345049.7388839722,-8582846.641540527,-9357654.571533203,23018276.21459961,1243652.9397964478,-35647254.943847656,-15126775.741577148,-19415096.282958984,-324005.24616241455,-8477472.305297852,-8642447.471618652,2229500.5321502686,-2554194.450378418,-12090680.122375488,-21731124.877929688,-20935384.75036621,-25158262.252807617,-19593175.888061523,-11536082.26776123,-13311607.360839844,1253756.6423416138,-7275527.9541015625,-23144460.678100586,-22307897.567749023,-23954822.540283203,-19020374.298095703,-5709374.904632568,-8064875.602722168,-2666842.9374694824,-21267719.268798828,-25317150.115966797,-14758453.369140625,-6556586.742401123,-7250537.395477295
0.235,23241008.758544922,15767497.062683105,22021852.493286133,14328307.151794434,10259452.819824219,-14974671.363830566,-5884395.122528076,7834772.58682251,4191737.174987793,9854969.024658203,10860792.16003418,12564779.281616211,14246595.38269043,12587114.334106445,-7871864.318847656,2358400.1064300537,-4931556.224822998,-2951755.7621002197,20942293.167114258,22151336.669921875,21408500.67138672,12146860.122680664,14643857.955932617,3646408.796310425,-8160645.484924316,8376779.556274414,-6509668.350219727,4826736.4501953125,-554779.1123390198,-6486967.56362915,-6283429.6226501465,29595611.572265625,2870238.3041381836,-33747470.85571289,-15136059.761047363,-20504808.42590332,-204546.7048883438,-6581086.158752441,-6520449.638366699,5864772.796630859,1415581.3455581665,-11342226.9821167,-21563430.786132812,-20720415.115356445,-23676906.58569336,-19863292.694091797,-10147909.164428711,-11446509.36126709,4580006.5994262695,-4729637.145996094,-25060180.6640625,-24161737.4420166,-24138174.057006836,-19214746.475219727,-4959198.474884033,-7046007.6332092285,-1438635.8261108398,-20564418.79272461,-26018844.604492188,-15219683.647155762,-5584321.022033691,-6401314.258575439
0.24,21073156.356811523,15589888.572692871,23545135.498046875,10365203.857421875,12226990.699768066,-16214302.062988281,-8762747.764587402,5099053.859710693,2315250.1583099365,8078437.805175781,12624737.739562988,15525506.019592285,17077001.571655273,15498377.799987793,-7533390.998840332,1588916.540145874,-6586113.452911377,-4262955.188751221,22182039.260864258,23540462.493896484,22795961.380004883,15169611.930847168,18008092.880249023,3599541.425704956,-8764307.022094727,6954672.813415527,-7438372.611999512,4858340.740203857,-46722.35995531082,-4992619.99130249,-3537130.59425354,32839736.938476562,2031568.0503845215,-34144889.83154297,-16479549.407958984,-23695869.44580078,2185.477875173092,-5217763.423919678,-5048952.579498291,8864985.466003418,4276918.888092041,-13263051.03302002,-22684673.309326172,-21775278.091430664,-22873588.56201172,-19704656.60095215,-9898893.356323242,-11218767.166137695,5994335.174560547,-2551524.877548218,-27642385.482788086,-26335994.720458984,-25756034.85107422,-18857368.46923828,-5979947.090148926,-7912519.931793213,-1614154.33883667,-20824218.75,-27392232.89489746,-15460080.14678955,-6344059.467315674,-7267670.154571533
0.245,16016284.942626953,11028923.988342285,20332271.575927734,6422847.270965576,11232852.935791016,-20854703.903198242,-13447849.27368164,207515.37382602692,253300.81582069397,5178061.962127686,10347173.690795898,12681194.305419922,14151240.348815918,12501661.30065918,-10759445.190429688,-2712774.9919891357,-10282068.252563477,-6181032.180786133,21507616.04309082,23093843.460083008,22240421.295166016,12392545.700073242,14503504.753112793,261722.32627868652,-12614428.520202637,3792726.516723633,-9280829.429626465,5676588.05847168,-824764.6689414978,-4640995.502471924,-4901253.223419189,28323362.350463867,-1283429.6226501465,-36620903.01513672,-18180273.056030273,-26464338.302612305,-37696.18272781372,-4685451.507568359,-4719116.687774658,9092144.966125488,3558078.2890319824,-15945494.651794434,-23614290.237426758,-22778860.092163086,-22883668.899536133,-17690225.60119629,-9726431.846618652,-11160492.897033691,5911916.255950928,-1898850.440979004,-27502477.645874023,-25325426.10168457,-26075183.868408203,-16714891.43371582,-6426380.157470703,-8329466.819763184,-1663271.6655731201,-20856933.59375,-26991619.110107422,-13675253.868103027,-6716351.9859313965,-7696674.823760986
0.25,12531591.415405273,6800563.812255859,16429639.81628418,6422979.354858398,6954041.004180908,-25031356.811523438,-15152285.5758667,180187.38925457,950451.8508911133,3126329.4219970703,5293050.289154053,6445785.045623779,7973072.052001953,6178938.388824463,-14245060.920715332,-4246321.201324463,-10975801.467895508,-4906050.682067871,19537729.263305664,21120975.494384766,20229164.123535156,6183422.565460205,8187069.892883301,-2731156.349182129,-13900683.403015137,3682353.734970093,-9271509.170532227,6163061.141967773,-2218602.6573181152,-4720706.939697266,-8295172.691345215,20983390.80810547,-2108603.7158966064,-37079563.14086914,-17361503.60107422,-25909864.42565918,-265646.42786979675,-4461179.256439209,-4723533.630371094,7727230.072021484,782956.5405845642,-16419506.072998047,-22379079.818725586,-21662353.515625,-21980897.903442383,-14978421.211242676,-8473665.237426758,-10067147.254943848,6311831.951141357,-2353966.474533081,-25019502.639770508,-22131906.509399414,-24436441.42150879,-14053451.538085938,-4748321.056365967,-6593194.484710693,-227353.72185707092,-20159101.486206055,-25350770.950317383,-11229533.195495605,-5129068.851470947,-6111677.169799805
0.255,13711668.968200684,7510443.210601807,16609802.24609375,10827548.027038574,3015729.4273376465,-24994771.95739746,-12163325.309753418,6568913.459777832,4776867.866516113,3209772.5868225098,1861085.7725143433,2939626.455307007,4516055.583953857,2689731.5979003906,-14310701.370239258,105723.51515293121,-6447200.775146484,-381648.15306663513,17898736.95373535,19242607.11669922,18439088.821411133,2611728.1913757324,5588258.743286133,-1696771.1448669434,-9245183.944702148,8615616.798400879,-6431912.899017334,6101584.434509277,-3099276.065826416,-5442553.520202637,-10197974.20501709,16998725.89111328,1784263.9684677124,-33792564.392089844,-13729990.95916748,-22796106.338500977,-371984.988451004,-5125004.291534424,-5319489.9559021,5771831.512451172,-2752200.126647949,-14440058.708190918,-19751548.767089844,-18951580.047607422,-19635234.832763672,-14495320.320129395,-7739434.719085693,-10239910.125732422,6467154.979705811,-4191037.654876709,-23661655.42602539,-20950796.127319336,-23337596.893310547,-13688082.695007324,-3380594.9687957764,-5133361.339569092,538030.6839942932,-20156780.242919922,-25296453.47595215,-11371133.804321289,-3866694.450378418,-4788203.239440918
0.26,16767295.837402344,10732902.526855469,19283033.37097168,15666234.970092773,2588305.4733276367,-22851161.95678711,-8884119.987487793,12164455.41381836,8565119.743347168,5098831.653594971,2100929.2602539062,3950014.82963562,5402640.819549561,3711479.663848877,-12999089.241027832,4943532.466888428,-1455054.6407699585,3151958.465576172,17434108.73413086,18631093.978881836,17903221.130371094,3503178.358078003,6995882.034301758,150863.70706558228,-3579004.2877197266,13692794.799804688,-3626678.943634033,6050148.487091064,-3217747.211456299,-7643138.885498047,-11043845.176696777,15857644.081115723,5400508.880615234,-30971813.201904297,-11510043.144226074,-21264123.916625977,-200577.61669158936,-7544873.7144470215,-7501901.149749756,2603200.674057007,-7697910.308837891,-13658970.832824707,-19592983.24584961,-18516592.025756836,-18194494.247436523,-17078918.45703125,-9780264.854431152,-14384253.50189209,3774430.751800537,-8137721.061706543,-26092622.756958008,-24215270.99609375,-25119653.701782227,-16240507.125854492,-5503121.376037598,-7278994.083404541,-2576221.704483032,-22257904.052734375,-27943557.739257812,-14689352.989196777,-6080208.301544189,-6880408.763885498
0.265,16715904.235839844,10844771.385192871,18860073.08959961,16561096.19140625,3989439.010620117,-23717369.079589844,-10582267.761230469,9974071.502685547,8776141.166687012,6723969.459533691,3241085.5293273926,5216135.501861572,6465041.160583496,4951552.867889404,-14989173.889160156,3541725.8739471436,-2087490.0817871094,2476473.093032837,17507936.477661133,18825210.571289062,18065986.63330078,4745415.210723877,7310507.774353027,-3164714.3363952637,-3869407.6538085938,12941246.032714844,-4116070.27053833,6106027.603149414,-3073846.3401794434,-10630224.227905273,-13330345.153808594,13604557.991027832,2786685.4667663574,-33023647.30834961,-14200984.001159668,-23712261.199951172,92265.42711257935,-10709817.886352539,-10632597.923278809,-1330692.7680969238,-13443599.700927734,-17359455.108642578,-23837409.97314453,-22600397.10998535,-19464599.609375,-19918277.740478516,-13546739.57824707,-20738496.780395508,-1442878.6039352417,-12842411.041259766,-31316125.869750977,-29779979.705810547,-28552330.017089844,-18865638.732910156,-10001309.394836426,-11945079.803466797,-8526006.698608398,-25137929.916381836,-30887563.705444336,-17771999.35913086,-10706459.045410156,-11383953.094482422
0.27,12800611.49597168,7477692.127227783,14294448.852539062,13204785.346984863,3276106.595993042,-28249937.057495117,-16613969.802856445,2011488.1992340088,5128775.119781494,5994782.9246521,1965456.6049575806,3207290.1725769043,4429044.723510742,2962391.3764953613,-19933053.970336914,-2601948.022842407,-7860215.187072754,-1000511.0502243042,17055295.944213867,18493751.525878906,17739793.77746582,2851171.7319488525,4214744.091033936,-10684511.184692383,-9393733.024597168,7504480.361938477,-7237471.580505371,5700296.878814697,-3125944.3759918213,-12339357.376098633,-16527614.59350586,10303504.943847656,-4173248.291015625,-37321361.54174805,-18984663.009643555,-27592205.047607422,239338.02545070648,-12374860.763549805,-12528146.743774414,-3459573.0304718018,-16834735.870361328,-23439390.182495117,-28617322.92175293,-27519464.49279785,-21342977.52380371,-19955818.17626953,-15585931.777954102,-24696567.53540039,-5235156.059265137,-15202860.832214355,-35211372.37548828,-32767280.57861328,-30142192.840576172,-18749551.77307129,-12678381.91986084,-14759023.666381836,-12285435.676574707,-25811302.185058594,-31123277.66418457,-17432365.41748047,-13477344.512939453,-14135430.335998535
0.275,8760164.260864258,5519654.750823975,10965833.66394043,9265302.658081055,431876.42097473145,-31598508.834838867,-21382013.32092285,-3730425.8346557617,831949.770450592,3419300.079345703,-667774.9156951904,265098.12474250793,1698596.3582992554,76893.4115767479,-22387115.478515625,-5863422.870635986,-12440560.340881348,-3611188.1732940674,16013257.98034668,17257106.78100586,16694091.796875,-27221.640571951866,1329690.2179718018,-14568153.381347656,-12738905.906677246,4108039.379119873,-9422840.118408203,4630203.723907471,-3577442.8844451904,-11957772.254943848,-17653087.615966797,9544838.905334473,-7523611.068725586,-36985816.955566406,-19865711.212158203,-28650938.034057617,165714.1000032425,-11904926.300048828,-12227738.380432129,-2330361.3662719727,-16011987.686157227,-25994453.43017578,-28418525.69580078,-27567022.3236084,-20365076.065063477,-17600437.16430664,-14707119.941711426,-24790935.516357422,-4966324.329376221,-14056945.80078125,-34107368.46923828,-30081892.013549805,-28451993.942260742,-16541818.618774414,-11971764.56451416,-14016611.099243164,-11001107.215881348,-23571802.139282227,-28682386.39831543,-14620862.007141113,-12703405.380249023,-13493786.811828613
0.28,6895090.103149414,6760464.668273926,12509943.962097168,7554933.547973633,-829470.0980186462,-30789928.436279297,-22018915.1763916,-3628955.841064453,-1150156.9747924805,1556742.1913146973,-1263674.4976043701,448862.7016544342,2087785.243988037,223046.9286441803,-20231336.59362793,-3403572.5593566895,-12114439.010620117,-4150191.307067871,15173450.469970703,16037488.93737793,15695513.725280762,5382.369738072157,2194898.3669281006,-11313383.102416992,-10383818.626403809,5553021.9078063965,-9191497.802734375,3529927.7305603027,-4561878.681182861,-10908607.482910156,-16410797.119140625,11830049.514770508,-4176324.8443603516,-30771591.186523438,-16084236.145019531,-26237737.65563965,60560.85228919983,-10911627.769470215,-11113669.395446777,16590.595245361328,-13336716.651916504,-22731012.34436035,-23672266.006469727,-22890178.680419922,-16783649.444580078,-15630387.306213379,-13231777.19116211,-23890497.2076416,-2565382.719039917,-11783491.134643555,-28537204.74243164,-23461610.794067383,-25618461.60888672,-14943484.30633545,-10496342.658996582,-12413195.610046387,-7349801.063537598,-21152381.896972656,-26273595.809936523,-12664164.543151855,-11067187.309265137,-12057711.601257324
0.285,5135026.454925537,6518864.631652832,15037493.705749512,6648904.800415039,311942.30914115906,-29265159.606933594,-21856760.025024414,-1875817.6565170288,-1513923.7642288208,932009.9353790283,-9579.390287399292,2692471.742630005,4292935.848236084,2333205.461502075,-18219419.479370117,-764368.0572509766,-10130232.810974121,-4854354.8583984375,14597074.508666992,15306729.316711426,14948801.040649414,2040129.8999786377,4650523.662567139,-6990537.643432617,-7132214.546203613,7410276.889801025,-8821057.319641113,2898676.1569976807,-6127815.723419189,-10734261.512756348,-16078084.945678711,13150172.233581543,-78725.69561004639,-25132463.455200195,-13079971.313476562,-23494312.286376953,134771.928191185,-10822613.716125488,-10795693.397521973,691082.8351974487,-12523612.976074219,-17993185.04333496,-20308929.443359375,-19406623.84033203,-14197211.265563965,-15352820.39642334,-13225237.846374512,-24326396.942138672,-1486727.3569107056,-11180021.286010742,-22849569.32067871,-17693185.806274414,-24101217.26989746,-14946034.43145752,-10579992.294311523,-12426005.363464355,-5617359.638214111,-21009967.803955078,-25627969.74182129,-12826342.582702637,-11102958.679199219,-12215166.091918945
0.29,1574450.0160217285,1229460.597038269,13170811.653137207,3687072.0386505127,149913.14709186554,-31289367.67578125,-24597267.150878906,-3221909.761428833,-3134609.2224121094,-1230099.7972488403,-565999.0310668945,2425780.773162842,3814500.8087158203,2043383.1214904785,-20580987.93029785,-2919588.088989258,-11073675.155639648,-7690686.7027282715,13372411.727905273,14237126.350402832,13719544.410705566,1798673.8681793213,4380300.521850586,-8040547.3709106445,-8105545.997619629,5648579.5974731445,-10370225.90637207,2398868.7992095947,-7979445.934295654,-11260628.700256348,-18291763.305664062,11223383.903503418,-1271520.3762054443,-24883632.65991211,-14189353.942871094,-22815948.486328125,329244.5242404938,-11272126.197814941,-11224291.801452637,-239724.72548484802,-13890067.100524902,-16782346.725463867,-21215051.651000977,-20193447.11303711,-14229766.845703125,-15756915.092468262,-13901850.700378418,-25000761.032104492,-2288579.4639587402,-12012218.475341797,-20343679.428100586,-15518933.296203613,-23482872.009277344,-15350602.149963379,-11184859.275817871,-12998961.448669434,-6485182.285308838,-22029535.2935791,-25535675.048828125,-13579849.243164062,-11793865.203857422,-12880067.825317383
0.295,-1239791.989326477,-4687132.835388184,8896153.450012207,-438283.68186950684,-2834456.6822052,-34890598.29711914,-28146558.76159668,-6276912.212371826,-6427659.034729004,-6282150.2685546875,-3695758.34274292,-800639.5697593689,460705.84654808044,-989386.0220909119,-24347488.403320312,-6846700.191497803,-14112911.224365234,-11162443.161010742,11454868.31665039,12410314.559936523,11997706.413269043,-1169060.7070922852,1848116.7554855347,-12054444.313049316,-11198784.828186035,2839491.605758667,-12423552.513122559,1593086.2426757812,-9465932.846069336,-11486397.743225098,-20203832.626342773,9115060.806274414,-5538870.334625244,-26828916.549682617,-16071355.819702148,-23359138.48876953,356169.730424881,-11337464.332580566,-11509986.877441406,-500397.9206085205,-14465363.502502441,-18570985.794067383,-22656307.220458984,-21613351.821899414,-14655644.416809082,-15995313.64440918,-13732912.063598633,-24284624.099731445,-3060842.514038086,-12133834.838867188,-20196380.615234375,-15621080.39855957,-22004619.598388672,-15409962.65411377,-10551681.518554688,-12254896.16394043,-7482517.242431641,-21703556.060791016,-24198966.97998047,-13664280.891418457,-11182063.102722168,-12142971.992492676
0.3,71839.89882469177,-4454814.434051514,8700962.06665039,-1892336.6069793701,-4587295.055389404,-34898719.787597656,-27998067.85583496,-6978103.6376953125,-8578499.794006348,-10788573.265075684,-5419043.064117432,-2301035.165786743,-977887.5708580017,-2294664.8597717285,-24428543.090820312,-7060481.071472168,-15236568.450927734,-12282929.420471191,10327933.311462402,11030858.993530273,11097175.598144531,-2472733.0207824707,1467987.1797561646,-12892278.671264648,-11602863.311767578,3287012.5770568848,-12698444.366455078,758585.2742195129,-10057045.936584473,-11143719.673156738,-18866678.23791504,10317165.37475586,-7253067.493438721,-26067790.985107422,-14885221.481323242,-23399085.998535156,79889.07396793365,-10972981.452941895,-11381672.859191895,698194.8018074036,-12460407.257080078,-19804861.068725586,-21110849.380493164,-20087207.794189453,-13496606.826782227,-16358776.092529297,-12960465.431213379,-22824998.85559082,-2875728.6071777344,-10948067.665100098,-20363100.051879883,-16133098.602294922,-20094562.530517578,-15608057.975769043,-9340891.83807373,-10887349.128723145,-7071205.615997314,-20365768.432617188,-22321678.161621094,-13493546.485900879,-9852268.21899414,-10671636.581420898
0.305,3451479.196548462,534687.2806549072,12933090.209960938,-235855.5793762207,-2284315.1092529297,-31648508.071899414,-25079450.607299805,-6012678.146362305,-8288707.733154297,-11219693.183898926,-3449136.734008789,172385.61809062958,1618515.968322754,112389.9593949318,-22265153.884887695,-4931870.937347412,-14374697.6852417,-11179007.530212402,10730030.059814453,11076674.461364746,11541738.510131836,-33207.08870887756,4381136.894226074,-11169777.870178223,-10278695.106506348,5620625.4959106445,-12137657.165527344,301600.1880168915,-9846664.428710938,-10511816.97845459,-15817760.467529297,13187232.971191406,-6760019.779205322,-24169651.03149414,-12736807.823181152,-23000274.658203125,-257706.49313926697,-10445964.813232422,-10963688.850402832,1888044.2380905151,-9653362.274169922,-19918495.178222656,-19108461.380004883,-18100399.017333984,-11951323.509216309,-16489669.799804688,-12470125.198364258,-21737148.28491211,-2542238.712310791,-9908651.351928711,-21276563.64440918,-17647825.241088867,-19919092.178344727,-15666512.489318848,-9050415.992736816,-10568321.228027344,-5956074.7146606445,-20690771.102905273,-22174695.96862793,-13289134.02557373,-9475437.16430664,-10188924.789428711
0.31,3374308.3477020264,1950375.1993179321,14697751.04522705,-144404.73914146423,12529.854662716389,-30942094.802856445,-24963125.228881836,-7742890.357971191,-8427489.280700684,-9848688.125610352,-1270618.0810928345,2799510.4789733887,4289281.368255615,2490974.6646881104,-23571088.790893555,-6239232.540130615,-15372686.386108398,-11249444.007873535,11053983.688354492,11373220.443725586,11705346.10748291,2472555.637359619,6718749.523162842,-12676980.018615723,-11825773.239135742,5336778.64074707,-13512349.128723145,-154781.9972038269,-9435282.707214355,-9438711.166381836,-14371848.106384277,13813557.624816895,-8639678.001403809,-25679313.65966797,-13785669.326782227,-23107955.932617188,-319569.76652145386,-9374997.13897705,-9935694.694519043,2317030.191421509,-8564429.28314209,-20884918.212890625,-20541696.548461914,-19579439.163208008,-11593656.539916992,-14932449.340820312,-11652957.916259766,-20308055.877685547,-2294666.051864624,-9742142.677307129,-23907485.961914062,-20632377.62451172,-21414875.030517578,-14110664.367675781,-8903082.847595215,-10556735.99243164,-4801871.776580811,-23003170.013427734,-23806241.989135742,-12034078.598022461,-9385588.645935059,-10057601.928710938
0.315,-545108.5567474365,-2988873.00491333,11101944.923400879,-4325640.2015686035,-2241729.0210723877,-34545715.33203125,-28686897.27783203,-11922483.444213867,-11298446.655273438,-11264084.815979004,-2287302.017211914,2396862.745285034,3852345.2281951904,1991577.9829025269,-28347862.243652344,-10681353.569030762,-18542007.446289062,-13808072.090148926,9850109.100341797,10499079.704284668,10340292.930603027,2034067.8691864014,6405602.45513916,-17437669.75402832,-15264069.557189941,2887726.5453338623,-16450300.216674805,-1168503.761291504,-9225618.362426758,-7693187.713623047,-14049228.66821289,12855433.464050293,-12101946.830749512,-29053403.854370117,-16675006.866455078,-23376316.07055664,-117940.7611489296,-7463089.942932129,-8052584.648132324,3474157.8102111816,-8719588.279724121,-21933725.357055664,-23400794.982910156,-22535863.876342773,-11128792.762756348,-11631850.242614746,-9423062.324523926,-17767610.549926758,-1038393.1398391724,-9151055.335998535,-25685167.31262207,-21997337.341308594,-21283761.978149414,-10850517.272949219,-6891633.5105896,-8648760.795593262,-3088131.904602051,-23813436.50817871,-24109214.782714844,-9389471.054077148,-7424447.536468506,-8126194.953918457
0.32,-2081122.636795044,-6848459.720611572,8713218.688964844,-8407190.322875977,-5683498.859405518,-36503147.12524414,-29983806.610107422,-12318962.097167969,-13848695.755004883,-14293801.307678223,-3582412.4813079834,2149069.309234619,3559895.9922790527,1944692.3732757568,-29743659.97314453,-10915075.302124023,-18510044.09790039,-15257734.298706055,8727673.530578613,9668905.258178711,9222148.895263672,1806358.2181930542,7019924.163818359,-18298398.971557617,-13824987.411499023,3497816.562652588,-17189537.048339844,-2229691.26701355,-9057565.689086914,-6032211.780548096,-11486372.947692871,15056631.088256836,-10692738.53302002,-27770540.237426758,-16095657.348632812,-22610280.990600586,15332.575887441635,-5678244.113922119,-6196811.676025391,6466091.632843018,-7361011.981964111,-19691238.403320312,-22283252.716064453,-21527069.091796875,-8532316.207885742,-9143224.716186523,-6726459.980010986,-15816987.991333008,1392080.0685882568,-7099519.729614258,-22706745.147705078,-18238918.30444336,-17413518.90563965,-8384170.5322265625,-3463425.397872925,-5128356.93359375,-878852.1885871887,-20458086.013793945,-20820701.599121094,-7115526.19934082,-3891005.754470825,-4648174.76272583
0.325,2522093.0576324463,-3082862.138748169,13402005.195617676,-6676699.161529541,-3626133.680343628,-32025905.60913086,-24328725.814819336,-5845696.926116943,-11446228.981018066,-13116252.899169922,-479497.7009296417,6135063.171386719,7517520.904541016,6212232.1128845215,-24477741.241455078,-3801517.4865722656,-12198101.997375488,-12041507.720947266,10242285.72845459,11162060.737609863,10838336.944580078,5770091.533660889,11544324.87487793,-12120165.824890137,-5545369.625091553,8638939.85748291,-14196676.254272461,-2182690.8588409424,-8718370.43762207,-5805021.7628479,-6629034.519195557,21361106.872558594,-2957962.2745513916,-20634185.791015625,-11225481.986999512,-21066987.991333008,-95496.0361123085,-5533614.158630371,-5830460.548400879,9382503.509521484,-3753978.967666626,-14295842.170715332,-16922042.846679688,-16229295.73059082,-5137576.103210449,-9777387.619018555,-6006805.896759033,-16760622.024536133,3021620.512008667,-5056047.9164123535,-16313087.463378906,-11594658.851623535,-12558038.711547852,-8961253.16619873,-1722829.6995162964,-3186491.2509918213,85282.93669223785,-15361158.37097168,-16160684.585571289,-7190484.523773193,-1998434.30519104,-2765534.8777770996
0.33,8407385.82611084,3536097.288131714,20138032.913208008,-801589.1313552856,2662828.4454345703,-25436538.696289062,-16375581.741333008,1454221.7254638672,-5395378.112792969,-6914258.4800720215,4864840.984344482,11255309.104919434,12635792.73223877,11410296.440124512,-18677518.844604492,3656771.183013916,-4785115.2420043945,-6615426.540374756,13458533.28704834,14202500.343322754,14076589.584350586,10839329.719543457,15761335.372924805,-5613949.298858643,1985789.5374298096,13177330.017089844,-10972502.708435059,-935499.4893074036,-8498602.867126465,-7370288.372039795,-4217105.388641357,25599304.19921875,3343966.007232666,-14667905.807495117,-7402743.816375732,-20584529.876708984,-232943.0878162384,-7271817.207336426,-7342281.341552734,8934782.028198242,-1249715.2090072632,-10921041.488647461,-12994102.478027344,-12286700.248718262,-4607409.477233887,-12550426.483154297,-8087840.0802612305,-19948608.3984375,1891768.9323425293,-5721561.431884766,-13041125.297546387,-8743977.546691895,-11370454.788208008,-11645169.258117676,-3531380.1765441895,-4864883.899688721,-1759914.0405654907,-13553638.458251953,-14616904.258728027,-9314983.367919922,-3773181.676864624,-4495495.319366455
0.335,9039782.524108887,3699848.8903045654,19829462.0513916,2286544.08454895,5049979.686737061,-24484493.255615234,-13852288.246154785,1986361.5036010742,-1918785.6912612915,-2070960.0448608398,5625414.3714904785,10746582.03125,12175557.136535645,10744231.224060059,-19665988.92211914,3663637.638092041,-3297765.2549743652,-4752805.233001709,14713212.013244629,15421050.071716309,15245697.975158691,10307089.805603027,13185280.799865723,-6062808.513641357,1204368.7105178833,12945489.883422852,-11223398.208618164,224345.56484222412,-8685170.17364502,-9445052.146911621,-7461874.961853027,22066753.387451172,1378932.7144622803,-15579431.533813477,-8490681.648254395,-22051256.17980957,-127770.64740657806,-9408885.955810547,-9434653.282165527,4669125.080108643,-3451584.3391418457,-13058933.25805664,-14095446.586608887,-13307239.532470703,-7855553.150177002,-14391672.134399414,-10905842.781066895,-22286067.962646484,-1299137.830734253,-9622031.211853027,-16188396.453857422,-12246820.449829102,-14375520.706176758,-13519977.569580078,-6991353.511810303,-8287119.8654174805,-5422664.165496826,-16458347.32055664,-17291059.494018555,-11335767.74597168,-7254703.521728516,-7948129.653930664
0.34,5827078.342437744,-2409394.0258026123,13320663.452148438,615778.3269882202,1262515.664100647,-29486526.489257812,-16914495.46813965,-2695042.133331299,-3137416.362762451,-2321880.340576172,886614.0246391296,4835949.897766113,6344290.256500244,4641390.800476074,-26065738.677978516,-1525803.3275604248,-6720309.734344482,-7312959.671020508,13131723.403930664,13955734.252929688,13613670.349121094,4383867.7406311035,5391798.01940918,-11296946.52557373,-5324535.846710205,10684007.64465332,-13580362.319946289,261445.70112228394,-8718757.629394531,-10185170.17364502,-13013027.19116211,13987915.992736816,-5422601.699829102,-20284452.438354492,-11844344.139099121,-23842683.792114258,139805.22751808167,-10080340.385437012,-10223762.512207031,311490.7443523407,-8890151.023864746,-17521883.010864258,-17287658.69140625,-16436222.076416016,-11365592.002868652,-13614925.384521484,-11648758.888244629,-21916540.145874023,-3641199.3503570557,-13732964.515686035,-21034170.150756836,-16926799.774169922,-17110441.207885742,-12952923.774719238,-8484829.902648926,-9730804.443359375,-7708474.636077881,-20059274.673461914,-20250164.031982422,-11480808.25805664,-8667805.671691895,-9402999.877929688
0.345,5447035.312652588,-5395643.23425293,10592891.693115234,-504918.51568222046,-1370108.962059021,-33558116.9128418,-18973943.71032715,-4247944.355010986,-4067163.9442443848,-2987190.2465820312,-2232783.317565918,1589570.6415176392,3134047.508239746,1371937.9901885986,-30564369.201660156,-3556065.797805786,-7784630.298614502,-8933342.933654785,12087635.99395752,12980149.269104004,12657440.185546875,1123840.570449829,1695265.6507492065,-13793398.8571167,-9016369.819641113,11360530.853271484,-14033470.153808594,-548008.5611343384,-7651885.509490967,-8744106.29272461,-14673882.484436035,10548440.933227539,-8737758.63647461,-22191720.962524414,-12836302.757263184,-23677610.397338867,281966.83526039124,-8553864.479064941,-8794152.25982666,311314.1357898712,-11475402.83203125,-18918315.887451172,-18026103.973388672,-17234228.134155273,-11354785.919189453,-11031237.602233887,-9419013.023376465,-19562446.59423828,-2833415.0314331055,-13895894.050598145,-21216567.993164062,-16813261.032104492,-15599942.207336426,-10578272.819519043,-6338177.20413208,-7482830.52444458,-5965610.027313232,-19602334.97619629,-19171953.201293945,-9462356.567382812,-6376458.644866943,-7191245.555877686
0.35,9165502.548217773,-919325.8285522461,15929720.878601074,2413036.584854126,2253509.998321533,-32696201.32446289,-16901746.74987793,259512.66288757324,-763211.9059562683,556370.3775405884,972951.7698287964,5631677.150726318,7141032.695770264,5592532.634735107,-29985340.118408203,-125084.95151996613,-3890502.691268921,-6199847.221374512,13834385.871887207,14713212.966918945,14561772.346496582,5212460.994720459,6962193.012237549,-11609913.82598877,-6955799.579620361,14828720.092773438,-12259065.628051758,-1432312.3693466187,-5673606.872558594,-6067618.846893311,-11007492.065429688,15448429.107666016,-6683101.177215576,-20196313.858032227,-11172824.85961914,-21679378.509521484,238242.968916893,-5830534.4581604,-6054874.420166016,5063029.2892456055,-7509712.219238281,-16723508.834838867,-16057556.15234375,-15423682.21282959,-8171088.218688965,-8483803.749084473,-5869451.04598999,-16787044.525146484,592975.914478302,-9089933.395385742,-17117071.1517334,-12708737.37335205,-11019610.404968262,-8029032.7072143555,-2190884.590148926,-3225820.0645446777,-710756.4806938171,-15018159.866333008,-14468909.26361084,-6319505.214691162,-2179081.439971924,-3042435.40763855
0.355,11126552.58178711,4096907.138824463,21960563.65966797,5256340.980529785,6829949.855804443,-30082942.962646484,-14588598.251342773,4510066.509246826,3118004.322052002,4213138.103485107,5893447.8759765625,11612890.243530273,13081431.38885498,11791721.34399414,-27635271.072387695,2918720.006942749,-553744.1968917847,-3004472.7325439453,15873363.494873047,16858386.993408203,16690292.358398438,11312096.59576416,14684827.80456543,-9564819.3359375,-4277281.284332275,16855503.08227539,-11953428.268432617,-2042666.9120788574,-4391777.515411377,-4435851.097106934,-6865080.3565979,22207870.483398438,-4449499.607086182,-18359882.354736328,-10080349.922180176,-20653268.814086914,226234.92777347565,-4155754.566192627,-4340712.070465088,9967578.887939453,-800011.4560127258,-14815114.02130127,-14376269.340515137,-13821949.005126953,-5531648.1590271,-7622800.827026367,-3889146.327972412,-14997225.761413574,3527621.7460632324,-3349456.548690796,-14300795.555114746,-9923610.68725586,-7903587.818145752,-6988851.547241211,612144.947052002,-320447.29590415955,4247923.851013184,-10756288.528442383,-10584385.871887207,-4108597.755432129,583998.2628822327,-268430.05418777466
0.36,8173308.372497559,2602518.320083618,21386121.74987793,3217294.692993164,5520085.334777832,-29623926.162719727,-15515094.757080078,2809238.910675049,1933498.740196228,1540851.354598999,5977754.11605835,12289766.311645508,13767047.882080078,12508110.046386719,-26612243.65234375,1365180.1347732544,-2514122.0092773438,-4673953.056335449,15043492.317199707,16350812.911987305,15854389.190673828,12065655.708312988,15783182.144165039,-10728050.231933594,-5368229.389190674,15654461.860656738,-14889102.935791016,-2180180.311203003,-5024059.295654297,-5593286.991119385,-7169599.533081055,22907226.5625,-5329823.017120361,-18725128.173828125,-11078019.142150879,-22912298.20251465,349510.7293128967,-5252547.264099121,-5468183.0406188965,10056005.477905273,1689597.487449646,-15229077.339172363,-14508050.918579102,-13856049.537658691,-6019341.945648193,-9246925.354003906,-5269413.471221924,-15598811.149597168,3023429.1553497314,-2155370.9506988525,-15195229.530334473,-10506007.194519043,-8612593.650817871,-8487384.796142578,-154.50250066351146,-834534.227848053,5105426.788330078,-10502558.708190918,-10578673.362731934,-4654302.12020874,-10647.660121321678,-802333.0569267273
0.365,5348935.127258301,-1570471.4059829712,17981321.334838867,-753327.1908760071,1443948.0304718018,-30093326.568603516,-17097150.802612305,-1284137.1297836304,-2697280.168533325,-4704096.31729126,2812237.024307251,9012754.440307617,10517020.225524902,9054374.694824219,-25807941.436767578,-1341832.995414734,-6405333.995819092,-9605044.3649292,12739140.510559082,14363130.569458008,13560551.643371582,8742853.164672852,10996061.325073242,-12113295.555114746,-7755335.807800293,13689159.393310547,-18028856.27746582,-1620760.202407837,-6836545.944213867,-8679542.541503906,-11009554.862976074,18685073.852539062,-6485889.434814453,-18897686.004638672,-12294180.870056152,-27257417.678833008,414290.9348011017,-8300667.762756348,-8555306.434631348,5716098.785400391,-1251766.0856246948,-15823694.229125977,-15107824.325561523,-14347081.184387207,-8226120.948791504,-12285998.344421387,-8786388.397216797,-18696166.9921875,-475304.4545650482,-6015157.699584961,-16493749.618530273,-11387105.941772461,-10895600.318908691,-11570082.664489746,-2798847.198486328,-3604233.741760254,2168824.4342803955,-13028922.080993652,-12800681.114196777,-7378391.265869141,-2717544.5556640625,-3419664.3829345703
0.37,8826177.597045898,837665.9154891968,20787160.873413086,601998.0907440186,3297458.6486816406,-27898759.841918945,-14976728.439331055,239313.42363357544,-3299570.322036743,-5214549.541473389,3640380.620956421,9452431.678771973,10949970.245361328,9324550.62866211,-23083200.454711914,320537.12010383606,-5549787.998199463,-11034981.727600098,12894465.446472168,14559086.799621582,13848379.135131836,9098848.342895508,9613900.184631348,-9577558.517456055,-6207397.937774658,13618965.148925781,-17811853.408813477,-840216.5174484253,-7967781.066894531,-10485253.33404541,-12943629.264831543,17808391.571044922,-3864428.758621216,-16380302.429199219,-11342638.969421387,-29850564.95666504,266100.3768444061,-10175178.527832031,-10326658.248901367,2753460.8840942383,-3664502.8591156006,-13966938.018798828,-14135264.39666748,-13498986.24420166,-8389608.383178711,-13913077.354431152,-10869970.321655273,-21546438.217163086,-2886852.264404297,-9022579.193115234,-14704436.302185059,-9572518.348693848,-10820461.27319336,-13284181.594848633,-4297322.2732543945,-5186090.94619751,-92011.57838106155,-13832391.738891602,-13261861.801147461,-9159470.558166504,-4188908.576965332,-4809273.719787598
0.375,17463138.580322266,11431550.025939941,31258901.596069336,8783377.647399902,12315536.499023438,-22396402.35900879,-9363712.310791016,9293865.203857422,3575232.744216919,2565675.0202178955,10749696.731567383,16659519.19555664,18119815.826416016,16602121.353149414,-18598516.4642334,6541215.896606445,1126048.0880737305,-6180291.652679443,16288099.28894043,17755283.35571289,17435499.19128418,16288766.860961914,16614765.167236328,-3093916.177749634,316794.15702819824,15533986.09161377,-14686840.057373047,-975809.2761039734,-7437402.248382568,-8782971.382141113,-9619076.7288208,24012590.408325195,2676063.5375976562,-11878797.53112793,-8008120.536804199,-28273202.896118164,97534.03067588806,-8725741.386413574,-8581641.19720459,5656225.204467773,-995693.564414978,-9934987.06817627,-10983344.078063965,-10680090.90423584,-4707314.968109131,-12483263.969421387,-9289578.437805176,-20894657.135009766,-774735.9275817871,-5829916.000366211,-10733967.781066895,-5936604.4998168945,-7308589.458465576,-11836395.263671875,-2582257.9860687256,-3537389.2784118652,1615752.100944519,-10640130.043029785,-10497222.900390625,-7912386.894226074,-2546513.795852661,-3133746.62399292
0.38,25177858.352661133,22534111.02294922,41941658.02001953,17885856.62841797,20747426.986694336,-15942455.291748047,-3934208.1546783447,19895845.413208008,13367084.503173828,11265091.896057129,18585611.34338379,25190258.026123047,26591096.878051758,25365345.001220703,-13700547.218322754,13055100.440979004,8711640.357971191,608613.8486862183,20191274.642944336,21493484.497070312,21399457.931518555,24805330.276489258,26087499.618530273,3847265.7203674316,7810098.171234131,18085294.723510742,-11708039.283752441,-2197480.2017211914,-5716630.935668945,-5086278.438568115,-3882792.4728393555,31258586.883544922,9792615.89050293,-7934532.165527344,-4355079.650878906,-24197765.350341797,190783.60497951508,-5412792.205810547,-4928383.350372314,11920394.897460938,3307908.058166504,-6259712.219238281,-7278305.0537109375,-7224272.727966309,60495.45109272003,-10110711.097717285,-5884349.822998047,-17326240.53955078,4288645.7443237305,1098784.5659255981,-8071395.8740234375,-3513759.8514556885,-3442927.837371826,-9392160.415649414,332169.5625782013,-491854.4292449951,5154706.954956055,-6278540.61126709,-7280141.353607178,-5605200.76751709,339110.52346229553,-273571.10381126404
0.385,28543085.0982666,27100585.9375,46000823.974609375,22273635.864257812,22585926.055908203,-10941178.321838379,-913151.8602371216,25423210.14404297,19590837.478637695,14387992.858886719,21252248.764038086,28159814.834594727,29453550.338745117,28417839.05029297,-9439531.326293945,16549453.735351562,12877382.278442383,4062542.43850708,22750616.0736084,24048156.73828125,23793167.114257812,27647350.311279297,28945606.231689453,7488740.921020508,11456348.419189453,19820823.669433594,-10544088.363647461,-3015950.918197632,-3875922.203063965,-3178103.446960449,-1883657.455444336,31746141.43371582,13433676.719665527,-6573559.284210205,-3181846.857070923,-21557624.81689453,455694.37742233276,-3765975.9521484375,-3158126.3542175293,14799815.17791748,2591664.3142700195,-5440203.1898498535,-6162173.748016357,-6089526.653289795,886824.3098258972,-10531490.325927734,-4604721.0693359375,-15138150.215148926,6967535.018920898,3988565.444946289,-8864856.719970703,-4284063.816070557,-3409370.6607818604,-9855317.115783691,818113.1482124329,245270.41614055634,5672716.6175842285,-5533337.116241455,-7553675.174713135,-5971931.934356689,917887.2108459473,243149.95110034943
0.39,28415525.436401367,25076269.149780273,42965549.46899414,21528287.887573242,19513576.50756836,-8822300.910949707,-196550.190448761,24238401.412963867,20153402.32849121,13355942.726135254,18522340.774536133,24390808.10546875,25557832.717895508,24464468.002319336,-7276643.2762146,16342021.942138672,13201516.151428223,3559215.545654297,24266923.904418945,25580745.697021484,25067829.132080078,23709924.697875977,23429042.81616211,5858768.463134766,9289583.206176758,19366468.42956543,-10857693.672180176,-2266582.489013672,-2961567.6403045654,-4997239.112854004,-6554839.611053467,25524965.286254883,11011753.08227539,-8526702.880859375,-5840005.397796631,-22446311.950683594,501931.01167678833,-5483703.136444092,-5117178.916931152,11204339.027404785,-3842927.6943206787,-8470085.144042969,-9583551.406860352,-9368345.260620117,-4158205.509185791,-14374519.348144531,-7069586.277008057,-17028951.64489746,4023830.4138183594,-694965.0645256042,-12905904.769897461,-8294822.692871094,-8341759.68170166,-13886836.051940918,-2196702.003479004,-2731987.714767456,1719433.9036941528,-9893398.28491211,-12282534.5993042,-9611069.679260254,-2011113.166809082,-2765742.540359497
0.395,25986684.799194336,19994703.29284668,35917709.35058594,17670482.635498047,15656148.910522461,-10065622.329711914,-1648369.1930770874,18779212.951660156,16745281.219482422,11691315.650939941,13675868.98803711,17676456.451416016,18818735.122680664,17550613.403320312,-8552014.350891113,12787478.44696045,11015675.54473877,1218197.4649429321,24356220.245361328,25562698.364257812,25052835.46447754,17000179.290771484,15281289.100646973,184688.7767314911,3141839.2658233643,16613134.384155273,-12287127.494812012,-1043020.6060409546,-3737422.466278076,-8927248.95477295,-14700035.095214844,18894056.32019043,3788238.763809204,-12630945.205688477,-10574246.406555176,-25493448.25744629,191737.72633075714,-9040481.567382812,-9125803.94744873,4661482.810974121,-10264470.100402832,-13805702.209472656,-15537829.399108887,-15296933.1741333,-11269331.932067871,-18290899.2767334,-11185314.178466797,-20907009.12475586,-2376092.9107666016,-8418919.563293457,-18276981.353759766,-13820254.3258667,-15080286.026000977,-17974885.940551758,-6473456.859588623,-7346318.244934082,-3604765.6536102295,-16252510.070800781,-18480354.30908203,-13230197.90649414,-6353034.019470215,-7167419.910430908
0.4,21973554.611206055,14583204.26940918,28162561.416625977,12316514.015197754,12393233.299255371,-12832769.393920898,-4792880.535125732,12821383.476257324,11770596.504211426,9094648.361206055,9386690.139770508,12224347.114562988,13494562.149047852,12151367.1875,-11635104.179382324,7486704.349517822,7863635.540008545,-1911005.2585601807,21735513.68713379,22781690.59753418,22455705.642700195,11779151.916503906,10161936.75994873,-4870149.1355896,-2430521.249771118,14032570.838928223,-14684778.213500977,-1328189.3730163574,-5895956.516265869,-12016590.118408203,-20428897.857666016,15786604.881286621,-2417842.8649902344,-15642197.608947754,-13629121.780395508,-28068254.470825195,-138053.96854877472,-11855410.5758667,-12234519.958496094,384020.2987194061,-12356059.074401855,-17546281.814575195,-19370540.618896484,-19226459.503173828,-14600124.35913086,-19102071.76208496,-13897112.846374512,-23041593.551635742,-7519598.007202148,-12968811.03515625,-21832742.69104004,-17664768.21899414,-18985563.278198242,-18780389.7857666,-9255642.890930176,-10554748.53515625,-7033928.871154785,-20277013.778686523,-21984367.37060547,-13784768.104553223,-9297938.346862793,-10062098.503112793
0.405,18901069.64111328,11200591.087341309,23389205.932617188,8226809.501647949,10371146.202087402,-13142738.342285156,-6955264.568328857,10290772.438049316,7962274.074554443,5416045.665740967,7537942.886352539,10647235.870361328,12035996.437072754,10773486.137390137,-12151338.577270508,4220833.778381348,6267275.333404541,-5056036.472320557,17792455.673217773,18805379.86755371,18482088.088989258,10440166.473388672,9585215.56854248,-4661473.751068115,-3184239.625930786,14652076.721191406,-16928531.646728516,-3082487.3447418213,-7607048.034667969,-12606463.432312012,-20448484.420776367,15358736.038208008,-1814255.3567886353,-14741934.776306152,-12939921.379089355,-28996833.80126953,-108047.40339517593,-12470212.936401367,-12759836.196899414,109057.17313289642,-11178197.860717773,-16465179.443359375,-18721792.221069336,-18587898.25439453,-12377180.099487305,-17121353.149414062,-13793188.095092773,-22351560.592651367,-8588871.955871582,-13011780.738830566,-21029624.938964844,-17221126.556396484,-17978532.791137695,-16652143.478393555,-9232584.953308105,-10625120.162963867,-7726112.842559814,-19923261.642456055,-20955352.783203125,-11514144.897460938,-9362843.51348877,-9929017.066955566
0.41,19808288.57421875,12149459.838867188,24288135.528564453,9146060.943603516,11475254.05883789,-8888016.700744629,-5139824.390411377,13343170.166015625,8031429.290771484,4767192.363739014,9714290.618896484,13782619.47631836,15074773.788452148,13932911.87286377,-8158210.754394531,6247611.045837402,8472296.714782715,-5878002.166748047,16734992.980957031,17911907.196044922,17321378.707885742,13578125.0,12824316.97845459,458313.37571144104,1175378.680229187,18191625.595092773,-17627510.07080078,-4216696.262359619,-7139978.408813477,-10794075.965881348,-15919026.374816895,16854335.78491211,4980626.106262207,-10936880.111694336,-10150181.770324707,-28766641.61682129,231904.44707870483,-10788431.167602539,-10767356.872558594,2547105.312347412,-8944408.416748047,-11508315.086364746,-15810940.742492676,-15490518.569946289,-8259186.744689941,-14773883.819580078,-11181888.580322266,-20273908.615112305,-5823331.832885742,-10582159.996032715,-16786697.387695312,-13346302.98614502,-13881978.034973145,-14199748.039245605,-6291456.22253418,-7400222.301483154,-5519703.388214111,-15986429.214477539,-16922157.287597656,-8526279.44946289,-6360713.958740234,-6735124.111175537
0.415,23686244.96459961,16637477.87475586,28764739.990234375,14974387.168884277,15556937.217712402,-3054723.5012054443,-288343.4295654297,19671110.153198242,11819594.383239746,9918410.301208496,15037808.418273926,19713682.174682617,20741575.241088867,19646320.343017578,-3180153.1314849854,11849165.916442871,13118386.268615723,-3008211.851119995,20153102.87475586,21592433.92944336,20777875.900268555,19281991.958618164,18405111.31286621,5538672.44720459,6557882.308959961,21106287.002563477,-17105054.85534668,-3535279.0355682373,-5124672.889709473,-7803875.44631958,-10444133.758544922,21173076.629638672,11541045.188903809,-8162670.135498047,-8160873.4130859375,-28062206.268310547,511702.12030410767,-7781456.94732666,-7579567.432403564,6171025.75302124,-5448718.547821045,-6752579.689025879,-13878273.010253906,-13332570.07598877,-6555775.165557861,-13512351.989746094,-7424479.007720947,-18114635.467529297,-1196313.8580322266,-6673803.329467773,-12996482.849121094,-9700262.069702148,-10027553.55834961,-12989132.88116455,-1506628.9901733398,-2300368.070602417,-306995.1832294464,-10777107.238769531,-12822343.826293945,-6236581.325531006,-1445963.2635116577,-1869068.2649612427
0.42,25651041.03088379,20217983.24584961,30893547.05810547,19974195.48034668,18767316.818237305,-675413.3105278015,2969363.6894226074,23864650.72631836,15349679.946899414,16196220.397949219,19505840.301513672,24203220.36743164,25083948.135375977,23965078.353881836,-1872803.4496307373,15258872.985839844,15838688.850402832,777332.3059082031,24206012.725830078,25817779.541015625,25095869.064331055,23545228.958129883,23317729.949951172,7123114.585876465,8849923.133850098,21107591.62902832,-17044685.36376953,-2228211.6413116455,-3920365.333557129,-5496406.555175781,-7187616.82510376,26667011.260986328,13430436.134338379,-8268476.486206055,-7581218.242645264,-27175027.84729004,503257.75146484375,-5367419.719696045,-5235575.199127197,9647300.720214844,-756406.3668251038,-4539143.5623168945,-13083468.437194824,-12517796.516418457,-7570819.854736328,-13183655.738830566,-4622098.922729492,-16286943.435668945,2803920.7458496094,-1661278.9630889893,-11934908.866882324,-8388546.943664551,-8022718.42956543,-12783107.75756836,2505071.1631774902,1805342.5550460815,5790659.9044799805,-6660614.967346191,-10273414.611816406,-5106321.334838867,2652678.4896850586,1945914.626121521
0.425,22672979.3548584,19503187.17956543,27488918.30444336,18897680.282592773,18085994.720458984,-3260088.6821746826,1566288.709640503,22823534.01184082,14862688.064575195,16729686.737060547,19845289.23034668,24211639.404296875,25233860.01586914,24080213.54675293,-4408774.852752686,12879950.523376465,14299124.717712402,1159850.4781723022,24530736.923217773,26053915.02380371,25655612.94555664,23531747.817993164,24067358.016967773,6327804.088592529,7844813.823699951,19558288.57421875,-18003149.032592773,-1878494.6203231812,-4476715.087890625,-5376799.583435059,-7340140.342712402,28312025.07019043,12173548.698425293,-9035708.4274292,-7010162.353515625,-26509834.28955078,309081.40540122986,-5261991.97769165,-5247329.7119140625,11169910.430908203,2110347.032546997,-3645103.2161712646,-11689575.1953125,-11335285.186767578,-8659451.484680176,-13302335.739135742,-4439917.087554932,-15198530.197143555,4244949.817657471,1906069.7555541992,-11937212.944030762,-8064113.616943359,-7244123.935699463,-12940149.307250977,3268268.10836792,2557912.1112823486,8761809.349060059,-4922344.207763672,-8933215.141296387,-5381916.046142578,3421584.129333496,2495397.5677490234
0.43,17016719.818115234,15920270.919799805,21552036.28540039,13237032.890319824,15306371.688842773,-7850306.034088135,-2643839.120864868,18732748.03161621,11019486.427307129,12037248.611450195,17285091.400146484,21077602.38647461,22373212.814331055,21179935.455322266,-7304690.361022949,7018148.422241211,10650573.73046875,-2075119.2569732666,21890300.750732422,23054515.838623047,22960304.260253906,20573978.424072266,20703893.661499023,5243570.804595947,6004403.591156006,18531221.389770508,-18812246.322631836,-2292021.0361480713,-5144477.367401123,-7016446.113586426,-9732840.538024902,24377040.86303711,10582319.259643555,-8195198.059082031,-6124835.014343262,-26615339.279174805,168463.796377182,-7025815.486907959,-6967964.649200439,10033031.463623047,810662.4484062195,-2746742.010116577,-9946917.533874512,-9791160.583496094,-8525457.382202148,-13463219.64263916,-6161584.377288818,-15013701.438903809,3392189.9795532227,1286196.231842041,-11008668.899536133,-7331475.257873535,-6858290.672302246,-13031406.40258789,1505762.9346847534,885632.6937675476,7525831.22253418,-5082821.846008301,-8094456.672668457,-6512825.012207031,1619762.7782821655,757268.0711746216
0.435,13190378.189086914,13399709.701538086,18066341.400146484,8953491.2109375,14238580.703735352,-10827489.852905273,-5430288.791656494,15902295.112609863,7603553.771972656,8925243.377685547,15780523.300170898,19019699.096679688,20434444.427490234,19173164.36767578,-8371952.056884766,2615025.520324707,7974801.063537598,-4956888.198852539,20215574.264526367,21010974.884033203,21073535.919189453,18715930.938720703,17930475.23498535,3694001.4362335205,4742914.67666626,17816719.05517578,-18758367.53845215,-2350230.4553985596,-4324900.6271362305,-8108415.603637695,-11524868.965148926,20435903.549194336,8191699.981689453,-7060517.311096191,-6452595.7107543945,-27424028.396606445,237492.18881130219,-8159821.510314941,-7953494.071960449,8341933.250427246,-1895326.9720077515,-2954075.0980377197,-10175309.181213379,-9974611.282348633,-8445720.672607422,-13037488.93737793,-6981136.798858643,-14941487.312316895,2847455.9783935547,-1868353.8436889648,-10326741.218566895,-7519322.872161865,-6992763.042449951,-12547036.170959473,849540.8296585083,368116.43838882446,6047183.513641357,-5459049.224853516,-7861629.486083984,-6737358.570098877,932018.2204246521,267751.15728378296
0.44,13140544.891357422,13623858.451843262,18318214.416503906,9019968.032836914,15674944.877624512,-11117656.707763672,-4837681.293487549,15996834.754943848,6821906.566619873,10421991.348266602,17091392.517089844,20453485.4888916,21747636.795043945,20439954.75769043,-8359976.768493652,1695835.4711532593,6448595.04699707,-5224024.295806885,20558597.564697266,21329465.866088867,21377048.49243164,20220731.735229492,19963459.014892578,1194289.5650863647,3760003.3283233643,16490987.777709961,-18842048.64501953,-2140525.5794525146,-2888144.016265869,-6901495.456695557,-10282642.364501953,22595333.099365234,3967368.3643341064,-8094703.674316406,-8754653.930664062,-28049276.35192871,496178.2991886139,-6881958.484649658,-6608479.022979736,9094438.552856445,-1079559.8030090332,-5218461.513519287,-13066598.892211914,-12646003.723144531,-9373553.276062012,-11745496.74987793,-5156846.523284912,-13987031.936645508,4897544.384002686,-2541840.3148651123,-11709972.381591797,-9920244.216918945,-7663664.3409729,-11281930.923461914,3377382.0400238037,2895838.737487793,8174331.6650390625,-4939161.777496338,-8413974.76196289,-4885059.356689453,3447548.6278533936,2837957.1437835693
0.445,15265534.400939941,15296369.552612305,20137546.53930664,11265440.940856934,17508897.78137207,-9981980.323791504,-2228428.363800049,17743415.83251953,7752125.7400512695,12352055.549621582,19344667.434692383,23814172.744750977,24914642.333984375,23681489.944458008,-8346560.478210449,2473983.7646484375,4800826.549530029,-5076977.729797363,20294500.35095215,21431871.41418457,21268188.4765625,23534591.674804688,25318500.518798828,-497202.99243927,3531628.8471221924,15693972.58758545,-20001749.03869629,-2853644.609451294,-2723017.692565918,-4153237.3428344727,-6261315.34576416,28975002.28881836,585475.742816925,-10260340.690612793,-11034405.708312988,-27555522.918701172,746663.3319854736,-4113091.468811035,-3901250.6008148193,12537988.662719727,3664469.2420959473,-7221061.706542969,-15821783.065795898,-15283429.145812988,-9806821.823120117,-10344759.941101074,-2020392.4179077148,-12218613.624572754,8985453.605651855,1240005.612373352,-13211530.685424805,-11983091.354370117,-7583317.756652832,-9928627.014160156,6965253.3531188965,6373823.642730713,12428579.330444336,-3747239.589691162,-8750436.782836914,-2202880.382537842,7003516.19720459,6295939.922332764
0.45,16351493.835449219,16112342.834472656,20903417.587280273,12411932.945251465,17616178.512573242,-9428360.939025879,77482.9164147377,19585826.873779297,8449883.460998535,10318301.2008667,19500724.79248047,25319087.982177734,26342039.108276367,25288043.975830078,-8301736.831665039,2762790.2030944824,3438447.7138519287,-6888391.494750977,17675674.438476562,19191110.610961914,18692647.93395996,25003347.396850586,28125617.98095703,394255.51891326904,5707306.385040283,17394115.447998047,-21268650.05493164,-4736554.6226501465,-4073858.7379455566,-2287763.5955810547,-2888615.131378174,31899093.627929688,1699449.5391845703,-9837517.738342285,-10272786.140441895,-25671949.38659668,760560.8105659485,-2316106.7962646484,-2192946.9108581543,15469681.739807129,7243800.640106201,-5778591.156005859,-14932595.252990723,-14486955.642700195,-7782789.23034668,-9987382.888793945,-343796.4618206024,-10829467.7734375,12204774.856567383,5359636.7835998535,-11136910.438537598,-9881687.16430664,-5489175.319671631,-9565591.812133789,7978682.994842529,7374393.939971924,14182786.94152832,-2681277.9903411865,-7595028.877258301,-1232699.990272522,7924322.128295898,7175355.434417725
0.455,13972015.380859375,13927406.311035156,18456726.07421875,11314341.54510498,14596666.33605957,-10566068.649291992,1144934.7734451294,20871419.90661621,7825477.123260498,5311763.286590576,15795399.66583252,22066591.262817383,23153463.36364746,22206327.438354492,-8126963.6154174805,2518244.0280914307,3717274.4274139404,-9065633.773803711,14023266.792297363,15549214.363098145,14821624.755859375,21802938.46130371,24262477.87475586,2773525.4764556885,10341724.395751953,21180971.145629883,-20839439.392089844,-6388757.705688477,-5865146.636962891,-3070720.1957702637,-4386496.067047119,27513208.389282227,6316062.450408936,-5696797.3709106445,-5695664.405822754,-22812934.87548828,547606.4682006836,-3077556.1332702637,-3009416.103363037,14298996.925354004,4914335.250854492,-1600994.2293167114,-9910346.031188965,-9550564.765930176,-3914572.7157592773,-10954428.672790527,-1538846.1351394653,-11232181.549072266,11895088.195800781,4239762.306213379,-6139604.091644287,-4450142.383575439,-2406105.2799224854,-10518516.540527344,5276390.552520752,4780041.217803955,11474799.156188965,-2374013.662338257,-5584814.071655273,-2908780.574798584,5096620.082855225,4415238.857269287
0.46,8858572.959899902,8066513.0615234375,11853914.260864258,8622553.825378418,8125372.886657715,-12180697.441101074,1816728.7111282349,21602060.317993164,6047347.545623779,923424.6015548706,8920008.659362793,14558511.734008789,15746705.055236816,14711856.842041016,-8012140.274047852,3056674.9572753906,5247488.021850586,-8415219.3069458,11240988.731384277,12489279.747009277,11791584.014892578,14381762.504577637,15569163.32244873,4469530.5824279785,14818617.820739746,24427577.97241211,-18517646.78955078,-6526793.956756592,-7678888.79776001,-6203332.901000977,-11587079.048156738,19683593.75,9712791.442871094,-1202506.7806243896,191553.7416934967,-20014526.3671875,390152.0371437073,-6019622.802734375,-6002824.306488037,8694402.694702148,-2613122.4632263184,913462.3408317566,-3830532.3123931885,-3310730.218887329,-947661.4594459534,-12637731.552124023,-4821432.113647461,-13983431.816101074,7972154.61730957,-2514978.4088134766,-3585797.5482940674,-1196856.7371368408,-1167878.6277770996,-12247756.958007812,628684.3419075012,157483.92045497894,6482192.039489746,-3352889.060974121,-5226460.4568481445,-5796450.138092041,388843.23835372925,-284067.8095817566
0.465,5230344.295501709,1356714.8447036743,3886162.9962921143,5868179.798126221,1085097.1937179565,-11606030.464172363,3328211.0691070557,22397037.506103516,4531961.917877197,-1125833.7497711182,2537367.105484009,7376372.814178467,8614398.002624512,7419573.783874512,-7560473.918914795,4797666.072845459,6218952.655792236,-4982625.961303711,9939299.583435059,11014844.89440918,10472993.850708008,7229840.278625488,8356809.616088867,5498034.477233887,16667970.657348633,25555747.985839844,-16019380.569458008,-5547331.809997559,-9520343.780517578,-9580792.427062988,-19742948.532104492,14610051.155090332,9718721.389770508,83577.07411050797,3823211.193084717,-18716926.57470703,464460.19411087036,-9238015.174865723,-9266942.977905273,2490806.3411712646,-9894007.682800293,-905740.4398918152,-455308.7055683136,392105.90720176697,-537394.4044113159,-14485301.971435547,-8191834.449768066,-17783998.489379883,3459894.895553589,-9324476.24206543,-6578758.239746094,-3403552.532196045,-3120492.2199249268,-14157291.412353516,-3491280.3173065186,-4080447.196960449,2425371.1700439453,-5732874.870300293,-7858430.3855896,-8113955.497741699,-3651933.9084625244,-4439101.696014404
0.47,6446147.918701172,-1324666.2616729736,385297.0600128174,4740236.282348633,-1118717.908859253,-8821749.687194824,5209273.815155029,23696226.119995117,4880170.822143555,-844174.2062568665,1382440.3285980225,6077610.969543457,7310724.258422852,6100295.543670654,-6759860.515594482,6164274.6925354,5888226.9859313965,-2010025.7396697998,10595865.249633789,11773792.266845703,11282393.455505371,5890158.176422119,7977861.404418945,6397693.157196045,15911728.858947754,25256233.21533203,-14926963.806152344,-4690472.12600708,-10200452.80456543,-10879319.190979004,-22031333.923339844,14806379.318237305,8253718.376159668,-1715830.92212677,3573856.5921783447,-19705871.58203125,561457.0379257202,-10610328.674316406,-10616629.600524902,540759.9806785583,-11655420.303344727,-5139528.274536133,-1126904.845237732,-60657.57945179939,-1882271.7666625977,-16422887.802124023,-9891621.589660645,-19977384.567260742,2238723.9933013916,-10630689.62097168,-11851414.680480957,-8173299.789428711,-6482450.008392334,-16083662.033081055,-5586511.611938477,-6213447.093963623,942431.4498901367,-8582980.155944824,-11725607.872009277,-9628778.457641602,-5582806.11038208,-6424530.982971191
0.475,9576245.307922363,1003971.2190628052,3772480.249404907,4885786.533355713,3304268.3601379395,-8768350.601196289,4531562.805175781,23753755.569458008,6270460.605621338,1226313.829421997,6402127.742767334,11486705.780029297,12692335.12878418,11620559.692382812,-8083561.897277832,4462197.780609131,4564208.984375,-1886791.9445037842,13734030.723571777,15069266.319274902,14506374.35913086,11230822.563171387,14066387.176513672,4707611.560821533,13430709.838867188,24297428.131103516,-15280547.142028809,-4350309.371948242,-8274402.618408203,-9655542.373657227,-16703407.287597656,18602083.206176758,6349525.928497314,-4746222.972869873,536394.1192626953,-21945568.084716797,416905.7309627533,-9601645.469665527,-9518032.07397461,3664558.4106445312,-7477618.217468262,-8865979.194641113,-4410164.833068848,-3326453.447341919,-3723815.91796875,-18492294.311523438,-9788941.383361816,-19323892.59338379,4989729.404449463,-7018280.029296875,-14845866.203308105,-11219041.82434082,-8930772.78137207,-18094329.833984375,-5849586.486816406,-6302160.739898682,1553748.4884262085,-10666983.604431152,-14315266.609191895,-11328988.075256348,-5769202.709197998,-6460774.4216918945
0.48,7198740.005493164,2813966.0358428955,8810687.065124512,2659680.128097534,8944153.785705566,-16790052.41394043,-1658198.4758377075,19040143.966674805,4896484.851837158,2862667.5605773926,12492278.099060059,17947809.21936035,19104827.880859375,18132505.416870117,-15117832.18383789,-1808192.491531372,1604911.3273620605,-4330195.903778076,17652088.165283203,18975667.95349121,18365175.247192383,17610403.060913086,20850603.103637695,-3074636.697769165,8669871.33026123,22031581.87866211,-16369766.235351562,-4094457.6263427734,-4752965.450286865,-7843760.4904174805,-9661453.247070312,22663990.020751953,1604664.5641326904,-9225060.46295166,-3353109.59815979,-23199928.283691406,194029.70373630524,-7919422.626495361,-7777291.297912598,7354996.681213379,-2288400.650024414,-12458301.544189453,-8410943.031311035,-7360715.389251709,-6104998.1117248535,-20464826.583862305,-9471890.449523926,-17774362.564086914,7990366.9357299805,-4241835.594177246,-16121162.414550781,-12852929.11529541,-10677055.358886719,-20059669.494628906,-6019437.313079834,-6310465.335845947,2152108.4308624268,-12087147.71270752,-15686263.084411621,-13753978.729248047,-6081106.185913086,-6556397.914886475
0.485,-3424084.424972534,-1321730.136871338,8659704.208374023,-4855514.049530029,9409491.539001465,-31238365.173339844,-12299817.085266113,8986219.40612793,-1645606.279373169,740050.6734848022,13795976.638793945,19549957.275390625,20629650.115966797,19622610.092163086,-27452388.763427734,-10682535.171508789,-3849067.211151123,-7997766.494750977,18534770.965576172,19750566.482543945,19154222.48840332,19106948.852539062,23163602.828979492,-15535668.37310791,1298010.1108551025,18059253.692626953,-18018690.10925293,-3983151.912689209,-2672108.4117889404,-7181886.672973633,-7759062.767028809,24259881.9732666,-7240682.601928711,-16304594.039916992,-7195221.424102783,-22364650.72631836,295380.71155548096,-7271507.263183594,-7148626.804351807,7366313.457489014,-1159860.610961914,-18031522.750854492,-12598139.762878418,-11537452.697753906,-9041013.717651367,-21563922.882080078,-9820940.971374512,-17372213.36364746,7979880.809783936,-5624006.748199463,-19289848.32763672,-16096908.569335938,-13233387.94708252,-21192588.806152344,-7109437.942504883,-7486481.189727783,1285833.9548110962,-13777638.43536377,-17570396.423339844,-15821058.27331543,-7438281.059265137,-7875327.587127686
0.49,-15623158.45489502,-9230522.155761719,3764714.241027832,-14639480.590820312,5624900.817871094,-43459110.260009766,-21756809.23461914,-1206308.0072402954,-10087733.268737793,-5236127.3765563965,10803562.16430664,17152221.6796875,18184309.005737305,17125473.022460938,-38935958.86230469,-17429117.20275879,-10045023.918151855,-11744220.733642578,14924320.220947266,16100439.071655273,15508079.528808594,16617507.934570312,21821374.893188477,-25824687.957763672,-5991142.749786377,13910068.51196289,-20355432.510375977,-4700679.779052734,-3151715.5170440674,-6488134.860992432,-10520829.200744629,23058771.13342285,-16308551.788330078,-23850748.06213379,-10635638.236999512,-20639280.319213867,688432.9319000244,-6619819.164276123,-6512121.200561523,5737576.961517334,-3217342.1382904053,-24570751.190185547,-16695198.059082031,-15668820.38116455,-10662683.486938477,-20528120.040893555,-8846357.345581055,-16055290.222167969,7321897.029876709,-7294972.896575928,-24097126.007080078,-20451646.80480957,-15813178.062438965,-20118343.353271484,-6946927.547454834,-7503390.789031982,846314.7282600403,-15082326.889038086,-19618686.67602539,-15386671.06628418,-7399428.367614746,-8003827.095031738
0.495,-20608217.239379883,-14013701.438903809,716704.785823822,-19762756.34765625,3828560.3523254395,-46601421.35620117,-24721755.981445312,-5360203.266143799,-14222341.537475586,-10137810.707092285,9278377.532958984,16486051.559448242,17600801.467895508,16567708.969116211,-43249610.900878906,-18535871.505737305,-13120451.927185059,-14045385.360717773,10584923.74420166,11748528.480529785,11183897.972106934,15955360.412597656,21682100.296020508,-28531269.073486328,-9097311.973571777,11721537.590026855,-22639213.56201172,-6150990.962982178,-3753112.79296875,-3253390.5506134033,-11496520.042419434,21593852.996826172,-20078544.61669922,-26816574.096679688,-12420454.025268555,-19889053.344726562,832501.3518333435,-3473166.9425964355,-3316200.4947662354,8107990.264892578,-2760260.820388794,-27455537.796020508,-18840770.721435547,-17950727.462768555,-8678156.852722168,-16797998.428344727,-4035947.799682617,-10011308.670043945,11070767.402648926,-3433501.0051727295,-25677057.26623535,-21474992.752075195,-15320075.035095215,-16269987.106323242,-2270201.6830444336,-2793271.064758301,4345433.235168457,-13648825.645446777,-18943994.522094727,-11507065.773010254,-2558781.385421753,-3343844.413757324
