time,Fp1,Fpz,Fp2,AF3,AF4,F7,F5,F3,F1,Fz,F2,F4,F6,F8,FT7,FC5,FC3,FC1,FCz,FC2,FC4,FC6,FT8,T7,C5,C3,C1,Cz,C2,C4,C6,T8,TP7,CP5,CP3,CP1,CPz,CP2,CP4,CP6,TP8,P7,P5,P3,P1,Pz,P2,P4,P6,P8,PO7,PO5,PO3,POz,PO4,PO6,PO8,CB1,O1,Oz,O2,CB2
0.0,-2756664.991378784,-2268580.913543701,-1802617.3114776611,-1806696.2957382202,36727.458238601685,-1298305.869102478,-2292985.200881958,-1683165.431022644,-1114904.522895813,-531048.4766960144,201549.42572116852,414594.3224430084,444291.6512489319,432770.84827423096,-2196233.7493896484,246449.276804924,537597.0602035522,433379.1434764862,144087.62753009796,170196.19047641754,128503.9335489273,470264.4646167755,591608.464717865,-823883.7718963623,567066.4310455322,-25121.768936514854,-1086439.7287368774,378034.0850353241,-185936.19763851166,470356.9710254669,698664.665222168,396833.8370323181,-3407274.007797241,-1112760.7822418213,527946.412563324,-1014705.7771682739,7964.947260916233,434277.32586860657,482392.93694496155,-609299.6001243591,2462538.719177246,145268.35083961487,-636887.9675865173,-786060.6908798218,2013805.1509857178,-572160.3035926819,-148080.4830789566,1368178.367614746,1554065.7043457031,91418.95920038223,101053.66259813309,231155.6488275528,-251453.2208442688,-553931.1766624451,88480.47256469727,131885.70737838745,1298605.6804656982,-1062413.9308929443,-773346.483707428,-396331.0718536377,84851.44376754761,90439.29725885391
0.005,-14186889.6484375,1240308.7615966797,-512198.8654136658,16053115.844726562,6630185.604095459,28094684.600830078,5582878.589630127,10564789.772033691,12819678.30657959,4246702.671051025,377244.59171295166,-4283061.981201172,-3318044.662475586,-3717694.7593688965,17698623.657226562,18019096.37451172,13960253.715515137,9239253.997802734,1960197.5679397583,2205523.2524871826,546141.0284042358,-2471896.6484069824,7629080.295562744,31887083.053588867,8591772.079467773,7869927.406311035,4465374.46975708,4944517.135620117,-118508.77106189728,-9149242.401123047,-10871018.409729004,888925.6119728088,6428134.441375732,2998367.5479888916,1679595.2320098877,-1086230.6356430054,213127.82168388367,-9093394.27947998,-8339009.2849731445,-11279372.215270996,-11319117.546081543,-13289159.774780273,2261900.6633758545,1252306.9381713867,-1517438.7693405151,-8621243.476867676,-12738517.761230469,-16139129.638671875,-13857263.565063477,-10366734.504699707,-9931882.858276367,-11119349.479675293,-4228052.616119385,-7779049.396514893,-13494088.172912598,-13477821.350097656,-20607213.973999023,-5969272.136688232,-4170552.7305603027,-7999135.494232178,-12908263.206481934,-13045828.819274902
0.01,-19577131.271362305,-922440.6480789185,-4420907.974243164,22922258.377075195,4086220.7412719727,43219341.27807617,10228061.67602539,15953909.873962402,16599912.643432617,3248464.822769165,-5797218.799591064,-13710855.484008789,-12437496.185302734,-12811872.482299805,28312986.373901367,26333150.86364746,19521593.09387207,12265915.870666504,251680.6721687317,747180.9387207031,-1869583.6067199707,-11214960.098266602,1494178.8911819458,43809600.830078125,12585862.159729004,10794227.600097656,6554675.579071045,6758231.639862061,-2312979.6981811523,-15138442.039489746,-20832006.454467773,-5616186.618804932,8350179.672241211,3308218.7175750732,1843317.8663253784,-340128.21316719055,190567.88086891174,-14796595.573425293,-14037178.993225098,-19658510.208129883,-22354953.76586914,-20226825.714111328,2163838.8633728027,1060116.8870925903,-2619585.0372314453,-11758978.843688965,-19056365.966796875,-25348772.048950195,-23393800.735473633,-19251014.709472656,-14906030.654907227,-16053613.662719727,-6232821.464538574,-10439626.693725586,-20775911.331176758,-20841791.1529541,-34436557.76977539,-10546443.939208984,-6842828.750610352,-10819416.999816895,-20037073.135375977,-20294435.501098633
0.015,-23132596.969604492,-11157475.471496582,-15637977.600097656,15520314.21661377,-8085188.865661621,39741649.62768555,7623227.119445801,11708999.633789062,9469807.624816895,-3564754.4860839844,-17335533.142089844,-26413047.790527344,-25368186.950683594,-25413663.864135742,25303970.336914062,22217079.162597656,15970712.661743164,9109514.236450195,-4139159.679412842,-3375214.5767211914,-6240843.772888184,-24202957.153320312,-14817327.499389648,34469440.46020508,10199003.219604492,8100010.871887207,4327615.261077881,5917718.410491943,-5436534.404754639,-15762353.897094727,-27330711.364746094,-16457744.598388672,1283938.0502700806,-825206.3989639282,484614.16363716125,751383.1257820129,7780.8876521885395,-15069675.44555664,-14813108.444213867,-23446306.228637695,-27617271.423339844,-21930994.033813477,-377542.8235530853,-1047160.8638763428,-1375800.9672164917,-9975838.661193848,-17624927.520751953,-23441955.56640625,-24191764.83154297,-23182054.51965332,-15461585.998535156,-15512477.87475586,-6483512.401580811,-8587903.022766113,-19620784.759521484,-19698026.657104492,-35467113.49487305,-13244385.719299316,-8169540.4052734375,-9235770.225524902,-19142320.63293457,-19396413.803100586
0.02,-30608747.482299805,-24849925.994873047,-29305633.544921875,1538358.6883544922,-20865009.307861328,26205736.16027832,-1659762.6209259033,2176872.2534179688,244563.2666349411,-10354664.80255127,-26573001.861572266,-35543418.884277344,-34688861.84692383,-34590232.849121094,13311609.268188477,11823138.236999512,9408374.786376953,4920920.848846436,-6556943.416595459,-5557597.637176514,-8356551.170349121,-33728668.212890625,-26744701.385498047,20574474.334716797,3596506.357192993,4108877.658843994,452216.2675857544,5078766.345977783,-6160215.854644775,-12777173.042297363,-29168739.318847656,-23160781.860351562,-8280744.552612305,-6120228.7673950195,-1507795.810699463,1520657.5393676758,-92395.81972360611,-11997986.793518066,-11980621.337890625,-22449811.935424805,-26682691.57409668,-23614885.330200195,-2001163.9595031738,-2515155.792236328,-199687.57033348083,-7829700.469970703,-12935007.095336914,-15507940.292358398,-19119602.20336914,-21010622.024536133,-15147040.367126465,-14392993.927001953,-6512429.237365723,-6553120.6130981445,-13976082.801818848,-13915866.85180664,-27065940.856933594,-12820766.44897461,-8022933.006286621,-7800019.264221191,-13771231.651306152,-13871324.53918457
0.025,-38259132.385253906,-33339504.24194336,-36593086.24267578,-7036453.2470703125,-24854467.391967773,15312253.952026367,-10414852.142333984,-4607162.952423096,-2406764.268875122,-11633712.768554688,-27801267.623901367,-36688739.77661133,-35709362.0300293,-35890075.68359375,2434553.384780884,4721292.018890381,6635963.439941406,4732552.051544189,-3929553.0319213867,-2783288.00201416,-5496946.811676025,-34941249.84741211,-27030622.482299805,14844011.306762695,-1698233.962059021,3639731.8840026855,-1360894.2031860352,6442155.838012695,-3853232.1453094482,-10730233.192443848,-27779546.7376709,-23317039.489746094,-13491856.575012207,-8953207.969665527,-2419463.872909546,2309674.024581909,-1306.641730479896,-10234868.049621582,-9879020.690917969,-20454624.17602539,-24401514.053344727,-26992572.784423828,-1072493.076324463,-1915544.3906784058,-1197950.005531311,-9463292.121887207,-11604389.190673828,-11016716.957092285,-15760159.492492676,-18156412.12463379,-15412860.870361328,-14667757.034301758,-7424666.404724121,-8233434.677124023,-11406755.447387695,-11254496.574401855,-20862482.07092285,-11346454.620361328,-7783916.473388672,-9951018.333435059,-11208690.643310547,-11167750.358581543
0.03,-40125839.23339844,-34223316.19262695,-35280891.41845703,-6385263.919830322,-20600820.541381836,11390356.063842773,-13180632.591247559,-5728979.587554932,860833.7640762329,-8570785.522460938,-24223754.8828125,-33805656.43310547,-32641338.348388672,-33210380.55419922,-1953911.0660552979,3937610.864639282,7778200.149536133,7708955.764770508,951423.6450195312,2124100.685119629,-576897.5615501404,-32002407.07397461,-23840572.357177734,13979779.243469238,-3114204.8835754395,6537250.518798828,-395870.05972862244,9419154.167175293,-1810628.056526184,-13066408.157348633,-27526279.44946289,-23683504.104614258,-14404123.306274414,-9698131.561279297,-2068192.720413208,3398132.085800171,189731.4339876175,-12932108.879089355,-12141389.846801758,-22708614.349365234,-27572837.829589844,-31140218.73474121,-22549.14678633213,-1093405.7235717773,-3850270.7481384277,-14331353.187561035,-16305971.145629883,-15660451.889038086,-19978803.634643555,-22236389.16015625,-16636072.158813477,-15972754.47845459,-9696115.493774414,-13061761.856079102,-16753356.93359375,-16763420.104980469,-27095449.447631836,-13483247.756958008,-10132176.399230957,-14784326.553344727,-16413881.301879883,-16405864.715576172
0.035,-40212352.75268555,-35217788.69628906,-33562099.45678711,-4646905.422210693,-17541366.577148438,8872179.03137207,-13564719.200134277,-6438146.591186523,1942394.3758010864,-7730825.424194336,-23963420.867919922,-34628177.642822266,-33494510.650634766,-34114048.00415039,-3523859.739303589,3826108.21723938,7114605.42678833,8275465.01159668,2032717.9431915283,3138456.8214416504,302054.5244216919,-32795688.62915039,-27839185.71472168,8788980.484008789,-3919770.9560394287,7934183.120727539,363615.33403396606,11354592.323303223,-3180204.153060913,-18371707.916259766,-31661767.959594727,-29630428.314208984,-16116781.234741211,-11714268.684387207,-2501701.1165618896,3973956.346511841,356159.6870422363,-18294944.763183594,-17532815.93322754,-29937253.952026367,-36932785.03417969,-36758060.455322266,-1876750.8268356323,-2663676.5003204346,-5624033.9279174805,-18036705.017089844,-23091417.31262207,-25731788.635253906,-29578868.865966797,-33128215.789794922,-20351266.860961914,-19236099.243164062,-13142242.431640625,-16790811.53869629,-26972408.294677734,-27265541.076660156,-42788501.73950195,-20701189.041137695,-15915263.175964355,-18656261.444091797,-26614110.946655273,-26724740.982055664
0.04,-46103549.95727539,-43388099.670410156,-38747058.8684082,-10623238.563537598,-21924922.943115234,3486681.6997528076,-17903015.13671875,-11924042.701721191,-4098843.0976867676,-13114459.991455078,-29595441.818237305,-40542007.44628906,-39544799.8046875,-39879234.313964844,-7062442.302703857,-645362.377166748,1424724.2212295532,3271417.6177978516,-2907722.4731445312,-1853326.2014389038,-4972744.464874268,-38562206.26831055,-37051879.8828125,-563359.0817451477,-7492119.789123535,4490916.728973389,-1696387.1717453003,10291565.895080566,-7045219.421386719,-21619474.411010742,-37858249.66430664,-36454631.80541992,-20440902.709960938,-15858606.338500977,-5291411.399841309,3526151.8955230713,441470.8912372589,-21245952.606201172,-20914094.924926758,-36378772.7355957,-44841644.287109375,-44162448.88305664,-5601628.303527832,-5984691.143035889,-5082770.824432373,-17315408.70666504,-25520322.799682617,-31897424.697875977,-36215095.52001953,-41379581.451416016,-26263908.38623047,-24621255.87463379,-16164653.778076172,-16224403.381347656,-33576786.041259766,-33981639.86206055,-53394237.51831055,-27765024.185180664,-21612520.217895508,-19029741.287231445,-33357872.009277344,-33461330.41381836
0.045,-55089714.05029297,-54675434.11254883,-46806457.51953125,-22080787.658691406,-29634172.439575195,-1135016.918182373,-25164171.21887207,-19736173.629760742,-13471307.754516602,-21565752.029418945,-35481616.97387695,-45213878.6315918,-44212234.49707031,-44340080.26123047,-10984596.252441406,-6727549.5529174805,-5629840.37399292,-4070890.426635742,-9725430.488586426,-8591977.1194458,-11902182.579040527,-42999752.044677734,-40811267.8527832,-5927077.293395996,-11953557.014465332,-1500157.8330993652,-5370193.004608154,6745244.026184082,-9898464.20288086,-19809762.954711914,-40504837.03613281,-35957565.30761719,-23758726.119995117,-19129041.67175293,-9302866.93572998,3143080.234527588,445948.89879226685,-19080915.451049805,-19105346.6796875,-35979286.193847656,-43949829.1015625,-49927711.486816406,-7555696.964263916,-8007048.606872559,-3764118.194580078,-13592957.496643066,-21650970.458984375,-29149658.203125,-34568470.0012207,-39235881.80541992,-30128124.237060547,-28516874.313354492,-16800086.975097656,-12646998.405456543,-31605360.03112793,-31931837.08190918,-49042346.9543457,-28408842.086791992,-22691562.65258789,-16671966.552734375,-31471872.329711914,-31456308.364868164
0.05,-58105712.890625,-60105953.216552734,-49176776.88598633,-29679140.090942383,-33234928.131103516,-1092190.8617019653,-29267862.31994629,-24038391.11328125,-19569171.905517578,-27141304.01611328,-36386676.78833008,-44292907.71484375,-43164199.82910156,-43413654.32739258,-11721294.403076172,-9055997.848510742,-8906854.629516602,-8422814.36920166,-13129545.211791992,-11819778.442382812,-14979772.567749023,-42072929.38232422,-36124332.427978516,-4693428.516387939,-13669614.791870117,-5279041.767120361,-7439703.941345215,3048607.82623291,-10135285.377502441,-15389385.223388672,-38218536.376953125,-29094375.610351562,-23949354.17175293,-19704717.6361084,-12248875.617980957,3934176.9218444824,440128.02839279175,-14539958.953857422,-14613162.04071045,-29952920.91369629,-36846347.80883789,-50874290.466308594,-7032860.279083252,-7949866.771697998,-4289393.901824951,-11140078.5446167,-16024068.832397461,-21881824.493408203,-28089965.8203125,-30510105.13305664,-29003049.850463867,-27689933.77685547,-15625408.172607422,-10147106.170654297,-25156307.220458984,-25429218.292236328,-36392211.9140625,-23879987.716674805,-19800939.559936523,-14617236.137390137,-24906568.52722168,-24911544.799804688
0.055,-55022651.67236328,-59019207.00073242,-45936943.05419922,-29861152.64892578,-31960739.135742188,-28169.315308332443,-28883258.819580078,-24133953.094482422,-20945329.666137695,-27897314.071655273,-34211116.790771484,-41426563.26293945,-40258934.020996094,-40755172.72949219,-10966896.057128906,-7912765.5029296875,-8523760.795593262,-8753541.946411133,-12338352.20336914,-10945842.742919922,-13736637.115478516,-39496219.635009766,-31771541.595458984,-3355051.7559051514,-13073810.577392578,-5079219.341278076,-6801171.30279541,1320223.6890792847,-9335798.263549805,-13054199.21875,-35774711.60888672,-25277193.069458008,-23948902.130126953,-19602918.62487793,-13232484.817504883,5162715.911865234,520618.9155578613,-12346936.225891113,-12337960.243225098,-25447082.51953125,-32982250.213623047,-49270530.700683594,-6800631.523132324,-7951621.532440186,-6861767.292022705,-11954836.84539795,-14139296.531677246,-18250293.731689453,-24276575.088500977,-25618007.65991211,-25938657.760620117,-24479705.810546875,-15474905.014038086,-10753684.043884277,-22106311.798095703,-22387462.615966797,-30192550.659179688,-21411437.98828125,-18209865.57006836,-14901845.932006836,-21620996.475219727,-21891107.5592041
0.06,-53873687.744140625,-58203468.322753906,-44053806.30493164,-27503799.438476562,-30254217.14782715,-2492402.0767211914,-27712024.688720703,-23472326.278686523,-20546140.670776367,-26267892.837524414,-33263809.204101562,-41433933.25805664,-40365734.1003418,-40940502.16674805,-11928758.62121582,-6901912.212371826,-8038878.440856934,-8170123.100280762,-10045820.236206055,-8786822.319030762,-11356667.518615723,-39720829.010009766,-34361854.553222656,-5999315.26184082,-12565358.16192627,-2626476.287841797,-5000590.3244018555,1966754.3172836304,-9267845.153808594,-14043804.168701172,-36789806.3659668,-28448345.184326172,-25243362.426757812,-20032276.153564453,-12513858.795166016,5639126.777648926,653624.7134208679,-13561599.731445312,-13532624.244689941,-26291845.321655273,-35861545.56274414,-48795467.376708984,-7519662.857055664,-8359007.835388184,-8689761.1618042,-13428561.210632324,-16096544.26574707,-20824018.478393555,-25645332.33642578,-27986412.048339844,-24653606.414794922,-22716938.018798828,-16581842.422485352,-12098325.729370117,-24030216.217041016,-24204685.21118164,-34642574.310302734,-23161962.509155273,-19526926.040649414,-16094430.923461914,-23353425.979614258,-23885177.612304688
0.065,-55774986.267089844,-59583919.525146484,-44870182.037353516,-26493097.30529785,-29455379.486083984,-4312917.709350586,-26457868.576049805,-22517127.990722656,-19780988.693237305,-24475908.279418945,-32959220.88623047,-42241344.4519043,-41258968.353271484,-41772979.736328125,-11778443.336486816,-5427070.617675781,-8232154.846191406,-8618917.465209961,-7914684.295654297,-6862869.739532471,-9488179.206848145,-40428932.189941406,-38322319.03076172,-7001953.601837158,-11199602.127075195,233021.66163921356,-3445519.6857452393,3696917.2954559326,-9623062.133789062,-15384492.874145508,-38312217.712402344,-31070955.276489258,-23177133.560180664,-18011680.603027344,-10138511.657714844,5987051.963806152,643430.5310249329,-15018351.554870605,-14974998.474121094,-28545137.405395508,-38684280.39550781,-47696281.43310547,-5686795.711517334,-6068885.803222656,-7330541.610717773,-11795969.009399414,-17291885.375976562,-24805303.5736084,-27978340.14892578,-30632089.614868164,-22587165.83251953,-20679367.065429688,-14762358.665466309,-10586423.873901367,-24620311.737060547,-24583118.438720703,-39244758.60595703,-22228408.813476562,-18202371.59729004,-14808999.061584473,-23880321.502685547,-24362300.872802734
0.07,-53290973.66333008,-58047992.70629883,-42962139.12963867,-24770559.310913086,-27187105.178833008,1361298.680305481,-22268199.920654297,-18903110.50415039,-17766366.958618164,-22725006.103515625,-30181951.52282715,-39133289.3371582,-38151897.43041992,-38677257.5378418,-5876738.548278809,-257031.73875808716,-6906981.945037842,-8832009.315490723,-5930665.016174316,-4915823.459625244,-7649101.257324219,-37169441.22314453,-35172748.56567383,-133942.52955913544,-6695764.064788818,3117362.0223999023,-2249671.220779419,4751626.968383789,-9509805.679321289,-14352379.79888916,-35994438.17138672,-25589841.842651367,-14321601.867675781,-11455550.193786621,-6425364.971160889,7621868.61038208,387236.088514328,-13918625.831604004,-13748386.38305664,-26717182.159423828,-34526611.328125,-41634441.37573242,708800.9715080261,362864.9115562439,-3495798.8262176514,-6978055.477142334,-14622011.184692383,-24631532.669067383,-26761560.440063477,-26748401.641845703,-15069104.194641113,-13924551.010131836,-7300085.544586182,-6023924.350738525,-18619827.270507812,-18548131.942749023,-33897510.52856445,-13140540.12298584,-9683704.376220703,-10013904.571533203,-17975307.46459961,-18113800.048828125
0.075,-45544067.3828125,-52683887.48168945,-37827205.657958984,-20611339.569091797,-24012172.69897461,10719172.477722168,-16480123.519897461,-14083314.895629883,-15400139.808654785,-21390989.303588867,-26359424.591064453,-33925739.28833008,-32970386.505126953,-33580150.60424805,1986528.992652893,6395970.344543457,-4118808.7463378906,-7692362.308502197,-4961427.211761475,-3825135.2310180664,-6521851.062774658,-32086894.989013672,-27184837.341308594,10297184.944152832,-1354201.6744613647,5830089.569091797,-1691788.0773544312,4354930.877685547,-9487921.714782715,-11613961.219787598,-31554517.74597168,-16031677.24609375,-4781761.169433594,-4688486.576080322,-2949863.1954193115,10053371.42944336,78821.89005613327,-11010074.615478516,-10669202.80456543,-21389303.20739746,-26019367.218017578,-32225040.435791016,7799965.381622314,7031665.325164795,176953.09221744537,-2680336.4753723145,-9865593.910217285,-19972879.40979004,-22424528.121948242,-18724069.595336914,-4756880.283355713,-4280287.742614746,1383828.1631469727,-1838994.026184082,-9028296.47064209,-9213027.954101562,-21944698.333740234,-1712488.055229187,1109175.9204864502,-4865656.37588501,-8644350.051879883,-8442195.892333984
0.08,-41988330.84106445,-50424510.95581055,-36597515.10620117,-17132476.806640625,-23959238.052368164,12702696.800231934,-14713430.404663086,-12850858.688354492,-15101951.599121094,-21449720.38269043,-26071598.052978516,-32924674.98779297,-32085968.017578125,-32656642.91381836,2789038.1813049316,8118897.438049316,-2874330.997467041,-6412626.74331665,-6316379.547119141,-5175317.287445068,-7763751.029968262,-31345973.96850586,-24000516.891479492,14282539.367675781,33652.085810899734,7817918.77746582,-2445044.0406799316,3285259.962081909,-10552124.0234375,-9545279.502868652,-30394693.37463379,-12198967.933654785,-3752943.515777588,-3701425.552368164,-1158360.0044250488,11352543.830871582,-4194.196313619614,-8850100.51727295,-8467025.756835938,-17786283.493041992,-21036678.314208984,-26522813.79699707,10531695.365905762,9347452.163696289,2087820.053100586,-1981450.915336609,-6795123.100280762,-15080355.644226074,-18780750.274658203,-14082696.914672852,-51453.15080881119,586168.2891845703,3981392.8604125977,-994483.232498169,-3403543.472290039,-3850764.751434326,-14790582.656860352,1363287.2104644775,4603251.4572143555,-3382810.354232788,-3332985.1627349854,-3009615.421295166
0.085,-46372634.88769531,-54259410.8581543,-41668266.29638672,-16545267.105102539,-26974880.21850586,6657156.944274902,-17101465.225219727,-15032627.10571289,-15817489.624023438,-21920011.520385742,-28835626.60217285,-36239585.876464844,-35492340.087890625,-35866283.41674805,-3067843.437194824,4771035.194396973,-3903466.4630889893,-5973574.638366699,-8528529.167175293,-7635306.358337402,-10184803.009033203,-34676486.96899414,-27587245.94116211,10365239.143371582,-1792907.8340530396,9133827.209472656,-3820545.6733703613,2977413.8927459717,-11988535.88104248,-9195900.917053223,-33072788.23852539,-15244299.88861084,-9736659.049987793,-7141450.881958008,-419309.73529815674,11126605.033874512,121743.3363199234,-8598464.012145996,-8333685.874938965,-18350225.4486084,-21801385.8795166,-27405120.849609375,9553236.00769043,8313415.52734375,2318721.055984497,-4121290.683746338,-6830891.132354736,-14074000.358581543,-18485290.52734375,-15643861.770629883,-3446871.9959259033,-2163367.986679077,-102937.09486722946,-2900662.899017334,-4764330.3871154785,-5197257.995605469,-17137584.686279297,-4983021.259307861,-805568.4566497803,-5781922.340393066,-4828623.294830322,-4570814.13269043
0.09,-48610069.274902344,-56204662.32299805,-44671123.50463867,-15085865.97442627,-26870952.606201172,5258989.8109436035,-16164983.749389648,-14142058.372497559,-13013969.421386719,-19667194.366455078,-28224531.173706055,-36228168.48754883,-35448936.462402344,-35673130.03540039,-3934064.1498565674,4341135.9786987305,-3831456.6612243652,-4765030.860900879,-7866236.209869385,-7247681.140899658,-9799651.145935059,-34415843.96362305,-29029241.56188965,7967139.720916748,-623633.086681366,10592484.474182129,-3836590.29006958,3937124.729156494,-12027930.25970459,-9900271.41571045,-34255481.7199707,-16298524.856567383,-11164399.147033691,-7578568.458557129,861605.5846214294,11002060.890197754,160949.9454498291,-9505112.648010254,-9365847.58758545,-20062818.52722168,-23123643.87512207,-29735198.974609375,9502541.542053223,8430730.819702148,1308747.64919281,-5994382.858276367,-8446296.691894531,-17386022.567749023,-20974937.438964844,-19145141.6015625,-7675506.114959717,-6052356.719970703,-3580663.9194488525,-4693840.026855469,-8710038.185119629,-8955478.66821289,-22504129.40979004,-10541149.139404297,-6222512.245178223,-8349276.542663574,-8621823.31085205,-8481127.738952637
0.095,-40045722.96142578,-48596839.904785156,-38621574.40185547,-8806761.741638184,-19988454.818725586,15719119.07196045,-8199237.823486328,-7084643.840789795,-5583335.399627686,-13359622.00164795,-21032142.639160156,-28693143.844604492,-27854190.826416016,-28097753.524780273,6491868.97277832,11292888.641357422,-318035.2449417114,-936340.6896591187,-3273744.583129883,-2692703.7239074707,-5168055.534362793,-26728742.599487305,-22050176.6204834,14279398.918151855,5962497.234344482,12710289.95513916,-1973245.0246810913,5325181.007385254,-10529833.793640137,-10840199.47052002,-30850183.486938477,-9763265.609741211,-2135374.5460510254,-1879479.8851013184,2695854.902267456,11959460.258483887,-64462.19980716705,-10584776.878356934,-10431779.861450195,-19393779.754638672,-20775972.366333008,-27858064.651489258,11875795.364379883,10850627.899169922,-444699.40662384033,-5755092.144012451,-9698940.27709961,-21961145.401000977,-23772226.333618164,-19653072.357177734,-5748413.0859375,-4184707.6416015625,-697820.246219635,-4559681.415557861,-9436045.64666748,-9585824.966430664,-22951093.673706055,-7449417.1142578125,-3727042.9134368896,-7944458.961486816,-9090185.165405273,-9044088.363647461
0.1,-27856702.80456543,-36391410.82763672,-29191864.013671875,-947412.1928215027,-11324494.361877441,28040460.58654785,-172038.67435455322,281744.42052841187,1197231.650352478,-5813770.294189453,-12533638.000488281,-19697275.161743164,-18891992.568969727,-19197813.034057617,18843866.3482666,19317949.295043945,4112557.888031006,4144876.003265381,1813129.186630249,2512322.425842285,210093.55783462524,-17890102.38647461,-12634939.193725586,24274744.033813477,12566489.219665527,15047244.07196045,-252468.13893318176,6223104.476928711,-9356994.62890625,-11716650.96282959,-26546247.482299805,-1335314.154624939,9273697.853088379,4601921.558380127,3521333.694458008,12927148.818969727,-391817.6293373108,-11510531.425476074,-11214725.494384766,-16979175.567626953,-16947124.481201172,-23244562.14904785,13488490.104675293,12329471.588134766,-1981950.1638412476,-4359907.150268555,-10091215.133666992,-24298501.96838379,-24851381.301879883,-17136756.896972656,-223682.09064006805,1395285.8448028564,5451375.484466553,-3280764.8181915283,-6511291.50390625,-6676305.770874023,-18794698.71520996,-65159.90197658539,3645632.028579712,-5600908.279418945,-6060759.0675354,-6067850.112915039
0.105,-24921737.670898438,-30659519.19555664,-26607610.70251465,1838188.886642456,-8156773.567199707,29370903.01513672,-247645.84004878998,1055853.1284332275,2259720.56388855,-1109278.678894043,-9709380.149841309,-17482761.38305664,-16710739.135742188,-16997886.657714844,20658803.939819336,20306266.78466797,5531511.306762695,6918685.9130859375,4067220.2110290527,4763871.192932129,2612825.393676758,-15925854.682922363,-10715049.743652344,27262365.341186523,13426444.053649902,16299779.891967773,-541465.7592773438,6887407.7796936035,-9687968.254089355,-12371836.66229248,-26230554.580688477,149512.54427433014,11964825.630187988,5512592.792510986,2267908.5731506348,12585332.870483398,-535162.4488830566,-12232564.926147461,-11768016.815185547,-16146781.921386719,-16340078.353881836,-22420206.06994629,11660386.085510254,10436969.757080078,-2959347.2480773926,-4211083.889007568,-10364103.317260742,-23805707.931518555,-24439229.96520996,-15451327.323913574,815818.4885978699,2728859.9014282227,7216520.7862854,-3141376.495361328,-4737138.271331787,-4868381.500244141,-16920595.169067383,1635079.026222229,6278190.612792969,-5114991.664886475,-4336973.190307617,-4352568.14956665
0.11,-31765865.325927734,-33831211.09008789,-31274917.602539062,-1517356.276512146,-11000370.025634766,21757345.19958496,-6791386.127471924,-3724544.5251464844,-1050480.0081253052,-818705.7971954346,-12789854.049682617,-21905035.0189209,-20990953.44543457,-21266153.33557129,12824989.318847656,15317523.956298828,3526236.2957000732,5746093.273162842,4241842.269897461,4761688.232421875,2621187.925338745,-20365558.624267578,-16844549.17907715,20466405.868530273,9485528.945922852,15098052.978515625,-2166293.8594818115,8113491.058349609,-10474139.213562012,-12692050.93383789,-29455005.645751953,-5672986.98425293,5733548.164367676,1113103.5089492798,-623858.5710525513,11358046.531677246,-404753.8638114929,-12658929.824829102,-12068597.793579102,-18384111.404418945,-19958370.208740234,-28658281.326293945,7625094.413757324,6535409.450531006,-4526814.937591553,-6655517.101287842,-11198615.074157715,-22885974.884033203,-24673786.163330078,-17563041.68701172,-5453628.063201904,-3483389.6160125732,1996610.6414794922,-5576412.677764893,-7812494.75479126,-7850742.816925049,-21485260.009765625,-5115063.190460205,125666.57364368439,-8487408.638000488,-7406489.849090576,-7427845.478057861
0.115,-38238735.19897461,-39034118.65234375,-35446216.58325195,-6418529.033660889,-15018574.714660645,16227333.068847656,-12615092.277526855,-8359731.674194336,-4406192.779541016,-4039237.0223999023,-16784261.70349121,-26303562.16430664,-25148565.2923584,-25521720.88623047,5683487.415313721,11071210.861206055,443274.97482299805,2343865.156173706,4719331.26449585,5061428.546905518,2819330.6922912598,-24533041.00036621,-22701360.70251465,11758072.853088379,5219430.923461914,11709185.600280762,-3456110.2390289307,9578274.726867676,-10318391.799926758,-12759037.017822266,-32216899.871826172,-11520225.524902344,-770517.7068710327,-3857264.757156372,-3827653.408050537,10885467.529296875,-158415.9880876541,-12739333.152770996,-12092672.348022461,-21792604.446411133,-24567426.681518555,-37619369.50683594,4226806.163787842,3264889.2402648926,-7338404.178619385,-10515571.594238281,-12207505.226135254,-23304567.337036133,-26801919.93713379,-22470407.485961914,-13405260.08605957,-11838035.583496094,-5242036.34262085,-9540853.500366211,-13429603.576660156,-13446089.744567871,-28877477.645874023,-13704086.303710938,-9005025.863647461,-13602362.632751465,-12887788.772583008,-12984419.822692871
0.12,-39028678.89404297,-41204349.517822266,-35761581.42089844,-9562818.52722168,-17361988.067626953,15605294.227600098,-15541689.8727417,-10752722.74017334,-6678547.8591918945,-9017509.460449219,-18563631.057739258,-26909940.719604492,-25702501.29699707,-26164299.01123047,3708336.114883423,9629032.135009766,-2156546.5927124023,-524797.0819473267,5490557.670593262,5689093.589782715,3423861.503601074,-24942289.352416992,-22631645.20263672,9441889.762878418,2497608.9000701904,9073284.149169922,-4227645.397186279,9922246.932983398,-9602875.709533691,-12621591.567993164,-32690078.735351562,-12228650.093078613,-2195029.2587280273,-6594929.6951293945,-5843606.472015381,12031671.524047852,-13882.7720656991,-12447731.018066406,-11861093.521118164,-23446624.755859375,-26578125.0,-41522994.99511719,2762183.904647827,1721001.9826889038,-9474616.050720215,-13050396.919250488,-12219869.613647461,-23656967.163085938,-29052602.767944336,-26081308.364868164,-16043851.852416992,-14846733.093261719,-8494038.581848145,-12241081.237792969,-15712346.076965332,-15778223.037719727,-32043346.405029297,-17131032.943725586,-13053972.244262695,-16667726.516723633,-15074383.735656738,-15302962.303161621
0.125,-37685775.75683594,-40913070.67871094,-35654212.951660156,-10892326.354980469,-18541748.046875,14369046.211242676,-18118331.909179688,-12403846.740722656,-8835211.753845215,-13425050.735473633,-18785259.246826172,-25599966.049194336,-24601928.7109375,-24966764.450073242,3111223.4592437744,8107882.499694824,-4038748.264312744,-1547864.9139404297,5009201.526641846,4941178.798675537,2884470.224380493,-23693580.627441406,-19079891.204833984,13246360.778808594,963062.1075630188,10165882.110595703,-5306666.374206543,8732672.691345215,-9611547.470092773,-12151862.144470215,-32007698.05908203,-9143654.823303223,-507245.65982818604,-7601163.864135742,-5858555.316925049,13719643.592834473,-56795.58217525482,-11783024.787902832,-11396686.553955078,-22190711.975097656,-25004194.259643555,-37558639.52636719,2816182.3749542236,1640844.3450927734,-8853070.259094238,-12749586.10534668,-10818812.370300293,-21900371.551513672,-28722152.709960938,-25059673.309326172,-12693516.731262207,-11335417.747497559,-7175465.5838012695,-11985429.763793945,-12361790.657043457,-12411942.481994629,-28349599.838256836,-15128026.008605957,-10597413.063049316,-16343671.798706055,-11788744.926452637,-12066870.68939209
0.13,-36068214.416503906,-38026210.78491211,-35974601.74560547,-9339054.107666016,-18137470.245361328,13319925.308227539,-19274024.963378906,-12432173.728942871,-8973257.064819336,-14756512.641906738,-18324289.321899414,-24544933.319091797,-23714054.107666016,-23869781.494140625,3368752.4795532227,6990834.712982178,-4449029.922485352,-881327.3906707764,3577313.6615753174,3132733.5834503174,1388376.3551712036,-22869379.0435791,-16592573.165893555,17737180.709838867,1897031.1880111694,14002626.419067383,-6258355.140686035,7576303.005218506,-10387902.25982666,-11582475.662231445,-30851423.263549805,-5617014.408111572,2532893.657684326,-7091956.615447998,-4564348.6976623535,13808600.425720215,-178974.58374500275,-11135095.596313477,-10983889.57977295,-19316347.122192383,-21575008.392333984,-31003761.291503906,3734081.983566284,2661331.1767578125,-7117497.444152832,-10816248.893737793,-9319769.859313965,-19383911.1328125,-26347707.748413086,-20220922.470092773,-8435328.483581543,-6674571.990966797,-4774698.257446289,-9930726.051330566,-7519666.67175293,-7480533.599853516,-21807415.008544922,-11520219.802856445,-6337176.79977417,-14383569.717407227,-7042381.763458252,-7177261.829376221
0.135,-30747514.724731445,-30738241.19567871,-32629379.272460938,-3189242.362976074,-14739735.60333252,20334245.681762695,-14863189.697265625,-8157367.706298828,-4308183.670043945,-12776067.733764648,-16789888.381958008,-23079843.521118164,-22108322.143554688,-22184293.746948242,9847398.75793457,10712462.425231934,-2640273.332595825,848666.4295196533,2993380.069732666,2357412.576675415,704078.9127349854,-21531414.031982422,-15442571.640014648,21153198.2421875,7017002.582550049,16563074.111938477,-5683614.730834961,8172437.66784668,-10831783.294677734,-11401161.193847656,-28498130.798339844,-2412434.1011047363,9535799.980163574,-3794681.3106536865,-3349676.6090393066,11456366.539001465,-191953.3908367157,-10970418.930053711,-10904554.36706543,-16754360.19897461,-18559619.903564453,-28239583.96911621,5400310.516357422,4625907.421112061,-7787034.98840332,-9166235.92376709,-9060988.426208496,-19091627.12097168,-25137155.532836914,-15276698.112487793,-6876698.970794678,-5149710.655212402,-3053750.0381469727,-8149981.498718262,-5933777.809143066,-5870484.352111816,-17285427.09350586,-8020007.133483887,-3667579.412460327,-12435013.771057129,-5417819.499969482,-5297677.993774414
0.14,-22271625.518798828,-22488117.218017578,-25621912.002563477,4211668.014526367,-10198907.852172852,33913448.333740234,-7046703.338623047,-1663797.378540039,2255140.781402588,-10538649.559020996,-14501621.24633789,-20501745.223999023,-19259979.248046875,-19429382.32421875,21759067.53540039,18760398.864746094,48123.98925423622,2903228.282928467,3543506.860733032,3075767.2786712646,1192536.3540649414,-18859430.31311035,-13281237.602233887,25696010.58959961,13978588.104248047,16521022.79663086,-3723181.962966919,10149508.476257324,-10525160.789489746,-11278096.199035645,-25128074.645996094,1174244.999885559,20655838.012695312,1829070.5680847168,-2324447.8702545166,8615315.437316895,-48403.10290455818,-10838870.04852295,-10663800.239562988,-14985276.222229004,-16361429.214477539,-28244327.545166016,7876294.136047363,7247710.704803467,-10425574.30267334,-7776548.385620117,-9112829.208374023,-20321481.704711914,-25863992.69104004,-12339902.877807617,-5969432.830810547,-4753015.041351318,-556896.5077400208,-6747166.156768799,-6452543.73550415,-6448954.5822143555,-15030389.785766602,-3701500.654220581,-1241266.0121917725,-10137085.914611816,-5843618.869781494,-5549004.554748535
0.145,-18722190.856933594,-21233892.4407959,-22203479.766845703,5706199.169158936,-8939618.110656738,39591030.12084961,-4785757.064819336,492168.6053276062,3617560.625076294,-10858533.85925293,-12891035.079956055,-18242778.778076172,-16973087.310791016,-17196119.30847168,27972866.05834961,23430978.775024414,1084999.918937683,4597259.998321533,3949252.8438568115,3789748.6686706543,1657135.1289749146,-16443410.873413086,-9939225.196838379,30579664.23034668,17414264.678955078,16980934.143066406,-2359811.305999756,11701807.022094727,-10131172.180175781,-10127006.530761719,-22458192.825317383,4599728.584289551,28654754.638671875,5958053.112030029,-547911.1671447754,7994857.7880859375,77331.91549777985,-9633470.53527832,-9326356.887817383,-13130223.274230957,-13530701.637268066,-25141052.24609375,10478872.299194336,9691616.05834961,-10687012.672424316,-5433366.298675537,-7412661.552429199,-19196632.385253906,-25466714.85900879,-10328271.865844727,-2337711.3342285156,-1428704.6194076538,3308039.426803589,-4430509.567260742,-4454149.24621582,-4440114.498138428,-12447241.78314209,1001351.4757156372,2705153.703689575,-7116193.771362305,-3900495.0523376465,-3596573.1143951416
0.15,-25332378.387451172,-28709457.397460938,-27017314.910888672,-480138.5998725891,-12145943.641662598,29233942.03186035,-12138653.755187988,-4336921.215057373,-2321688.8904571533,-12998200.416564941,-12642172.813415527,-17890537.26196289,-16849060.05859375,-16959367.752075195,20995807.647705078,19592147.827148438,-402705.25217056274,5437067.031860352,3776046.03767395,3777371.406555176,1669779.5391082764,-16055744.171142578,-7760582.447052002,30730312.34741211,15036773.681640625,19638610.83984375,-2893571.376800537,11962960.243225098,-10082494.735717773,-7961194.5152282715,-21555503.845214844,6593491.077423096,26411773.681640625,4978713.9892578125,1334144.5922851562,9335245.132446289,20074.283704161644,-7445505.142211914,-7130457.878112793,-10982686.996459961,-9577783.584594727,-18781438.82751465,11438059.80682373,10446246.147155762,-7237794.399261475,-2675992.488861084,-4287727.355957031,-15284610.748291016,-22190727.23388672,-8224470.138549805,2300493.7171936035,3491587.8772735596,5792171.955108643,-1625698.8048553467,284340.67964553833,427384.76395606995,-9377894.401550293,3283692.1215057373,5950101.375579834,-5107963.562011719,631170.6900596619,863482.1772575378
0.155,-36018482.20825195,-36628669.73876953,-34816150.6652832,-7513520.240783691,-16341878.890991211,14626434.326171875,-21698265.075683594,-11023403.16772461,-9474061.012268066,-14701385.498046875,-13468024.253845215,-19309230.80444336,-18406352.996826172,-18389141.082763672,9100565.910339355,12196366.310119629,-3128895.2827453613,5084124.0882873535,3542262.315750122,3586955.0704956055,1641495.704650879,-17523805.618286133,-8437932.968139648,24870990.753173828,10365008.354187012,20795583.724975586,-4423753.261566162,11578665.733337402,-10138793.9453125,-6835072.040557861,-21983829.498291016,6778909.683227539,17548248.291015625,214157.50682353973,916432.26146698,9374089.241027832,-105465.47919511795,-6345856.666564941,-6057600.021362305,-10162122.72644043,-7094264.984130859,-16707632.064819336,9623217.582702637,8680335.998535156,-4470437.526702881,-1748208.8804244995,-2910434.2460632324,-13811393.737792969,-19476488.11340332,-7836307.525634766,2678421.974182129,4238656.520843506,4583424.5681762695,-649493.7539100647,2401029.8252105713,2595764.8754119873,-8760443.687438965,1923566.1029815674,5137042.045593262,-5906321.048736572,2601353.883743286,2773941.993713379
0.16,-40674167.63305664,-37618743.896484375,-37853187.561035156,-8849115.371704102,-18722946.166992188,12399080.276489258,-23852506.637573242,-13341425.895690918,-11620224.952697754,-16016792.297363281,-15523342.13256836,-21675043.1060791,-20663555.145263672,-20685710.906982422,6310159.683227539,10016415.5960083,-5621705.532073975,3618081.0928344727,2823083.8775634766,2964604.139328003,983557.3434829712,-19885284.423828125,-11474463.46282959,19640504.837036133,8480465.88897705,17051982.879638672,-5347535.133361816,11055051.803588867,-10396739.00604248,-8605121.612548828,-23510513.305664062,5273682.594299316,13294224.739074707,-2853934.2880249023,-2031049.7283935547,6581217.7658081055,-26582.326740026474,-8110324.859619141,-7742828.369140625,-12367396.354675293,-9335552.215576172,-22803550.720214844,6925937.652587891,6258827.209472656,-5771730.422973633,-3208758.83102417,-5212900.638580322,-18587621.688842773,-21752094.268798828,-11234856.605529785,-1969447.2551345825,-604715.883731842,1962571.8593597412,-2207842.1115875244,-1415033.5788726807,-1412830.2335739136,-12379752.159118652,-476331.2637805939,1333065.390586853,-8206461.9064331055,-1175230.1454544067,-1063561.5587234497
0.165,-37647022.24731445,-34502246.85668945,-36193866.72973633,-6151000.499725342,-20113662.719726562,21349510.192871094,-18890541.076660156,-11366260.528564453,-9716542.24395752,-18235731.12487793,-18694953.91845703,-24313068.389892578,-23206098.556518555,-23371276.85546875,13297699.928283691,14414883.613586426,-7299912.452697754,2126612.663269043,839232.325553894,1069074.8691558838,-1140884.1609954834,-22495140.075683594,-14910746.574401855,20825405.12084961,10361168.86138916,11944995.880126953,-5363612.651824951,9981468.200683594,-11409493.446350098,-12066803.932189941,-26468334.197998047,2156309.8430633545,17872968.673706055,-1171532.7501296997,-4104789.2570495605,3815276.3843536377,272691.36905670166,-11473684.310913086,-11034702.30102539,-16641719.818115234,-15538095.474243164,-30101642.608642578,6672975.063323975,6288671.970367432,-8070616.722106934,-4835726.261138916,-8927822.11303711,-25667816.162109375,-27711940.76538086,-16618257.522583008,-5944500.923156738,-5150173.187255859,1774620.771408081,-4023304.9392700195,-7399617.671966553,-7700326.919555664,-18410381.317138672,-1190616.0116195679,-1100895.4048156738,-9071799.278259277,-7056149.482727051,-7031168.9376831055
0.17,-33510318.756103516,-33910621.643066406,-35149658.203125,-4793240.070343018,-21150417.32788086,25781122.2076416,-15030630.111694336,-9589248.657226562,-8336253.1661987305,-19957441.329956055,-20618686.67602539,-25664258.95690918,-24711631.774902344,-24941204.071044922,17338722.229003906,18634410.858154297,-7883918.762207031,2291753.2920837402,-1080585.8373641968,-953836.7390632629,-3239478.826522827,-23953653.33557129,-16342922.21069336,24466127.395629883,12529047.966003418,11749980.926513672,-5269191.741943359,8317561.149597168,-12819690.704345703,-13819279.670715332,-29634561.53869629,-1164916.2769317627,23202239.990234375,1884786.2482070923,-2975990.7722473145,4261563.301086426,446092.9036140442,-13062559.127807617,-12812829.01763916,-19533823.013305664,-20589971.5423584,-29964530.94482422,8843809.127807617,8639526.3671875,-6837507.247924805,-4837085.247039795,-10261928.55834961,-27880237.579345703,-31275505.06591797,-19351757.049560547,-4952534.6755981445,-4307985.782623291,3427941.7991638184,-4093533.992767334,-9666769.981384277,-10105448.722839355,-23332147.5982666,-1215736.0315322876,-807651.2813568115,-8161038.398742676,-9341855.0491333,-9351993.560791016
0.175,-33234367.37060547,-36067535.400390625,-36223510.7421875,-5647033.69140625,-19925678.253173828,18553028.106689453,-16944631.576538086,-10488629.341125488,-8575177.192687988,-18297994.61364746,-18605619.430541992,-23987186.431884766,-23260087.966918945,-23465110.778808594,10986558.91418457,17059829.711914062,-7634748.458862305,4261301.9943237305,-611275.0768661499,-695039.0934944153,-2740013.360977173,-22512174.606323242,-14485646.24786377,22740322.11303711,11585613.250732422,15921843.528747559,-5673979.759216309,7057626.247406006,-13195117.950439453,-12298530.578613281,-30247829.43725586,-1859442.8300857544,21084667.205810547,1099237.4420166016,-1257192.2540664673,6483629.22668457,227142.67671108246,-11385680.198669434,-11546916.961669922,-18583963.39416504,-20601652.145385742,-24273868.560791016,9472050.666809082,9348584.175109863,-3436490.058898926,-4244880.676269531,-8561411.85760498,-24184211.73095703,-29351190.5670166,-17331865.310668945,-2095083.9519500732,-913606.1668395996,2720734.8346710205,-3423675.298690796,-7575776.100158691,-7923529.624938965,-24663366.317749023,-3030585.0505828857,-964269.5188522339,-7928349.018096924,-7408003.807067871,-7311426.639556885
0.18,-35923019.40917969,-36900878.90625,-36703433.990478516,-6071083.068847656,-16132907.86743164,9120975.494384766,-21395872.116088867,-13024434.089660645,-8435783.386230469,-14237746.238708496,-14142654.418945312,-20376480.102539062,-19651264.190673828,-19883171.08154297,1720740.556716919,11194012.641906738,-8126635.551452637,5576464.1761779785,1616016.5071487427,1490944.9815750122,-224716.11201763153,-19059125.900268555,-11023988.723754883,16067695.617675781,8134119.987487793,17518976.21154785,-6712442.874908447,6772032.737731934,-12012926.10168457,-9577799.797058105,-27630908.966064453,1046126.4848709106,14928932.189941406,-3211340.4273986816,-2626833.438873291,6489731.311798096,-168252.095580101,-8601525.30670166,-9004018.783569336,-14855549.812316895,-17299686.431884766,-21891889.572143555,6495440.95993042,6335923.194885254,-2752485.2752685547,-4712484.359741211,-6496045.112609863,-20270303.72619629,-25357011.795043945,-13128641.128540039,-2645542.860031128,-855531.5732955933,-1222577.452659607,-3895528.3164978027,-5133615.016937256,-5348168.849945068,-21864952.087402344,-5973162.651062012,-3657631.6356658936,-9429700.85144043,-5118623.733520508,-4839293.479919434
0.185,-38865062.71362305,-36324436.18774414,-36102130.88989258,-6088830.471038818,-13887595.176696777,7670085.430145264,-23590658.18786621,-15701416.015625,-7824195.861816406,-12692167.282104492,-12441051.483154297,-18903352.737426758,-18046575.54626465,-18375375.747680664,203.49629630800337,6293541.431427002,-10824262.619018555,3803456.0680389404,2133916.3780212402,2140721.559524536,603642.5828933716,-17576190.948486328,-9904405.59387207,12192052.841186523,6056599.140167236,13576355.934143066,-8266263.008117676,6533613.204956055,-10744591.71295166,-8609930.992126465,-25035888.671875,4322287.082672119,13951194.763183594,-5528501.033782959,-5860265.254974365,3771945.2381134033,-288507.1933269501,-7741614.34173584,-7966098.785400391,-11496933.937072754,-15521594.047546387,-25520460.12878418,3488847.255706787,3195713.758468628,-5251023.292541504,-5670750.617980957,-6183073.043823242,-20335687.6373291,-24082872.39074707,-10394279.479980469,-5955917.3583984375,-4078671.455383301,-3960335.4930877686,-5058535.575866699,-4810142.517089844,-5007902.145385742,-16719726.5625,-6964514.73236084,-6353550.910949707,-10686942.100524902,-4811100.959777832,-4464833.2595825195
0.19,-40859245.30029297,-37441780.09033203,-36648345.947265625,-7979536.056518555,-16646060.943603516,11871890.0680542,-23009645.462036133,-17862426.7578125,-8674866.676330566,-15858707.427978516,-16092470.169067383,-21989568.71032715,-21211944.580078125,-21556356.43005371,5170167.446136475,5231462.9554748535,-14585472.106933594,46260.87844371796,-411225.289106369,-412521.1834907532,-1890412.449836731,-20639526.3671875,-13188146.591186523,13974652.290344238,8066375.732421875,9345999.717712402,-9611209.869384766,5345920.562744141,-10992569.923400879,-9885210.037231445,-26030355.45349121,3712577.3429870605,19428684.23461914,-2969056.6062927246,-6523449.897766113,1824475.0499725342,-29331.41402900219,-9280358.31451416,-9151979.446411133,-10536563.873291016,-17511705.39855957,-29288648.60534668,4741360.664367676,4351263.046264648,-6606934.547424316,-5668869.0185546875,-7141048.908233643,-22580018.997192383,-25927906.036376953,-10204553.604125977,-7215322.017669678,-5591800.212860107,-2343906.1641693115,-5226890.563964844,-5487108.23059082,-5748298.168182373,-13235173.225402832,-5522889.137268066,-6136738.300323486,-10283110.618591309,-5357190.6089782715,-5148953.914642334
0.195,-40591236.11450195,-39026695.251464844,-37474800.10986328,-10500863.075256348,-21482677.459716797,14886689.186096191,-21292264.938354492,-18225887.298583984,-10539128.303527832,-19847248.077392578,-21603202.81982422,-27126804.35180664,-26667051.315307617,-26889774.322509766,9708441.734313965,7350118.637084961,-16142585.754394531,-1846192.717552185,-3217199.8023986816,-3469522.476196289,-4924309.730529785,-25866991.04309082,-18418962.478637695,16384248.733520508,12886744.499206543,10216591.835021973,-9329008.102416992,3861274.480819702,-12363010.40649414,-11806075.096130371,-30231740.951538086,-944332.5400352478,24479568.481445312,1150378.5848617554,-3601533.4129333496,2620438.814163208,262299.5972633362,-11438591.957092285,-11215378.761291504,-11921885.49041748,-21672248.84033203,-28933258.056640625,9126009.941101074,8747728.34777832,-4904312.610626221,-5121103.763580322,-8173550.605773926,-23931177.139282227,-28315095.901489258,-11915143.966674805,-5379304.4090271,-3849648.4756469727,850218.653678894,-4535963.05847168,-6049167.156219482,-6362617.015838623,-14989130.020141602,-4600800.514221191,-4374001.026153564,-9788382.530212402,-5746433.734893799,-5742954.254150391
0.2,-36180980.68237305,-35880920.41015625,-34377620.697021484,-9024816.513061523,-22350400.924682617,17721017.837524414,-18253591.537475586,-15266597.747802734,-10142339.706420898,-20136404.037475586,-23911005.0201416,-29837137.22229004,-29548143.38684082,-29688159.942626953,12129830.360412598,11065789.222717285,-13906572.341918945,-1900.96371807158,-3617230.176925659,-4001528.739929199,-5563257.217407227,-28681793.212890625,-21411151.885986328,16391267.776489258,17132978.439331055,14162269.592285156,-6779516.696929932,3462547.3022460938,-13267807.006835938,-13324876.78527832,-34243099.212646484,-5711970.329284668,26017820.358276367,2832468.271255493,-705181.4794540405,3866827.0111083984,301949.143409729,-12949061.393737793,-12979178.428649902,-14814812.660217285,-26063482.2845459,-27636928.55834961,12093558.311462402,11693688.39263916,-3354990.243911743,-5492600.440979004,-9302031.517028809,-25118577.95715332,-30507637.02392578,-15415543.556213379,-4478174.686431885,-2839964.1513824463,1483555.793762207,-4560052.871704102,-7512381.553649902,-7890420.436859131,-21425893.783569336,-5837262.153625488,-4265650.272369385,-10864673.614501953,-7128527.1644592285,-7189623.3558654785
0.205,-29141445.15991211,-27872526.168823242,-27171539.306640625,-2966318.6073303223,-18175586.700439453,24391897.201538086,-13600349.426269531,-10294541.358947754,-6574979.782104492,-17736166.00036621,-22218376.15966797,-28640867.233276367,-28119911.193847656,-28384716.033935547,16522779.46472168,14772994.041442871,-10305891.990661621,3021314.6209716797,-2715464.1151428223,-2783006.191253662,-4641419.887542725,-27478166.580200195,-20723718.643188477,17209527.96936035,18674526.21459961,15580297.470092773,-3729475.259780884,4093954.563140869,-13126865.38696289,-14481976.509094238,-35606430.05371094,-7185832.977294922,28100391.387939453,2493486.4044189453,-728061.9144439697,2943992.1379089355,246354.96735572815,-13843037.605285645,-14185482.9788208,-18045021.057128906,-30029466.62902832,-29710758.209228516,11942126.274108887,11352500.915527344,-4731952.667236328,-6479596.138000488,-10679346.084594727,-27982484.817504883,-33540248.87084961,-20033033.37097168,-6952968.597412109,-5276787.281036377,84914.55018520355,-5394293.308258057,-10339010.238647461,-10838348.388671875,-27921319.96154785,-7145685.67276001,-5753175.735473633,-12222599.029541016,-10010066.032409668,-9954676.628112793
0.21,-25472274.780273438,-22296781.539916992,-22005258.560180664,1443368.4349060059,-13813821.792602539,30258377.075195312,-10448539.733886719,-7827822.208404541,-3713180.5419921875,-16952833.17565918,-19191381.454467773,-25300168.991088867,-24375831.604003906,-24873506.546020508,21470411.30065918,15981628.41796875,-9357371.33026123,3461527.109146118,-2601650.9532928467,-2130463.6001586914,-4260232.448577881,-24071733.474731445,-17822370.529174805,19895118.713378906,17203060.150146484,13106870.651245117,-3217205.047607422,4499271.392822266,-12430678.367614746,-14770016.67022705,-33994243.62182617,-5085595.13092041,32087512.969970703,2027135.8489990234,-2887427.568435669,656239.8076057434,405315.3097629547,-13863269.805908203,-14322696.685791016,-19476716.995239258,-32145401.000976562,-33881286.62109375,10370182.991027832,9582215.309143066,-7337763.30947876,-6239977.836608887,-11024151.802062988,-30719701.766967773,-36297824.85961914,-22558404.92248535,-10021855.354309082,-8345063.209533691,39949.681609869,-5369122.02835083,-12060403.823852539,-12625665.664672852,-30073415.756225586,-6082694.053649902,-5905561.447143555,-11632261.276245117,-11823220.252990723,-11612844.467163086
0.215,-29637744.903564453,-24959394.454956055,-23697515.4876709,-1848252.8924942017,-13284416.198730469,25650632.858276367,-13337708.473205566,-11250837.326049805,-5812190.532684326,-19098409.65270996,-16520099.639892578,-21660854.33959961,-20546123.504638672,-21137876.510620117,18926948.54736328,12299913.40637207,-12581613.540649414,676401.5555381775,-2511014.461517334,-1796438.0979537964,-3916729.211807251,-20396615.982055664,-14121328.353881836,18912363.052368164,12782704.35333252,9775397.300720215,-6219398.021697998,4403838.157653809,-11242726.32598877,-12947838.78326416,-29891817.092895508,-821577.5489807129,31882064.819335938,372516.09563827515,-5342172.622680664,-597827.0769119263,757563.7102127075,-12029395.10345459,-12426885.604858398,-17014318.466186523,-29904497.146606445,-35871040.34423828,8351620.674133301,7633163.928985596,-8320362.091064453,-4435970.783233643,-8836558.34197998,-29649005.889892578,-35352676.39160156,-19524162.29248047,-9874306.678771973,-7991369.724273682,1901757.1210861206,-3885056.495666504,-9740864.753723145,-10134426.11694336,-27028984.06982422,-3133142.2328948975,-3476734.399795532,-9621430.397033691,-9514597.89276123,-9242263.793945312
0.22,-38521003.72314453,-32749481.201171875,-29302600.860595703,-10872309.684753418,-15391225.814819336,11318615.913391113,-21671260.833740234,-18331565.856933594,-11897689.819335938,-21376680.374145508,-14012157.440185547,-18461141.58630371,-17429969.787597656,-17907161.712646484,7159975.051879883,4977352.619171143,-17624067.306518555,-2685247.8981018066,-486564.18919563293,36977.88342833519,-1865871.3102340698,-17145017.623901367,-10199136.734008789,11797882.080078125,6656197.547912598,7796507.358551025,-10037321.090698242,5036287.307739258,-9200213.432312012,-9220122.337341309,-24608243.942260742,4036608.2191467285,24241737.365722656,-3533416.0327911377,-7134232.044219971,-326899.7371196747,990618.8249588013,-8566037.17803955,-8836896.896362305,-11259663.581848145,-23405910.49194336,-34080165.86303711,6021623.611450195,5605003.356933594,-7715572.834014893,-2941262.4835968018,-4900720.596313477,-24883100.509643555,-29847738.26599121,-11921919.822692871,-6107252.597808838,-3980903.8639068604,3538559.4367980957,-2473123.073577881,-4010683.059692383,-4035943.9849853516,-20779153.82385254,25066.198781132698,-60287.587344646454,-8686274.528503418,-3750145.673751831,-3487095.355987549
0.225,-44174663.54370117,-37891124.7253418,-32348609.924316406,-17454490.661621094,-16744503.021240234,711569.1900253296,-28253942.489624023,-22750761.032104492,-16383243.560791016,-21232089.99633789,-12119247.436523438,-16658945.083618164,-15763003.3493042,-16088531.494140625,-3317240.7150268555,-351767.1823501587,-20555160.522460938,-3966621.3989257812,2634069.4427490234,2881051.0635375977,1095142.8413391113,-15239589.69116211,-7616411.6859436035,5772956.848144531,2708172.559738159,6922235.96572876,-10919313.430786133,7073869.705200195,-6970014.0953063965,-6246261.5966796875,-21154336.92932129,7247195.720672607,16919372.55859375,-6146985.054016113,-7059327.125549316,274656.7130088806,954817.2354698181,-5935091.495513916,-6039019.584655762,-6150549.88861084,-17548168.182373047,-30235267.639160156,5581739.902496338,5380378.723144531,-7084438.323974609,-3148031.9499969482,-2237895.0119018555,-21022207.260131836,-24117170.333862305,-5611081.123352051,-1034806.3707351685,899325.4899978638,4565354.824066162,-2499696.4931488037,845484.9720001221,1065665.602684021,-14660463.333129883,3043037.4145507812,2754756.450653076,-9588716.506958008,1047827.7206420898,1327397.7041244507
0.23,-43174743.65234375,-37328590.393066406,-31371280.670166016,-16633249.282836914,-16745874.404907227,2796424.150466919,-27165187.83569336,-21047090.530395508,-15515842.43774414,-19402784.34753418,-12670722.961425781,-17772493.362426758,-16927093.505859375,-17218164.443969727,-2874229.907989502,677230.715751648,-19721862.79296875,-3143644.8097229004,3698466.0625457764,3883005.142211914,1990090.250968933,-16321771.621704102,-8948589.324951172,7097418.308258057,4271394.729614258,6507169.723510742,-8453476.905822754,9133366.584777832,-6189059.734344482,-6488001.823425293,-22363304.138183594,6128517.627716064,18837339.401245117,-3414209.3658447266,-4402636.528015137,528554.1415214539,818793.1776046753,-6390377.044677734,-6294287.204742432,-5444072.723388672,-17824153.900146484,-26966423.03466797,9090564.727783203,8880067.825317383,-6657674.312591553,-4178141.5939331055,-2843614.101409912,-21383504.86755371,-23127307.891845703,-5576272.010803223,2582388.162612915,3941330.1944732666,6354488.372802734,-3329259.3955993652,1228622.4365234375,1335058.9275360107,-12510300.636291504,5583357.810974121,4511894.702911377,-10705809.593200684,1287882.924079895,1608199.4771957397
0.235,-40292118.072509766,-34768177.0324707,-30479339.599609375,-11917087.55493164,-17563598.6328125,10152721.405029297,-21330345.153808594,-16779285.430908203,-11780020.713806152,-18440629.959106445,-16337192.53540039,-21994235.99243164,-21164775.848388672,-21490657.806396484,3779782.295227051,5262845.993041992,-17471023.559570312,-2514317.9893493652,1480403.0656814575,1731201.171875,-318939.6560192108,-20654466.62902832,-14676885.604858398,9909602.165222168,8934313.774108887,6071840.286254883,-6270710.468292236,9220876.693725586,-7418313.503265381,-9184829.711914062,-27417322.158813477,240126.75881385803,26415170.669555664,1827989.5782470703,-1620207.1905136108,618546.9031333923,739405.9896469116,-9094007.49206543,-8867036.819458008,-8963678.359985352,-24284626.007080078,-26517807.006835938,13429965.019226074,13197542.190551758,-5957638.263702393,-4393351.5548706055,-5324244.976043701,-24172430.03845215,-26680669.7845459,-10949930.191040039,2459994.7929382324,3569037.437438965,8137849.807739258,-3499954.2236328125,-2096775.2933502197,-2297902.1072387695,-16336044.311523438,5836364.74609375,4571451.187133789,-10769340.515136719,-2060481.309890747,-1783254.623413086
0.24,-41377025.60424805,-34389579.77294922,-32320194.244384766,-10259518.62335205,-20221803.665161133,10046632.766723633,-19027517.318725586,-16244010.925292969,-10762415.885925293,-19732608.795166016,-20922300.338745117,-26962886.810302734,-26160093.307495117,-26457042.694091797,4516430.377960205,6020772.933959961,-17654661.178588867,-4339440.34576416,-1817085.5045318604,-1565351.6054153442,-3646188.259124756,-25698133.46862793,-21351716.995239258,4832743.167877197,10153279.304504395,4587191.581726074,-7822448.253631592,7181147.09854126,-9270287.51373291,-11338879.585266113,-32094371.795654297,-7028171.539306641,28080869.674682617,2385805.606842041,-2707369.565963745,627993.5240745544,630188.7035369873,-11099768.63861084,-10914318.084716797,-13370233.535766602,-31705141.067504883,-29625965.118408203,12672019.004821777,12588963.508605957,-5556238.651275635,-3589311.361312866,-6733835.220336914,-25777763.36669922,-30384326.934814453,-16943292.61779785,-1685849.1897583008,-154687.762260437,7152445.316314697,-2759033.441543579,-5280055.046081543,-5625469.68460083,-23367347.717285156,2896695.852279663,2356015.205383301,-10352298.736572266,-5035518.169403076,-4918951.988220215
0.245,-44820163.72680664,-35218910.217285156,-33884117.126464844,-12896954.536437988,-22181396.484375,2328710.5560302734,-22755502.700805664,-20162096.02355957,-13704490.661621094,-21788785.934448242,-22727104.18701172,-28948278.427124023,-28147447.58605957,-28342658.99658203,-2609304.428100586,404422.22356796265,-20764118.194580078,-8085524.559020996,-3125192.165374756,-2915103.1970977783,-4926378.25012207,-27558120.727539062,-23971656.799316406,-5111576.080322266,5972878.932952881,2082458.9729309082,-12048729.89654541,5070107.460021973,-10071398.735046387,-11448855.40008545,-32968467.712402344,-10635519.981384277,21197105.407714844,-2719872.236251831,-7265508.17489624,708645.5821990967,382872.7900981903,-11038022.0413208,-11000860.214233398,-15938463.21105957,-35248481.75048828,-33753845.21484375,6789764.404296875,6884474.277496338,-6069093.227386475,-2926150.7987976074,-6301186.084747314,-25812843.322753906,-31450408.935546875,-20166364.669799805,-6342990.398406982,-4343004.22668457,3444957.0178985596,-2122577.905654907,-5831090.450286865,-6081616.401672363,-27656187.057495117,-666425.2877235413,-639488.3394241333,-10407609.939575195,-5335719.585418701,-5349066.734313965
0.25,-43766460.41870117,-32875625.610351562,-30595115.661621094,-13876638.412475586,-19619176.864624023,-1676835.060119629,-25775400.161743164,-22384035.110473633,-15330307.960510254,-21028949.737548828,-19429502.487182617,-25532285.690307617,-24707132.33947754,-24843818.66455078,-7326553.821563721,-5572154.521942139,-22726364.135742188,-9987306.594848633,-1029390.9311294556,-797536.1347198486,-2743040.3232574463,-23987325.66833496,-20153507.232666016,-7933255.195617676,2370276.2126922607,999882.161617279,-14529088.020324707,5085371.017456055,-9518122.673034668,-10803782.46307373,-30064481.735229492,-7896902.561187744,15595419.883728027,-6310607.91015625,-9964775.085449219,1437845.8261489868,127451.13670825958,-10339730.262756348,-10363263.130187988,-16331064.224243164,-34204593.658447266,-34750827.78930664,2683259.2487335205,2757613.182067871,-6774703.025817871,-3490639.9250030518,-6067641.735076904,-26723968.505859375,-30999904.63256836,-20508390.426635742,-6978036.880493164,-5192323.684692383,683463.1562232971,-2616192.579269409,-4861751.556396484,-5030003.070831299,-26433971.405029297,-1489275.336265564,-1734504.8189163208,-11043219.566345215,-4319976.806640625,-4261387.825012207
0.255,-36472526.55029297,-25982978.82080078,-22856292.724609375,-8775417.32788086,-12337253.57055664,3605138.5402679443,-21800178.52783203,-18341083.526611328,-10971624.374389648,-15497457.504272461,-12247460.36529541,-17982267.379760742,-17160415.649414062,-17363775.2532959,-3026195.287704468,-5371231.555938721,-20018043.518066406,-6857265.949249268,3627364.6354675293,3873545.1698303223,1972401.6189575195,-16528999.328613281,-12131893.157958984,-952401.2804031372,4984439.373016357,3139620.065689087,-12948118.209838867,7284773.826599121,-8383256.912231445,-10872596.740722656,-25460020.065307617,-610134.6015930176,18750064.849853516,-3627682.92427063,-7833958.625793457,2875610.113143921,67752.11542844772,-10515512.466430664,-10422328.94897461,-15191831.588745117,-30576759.338378906,-31827341.079711914,4529892.921447754,4446006.298065186,-6849718.09387207,-5327970.027923584,-7498823.642730713,-29175281.524658203,-30645866.39404297,-18957544.326782227,-3758826.971054077,-2609261.989593506,944069.6835517883,-4351081.371307373,-4549061.298370361,-4781122.68447876,-22940534.591674805,140998.84033203125,-578139.8415565491,-12010903.358459473,-4112875.461578369,-3821602.5829315186
0.26,-29877098.083496094,-18930057.525634766,-16305932.998657227,-1853416.3236618042,-5426778.793334961,10709420.204162598,-14287325.859069824,-11941125.869750977,-3946150.064468384,-8387759.208679199,-5649945.7359313965,-11103698.73046875,-10299098.014831543,-10652383.804321289,3955355.167388916,-746287.3458862305,-14773737.907409668,-710561.8715286255,8041445.732116699,8175439.834594727,6324455.261230469,-9901920.318603516,-5041395.664215088,5377502.918243408,10996100.425720215,6175566.673278809,-9823690.414428711,9434424.40032959,-7490381.240844727,-11136502.265930176,-21211427.688598633,6187601.089477539,25516838.07373047,826777.7562141418,-4524844.169616699,3930011.510848999,153316.95973873138,-10934827.80456543,-10673345.565795898,-13070492.7444458,-26519943.237304688,-28809463.500976562,8033301.35345459,7931433.67767334,-6965467.45300293,-7510971.0693359375,-9080506.324768066,-30604221.34399414,-29886940.002441406,-16303647.994995117,-1707800.5075454712,-757281.7802429199,1878738.6417388916,-6507328.987121582,-4839440.822601318,-5068262.577056885,-21538278.579711914,1131483.6740493774,380290.2400493622,-13259138.107299805,-4393848.896026611,-3936492.2046661377
0.265,-30567461.013793945,-17262838.36364746,-15605388.641357422,-1006662.130355835,-4408869.743347168,10810592.651367188,-11892140.38848877,-10719379.425048828,-2209035.1581573486,-5910123.348236084,-3807986.9747161865,-9326375.961303711,-8472546.577453613,-8946981.430053711,4334946.155548096,1039082.6463699341,-12406157.493591309,2373123.88420105,8992497.444152832,9005343.437194824,7198183.059692383,-8183569.90814209,-2808796.167373657,3630719.4232940674,13370139.122009277,6399437.427520752,-8925510.40649414,9240221.977233887,-7400113.582611084,-10413339.614868164,-18871208.19091797,8143899.917602539,26631484.985351562,521653.77140045166,-4550322.05581665,3762831.449508667,132687.0322227478,-10273783.683776855,-9954710.960388184,-10951336.860656738,-23655076.98059082,-28783826.82800293,7494445.323944092,7633537.769317627,-8112854.00390625,-8944596.290588379,-8504681.587219238,-28878450.393676758,-28023977.279663086,-13939691.543579102,-3634068.9659118652,-2287017.822265625,778394.5202827454,-8020295.143127441,-4048458.0993652344,-4015328.884124756,-22119626.998901367,335692.8527355194,-384523.6897468567,-14645085.334777832,-3422239.7804260254,-2996412.515640259
0.27,-35848594.665527344,-21071823.120117188,-19481700.897216797,-6683871.269226074,-8900203.704833984,5723431.11038208,-16332735.061645508,-15406425.476074219,-7642687.3207092285,-10283937.454223633,-6703043.460845947,-12441555.02319336,-11476080.894470215,-11960129.737854004,-1173763.5135650635,-2458891.6301727295,-14449133.87298584,-688481.5692901611,5873032.093048096,5995348.930358887,4191958.427429199,-11077344.89440918,-5210155.010223389,-919517.7555084229,11047823.905944824,4336262.226104736,-10375309.944152832,6797551.155090332,-8334754.943847656,-9275647.163391113,-19266473.7701416,5112813.949584961,21699272.15576172,-3485482.2158813477,-6564743.518829346,3136739.96925354,-78291.66203737259,-9082893.371582031,-8804125.785827637,-10382817.268371582,-23185457.229614258,-30088150.024414062,4338931.083679199,4786974.906921387,-9694397.926330566,-9341568.946838379,-6372352.123260498,-25806394.577026367,-26658170.700073242,-13829858.779907227,-6140681.743621826,-4567645.54977417,-1253621.9358444214,-8507232.666015625,-2267451.524734497,-1925573.468208313,-22007080.078125,-306060.40358543396,-1478872.299194336,-15814598.083496094,-1547357.3207855225,-1242928.385734558
0.275,-38048191.07055664,-25040742.874145508,-22969547.271728516,-10917356.491088867,-13099709.510803223,3120276.927947998,-20324728.01208496,-19039758.682250977,-13194056.510925293,-16763334.274291992,-10447872.161865234,-16112535.47668457,-15104189.8727417,-15481951.713562012,-5020318.031311035,-6337629.795074463,-16867679.595947266,-5993795.871734619,1884639.5015716553,2317426.6815185547,464795.70865631104,-14536391.258239746,-8734733.581542969,-1139074.8023986816,9287602.424621582,4007841.110229492,-11168589.59197998,4428486.8240356445,-9750676.155090332,-9448588.371276855,-21563638.68713379,1035690.188407898,17644701.00402832,-5263985.157012939,-6331190.10925293,3376475.8110046387,-282979.3095588684,-9163678.169250488,-8886922.836303711,-11902610.778808594,-25013690.948486328,-29764181.13708496,3892309.9040985107,4445599.07913208,-10253383.63647461,-9362407.684326172,-5642998.218536377,-25196199.417114258,-27859636.306762695,-16365247.72644043,-5182607.650756836,-4086678.981781006,-1583264.946937561,-8509854.316711426,-1903010.4875564575,-1571207.5233459473,-21424844.74182129,441482.3055267334,-1415595.1738357544,-16595876.693725586,-1362531.9004058838,-1113468.885421753
0.28,-35832302.09350586,-25373109.817504883,-23596412.658691406,-8620013.236999512,-12980932.235717773,4161747.455596924,-18382886.88659668,-17229839.324951172,-12774604.797363281,-19663408.279418945,-11742287.635803223,-16791662.216186523,-15906977.653503418,-16123483.657836914,-5056721.6873168945,-6759743.213653564,-16318134.307861328,-7884987.354278564,596709.4898223877,1220376.72996521,-720752.2988319397,-15228245.735168457,-10044007.301330566,583666.0861968994,10418749.809265137,6492851.734161377,-9951099.395751953,3807345.390319824,-10563491.821289062,-10866762.161254883,-23335807.80029297,236081.01904392242,17473920.822143555,-3557732.8205108643,-3995180.84526062,4598783.96987915,-301233.70885849,-10504200.93536377,-10144804.954528809,-13751328.468322754,-26822322.845458984,-28282091.14074707,6580848.693847656,6976293.563842773,-9419545.17364502,-9368908.882141113,-7085982.799530029,-27614730.834960938,-30359842.30041504,-18950845.71838379,-2252635.2405548096,-1890685.796737671,-293059.378862381,-8410762.786865234,-3690650.701522827,-3663010.597229004,-22639478.68347168,1265997.1714019775,-978533.148765564,-16804117.20275879,-3437015.5334472656,-3192039.2513275146
0.285,-35042255.40161133,-23796131.134033203,-23115345.001220703,-4329622.268676758,-10500668.5256958,3574190.378189087,-13623082.160949707,-13892891.883850098,-9383609.771728516,-19153207.778930664,-10881934.16595459,-14917873.38256836,-14262190.818786621,-14339168.548583984,-5600390.434265137,-6155410.289764404,-14521075.248718262,-6254683.017730713,1710160.0170135498,2226362.705230713,218317.6726102829,-13478751.182556152,-8513740.539550781,-962316.8110847473,10799056.053161621,8230618.476867676,-8664883.613586426,3990422.248840332,-10421931.266784668,-11219669.342041016,-22854129.791259766,3457264.184951782,17896955.490112305,-2440262.55607605,-3470347.6428985596,6011782.646179199,-197833.38904380798,-10806300.163269043,-10368920.32623291,-13509426.11694336,-25754203.79638672,-27732681.274414062,8062583.923339844,8236058.235168457,-7986225.128173828,-8590182.304382324,-7674585.342407227,-29322042.46520996,-30399322.509765625,-18438468.93310547,-1291694.8795318604,-1227389.0972137451,667235.255241394,-7595453.262329102,-4583919.048309326,-4742933.750152588,-24615190.505981445,1171877.384185791,-1127588.391304016,-15884113.311767578,-4433854.103088379,-4252537.250518799
0.29,-38557220.458984375,-23670122.146606445,-23563064.575195312,-4679131.031036377,-9799215.316772461,335796.9522476196,-11415253.639221191,-14328892.707824707,-9594665.52734375,-19274595.260620117,-10141911.506652832,-13197308.540344238,-12728542.32788086,-12741464.614868164,-7799694.061279297,-7686070.442199707,-14560650.825500488,-5591032.028198242,2033717.155456543,2338787.317276001,399708.68825912476,-11823040.962219238,-6076947.212219238,-3074402.8091430664,8298120.498657227,6750963.6878967285,-9013264.656066895,3116027.1167755127,-10244098.663330078,-9252049.446105957,-21119039.53552246,7304515.838623047,17126346.588134766,-3571034.9082946777,-5612515.449523926,7298677.444458008,-111583.72461795807,-8855107.307434082,-8409564.971923828,-11231870.651245117,-22015975.952148438,-27641550.064086914,6827004.909515381,6955025.196075439,-6801002.025604248,-6536062.717437744,-4994267.463684082,-27391834.259033203,-27060371.39892578,-15176476.47857666,-2129456.7584991455,-1948321.7000961304,933182.5375556946,-5646763.801574707,-1959271.3117599487,-1954432.9643249512,-23631145.477294922,1271338.4628295898,-903990.9839630127,-13827845.573425293,-1680865.1685714722,-1620383.7394714355
0.295,-41791168.212890625,-24995351.791381836,-24432765.96069336,-8593568.801879883,-11957967.758178711,362516.1647796631,-11146632.194519043,-17003709.79309082,-13264294.624328613,-20924001.693725586,-11048934.936523438,-13758568.76373291,-13332919.120788574,-13391504.287719727,-6968567.371368408,-9215520.858764648,-15762683.868408203,-7725524.425506592,299912.7507209778,536808.7291717529,-1153354.6447753906,-12403736.114501953,-5747852.802276611,-55652.74879336357,6717026.710510254,4173608.7799072266,-9766443.252563477,1371471.5242385864,-10953483.581542969,-7107954.025268555,-21057222.366333008,7171916.0079956055,18150508.880615234,-3913094.7589874268,-7106675.624847412,8490130.424499512,-22691.208869218826,-6809494.0185546875,-6407885.0746154785,-9974804.878234863,-20039117.81311035,-26546226.501464844,5991219.520568848,6277670.383453369,-6704849.2431640625,-4696997.165679932,-1389610.0521087646,-24147733.688354492,-24480371.475219727,-13361445.426940918,-1924273.4909057617,-1682720.7803726196,1342478.3945083618,-3904831.1710357666,1544139.7428512573,1821957.2305679321,-20061506.271362305,2013978.0044555664,226958.88578891754,-12200881.958007812,2007172.5845336914,1990687.9663467407
0.3,-40597518.92089844,-25687036.514282227,-24635156.631469727,-9893068.313598633,-15246057.510375977,6364131.450653076,-8902507.781982422,-16723438.262939453,-14170366.287231445,-20697862.62512207,-13859714.50805664,-17370880.126953125,-16830440.521240234,-17060056.686401367,-1580084.204673767,-7245934.009552002,-15373144.149780273,-9439043.045043945,-1184309.0057373047,-920210.5402946472,-2343307.4951171875,-16047241.2109375,-9683949.47052002,5574271.678924561,9126376.152038574,3049423.2177734375,-9132083.892822266,907349.5864868164,-12122328.758239746,-7832076.549530029,-24569137.573242188,1179981.7085266113,22363264.083862305,-2122702.3601531982,-6568938.732147217,8987106.323242188,130255.04350662231,-7590755.462646484,-7300228.595733643,-12470613.479614258,-24372615.814208984,-26211656.57043457,7065348.148345947,7525356.292724609,-8639705.657958984,-5265067.577362061,-1243370.0561523438,-24371055.603027344,-26927579.879760742,-16428009.033203125,-1576166.9874191284,-1369806.408882141,1037921.9055175781,-4372314.453125,669898.2119560242,987374.9017715454,-19550071.716308594,1093796.2532043457,-126109.92789268494,-12849327.087402344,1251562.3569488525,1215947.6280212402
0.305,-37696086.88354492,-25521888.732910156,-24591949.462890625,-6762641.906738281,-18042203.903198242,11989576.33972168,-4951038.837432861,-13101676.940917969,-9631984.71069336,-16505725.860595703,-17736898.42224121,-23101346.969604492,-22350502.014160156,-22813518.524169922,2302833.7955474854,-3624338.150024414,-13416505.813598633,-7951179.027557373,-102281.37671947479,101369.64917182922,-1286922.574043274,-21777681.350708008,-16828619.0032959,6113961.219787598,11781138.42010498,2176360.3687286377,-7902092.933654785,2829056.0245513916,-12541252.136230469,-11212837.219238281,-30373205.184936523,-7735198.974609375,25479206.085205078,-1718471.7655181885,-7025084.972381592,8131541.2521362305,213926.38981342316,-10817796.70715332,-10757825.85144043,-17650379.180908203,-33826034.54589844,-29843742.37060547,7055839.538574219,7575913.429260254,-12335412.02545166,-8013319.01550293,-4920454.025268555,-28852216.720581055,-32956279.754638672,-22593223.571777344,-5064857.482910156,-4612837.314605713,-1770261.526107788,-6869626.998901367,-5047332.286834717,-4922795.77255249,-24921394.34814453,-3303602.457046509,-4296337.604522705,-15371914.863586426,-4396821.975708008,-4478088.855743408
0.31,-37106124.87792969,-25389150.619506836,-24396741.86706543,-2716387.987136841,-18862483.978271484,11271658.897399902,-2809591.054916382,-10387071.60949707,-3752882.242202759,-10584883.689880371,-20200183.868408203,-27522094.7265625,-26592102.05078125,-27179931.640625,122493.48312616348,-2892636.299133301,-12299381.256103516,-5203271.389007568,2671170.473098755,2758747.5776672363,1136305.570602417,-26152648.92578125,-22357704.162597656,1458166.241645813,9787628.173828125,-574045.6581115723,-8060734.748840332,5687472.343444824,-11859085.083007812,-14032635.688781738,-34831062.31689453,-13677544.593811035,23739280.700683594,-5122033.11920166,-10518486.976623535,6537339.687347412,26969.512924551964,-13309780.12084961,-13512539.863586426,-21634954.45251465,-41572185.51635742,-36293193.81713867,3884091.1388397217,4461237.907409668,-15607750.89263916,-10092599.868774414,-8347954.750061035,-33611175.537109375,-37049594.87915039,-26601459.503173828,-11913419.723510742,-11004140.853881836,-6046187.877655029,-8786866.188049316,-10101025.581359863,-10154476.165771484,-31292526.245117188,-8724109.649658203,-10029714.584350586,-17251058.57849121,-9411333.084106445,-9569279.670715332
0.315,-36939498.90136719,-24231246.948242188,-22384021.759033203,391667.54484176636,-15772868.156433105,8645691.871643066,-2466864.585876465,-10052286.148071289,-612027.1682739258,-5944393.157958984,-18417058.94470215,-26679243.087768555,-25710395.81298828,-26181312.561035156,-3117484.0927124023,-4635129.451751709,-12393518.447875977,-4613068.103790283,4537076.950073242,4644828.319549561,2775456.428527832,-25295873.641967773,-21685911.178588867,-291514.21785354614,5672083.854675293,-3645691.6332244873,-9315899.848937988,7426552.772521973,-10908144.9508667,-14391234.397888184,-35206405.63964844,-12997612.953186035,20429876.32751465,-8619962.692260742,-13939169.883728027,5665784.83581543,-321617.09666252136,-13434617.042541504,-13703033.447265625,-22183967.59033203,-42522232.05566406,-40102821.350097656,886446.8932151794,1637997.2696304321,-16365322.11303711,-9614458.084106445,-8751508.712768555,-35606307.98339844,-36641368.8659668,-25939315.795898438,-15621348.38104248,-14720702.171325684,-7913466.930389404,-8340114.593505859,-10225080.490112305,-10327351.570129395,-32685729.98046875,-10672486.305236816,-12164686.20300293,-17011718.75,-9545740.127563477,-9696430.206298828
0.32,-33491149.90234375,-20732616.424560547,-18381305.694580078,4114756.5841674805,-9355193.138122559,12411593.437194824,-522522.6879119873,-9238623.61907959,455132.1268081665,-3106893.539428711,-13047322.273254395,-20933368.682861328,-20045234.68017578,-20269329.071044922,-175246.2238073349,-4287724.97177124,-11736783.027648926,-6252215.385437012,4290617.942810059,4574016.571044922,2690190.315246582,-19564388.275146484,-15804660.79711914,4422405.242919922,6016410.827636719,-3801623.582839966,-9508709.907531738,7576585.292816162,-10605662.34588623,-13781862.258911133,-32382537.841796875,-7924034.118652344,21431644.439697266,-7357433.319091797,-13304344.177246094,5896552.085876465,-419445.276260376,-12869974.136352539,-12954023.361206055,-20893800.735473633,-39044776.916503906,-38431198.12011719,2441203.1173706055,3314776.4205932617,-14965680.122375488,-7920955.181121826,-7850026.607513428,-36156345.36743164,-34714572.90649414,-23450267.791748047,-12090098.38104248,-11996794.700622559,-5508944.034576416,-6709586.620330811,-7507384.300231934,-7616409.3017578125,-29886606.216430664,-8180917.739868164,-9071636.199951172,-15889155.387878418,-6860435.485839844,-6878067.493438721
0.325,-29380125.045776367,-17566471.099853516,-16302747.72644043,7632718.563079834,-4675165.176391602,20459426.879882812,2575103.998184204,-7210857.86819458,861042.5591468811,-1880850.4343032837,-8824405.670166016,-15581727.027893066,-14769130.70678711,-14906927.108764648,6251807.21282959,-1596123.218536377,-10301009.178161621,-7776598.4535217285,2677452.325820923,3118041.515350342,1402838.8261795044,-14132383.346557617,-10262390.13671875,9448506.355285645,10807340.621948242,-1435016.393661499,-8235196.113586426,6845162.868499756,-11059941.291809082,-13972191.81060791,-29485488.891601562,-3433989.0480041504,26074638.36669922,-2898395.538330078,-9660831.451416016,6137553.691864014,-70177.02609300613,-13276453.971862793,-13186522.483825684,-19985336.303710938,-36524711.60888672,-34130081.17675781,7406434.059143066,8058410.64453125,-13270001.411437988,-7157609.939575195,-7993151.664733887,-37149688.720703125,-34420539.85595703,-22294244.76623535,-5256962.776184082,-6134892.94052124,-1505024.1947174072,-5877888.6795043945,-5863757.610321045,-5989730.8349609375,-27258001.32751465,-4433282.852172852,-4373103.141784668,-15478004.455566406,-5214796.06628418,-5105458.736419678
0.33,-30939596.17614746,-19784370.42236328,-20070329.666137695,6166158.199310303,-6733867.645263672,21343954.08630371,1298026.442527771,-8035723.686218262,-1307982.6831817627,-3767894.983291626,-9458513.259887695,-14906696.319580078,-14100198.745727539,-14423126.220703125,6279747.486114502,-2205268.383026123,-11042825.698852539,-8613302.230834961,700170.9938049316,1208474.040031433,-385411.67974472046,-13281789.779663086,-8474858.283996582,8963175.773620605,12665163.040161133,-414664.44730758667,-7674134.254455566,5645589.828491211,-11796986.57989502,-13977483.749389648,-28028089.52331543,-1323700.189590454,27721035.00366211,-1465562.343597412,-7566102.027893066,5597123.146057129,383706.56967163086,-13453069.686889648,-13413991.928100586,-18755723.95324707,-35332336.42578125,-30967023.849487305,10341397.285461426,10488282.203674316,-12041390.419006348,-7030310.153961182,-8050950.050354004,-37090190.88745117,-34368663.7878418,-20956014.63317871,-1509810.3284835815,-2675673.007965088,475033.55145454407,-5660563.945770264,-4745977.878570557,-4827387.809753418,-25005790.71044922,-2089660.1676940918,-1785074.234008789,-15213952.06451416,-4091583.251953125,-3992838.3827209473
0.335,-38155029.296875,-27687011.71875,-27544950.485229492,-1783508.6584091187,-13962185.859680176,11211553.573608398,-6210458.755493164,-13959024.429321289,-7434096.813201904,-9705636.024475098,-13360816.00189209,-17527696.60949707,-16716737.747192383,-17250804.901123047,-2286109.209060669,-8651435.852050781,-15229280.471801758,-10269162.17803955,-1243793.249130249,-644281.0297012329,-2259139.060974121,-15828687.66784668,-8799777.030944824,5799742.698669434,7782245.15914917,-2775979.0420532227,-9188073.15826416,4191749.5727539062,-12343824.38659668,-12133800.506591797,-26922649.383544922,55292.18912124634,23762861.251831055,-5321217.5369262695,-9027671.813964844,4872673.988342285,471018.6719894409,-11658776.28326416,-11745121.955871582,-15493308.067321777,-31942211.151123047,-29593067.169189453,8409905.433654785,8218152.99987793,-10903351.783752441,-5789892.673492432,-5901576.042175293,-34154529.5715332,-31993219.37561035,-16549913.40637207,-2006600.8567810059,-2816728.353500366,3687.681630253792,-4544912.338256836,-1502942.8005218506,-1460050.8213043213,-20783781.051635742,-862755.6562423706,-1315123.3196258545,-13779994.96459961,-931763.768196106,-932052.9699325562
0.34,-43512062.072753906,-34703899.38354492,-32140083.31298828,-10008229.25567627,-19424158.096313477,1129340.7678604126,-13138418.197631836,-20236196.517944336,-13546895.980834961,-16573089.599609375,-16251585.006713867,-19462404.251098633,-18690725.326538086,-19176265.716552734,-9674753.189086914,-15053008.079528809,-19546901.70288086,-12938958.168029785,-2733797.550201416,-1987030.6253433228,-3638267.2786712646,-17885240.55480957,-8927715.301513672,5640628.337860107,1767298.8176345825,-6478837.966918945,-11119322.776794434,3266532.4211120605,-12418692.588806152,-9620934.48638916,-25351917.266845703,992220.6997871399,19747383.11767578,-10026628.494262695,-11939567.565917969,4751003.265380859,210638.21017742157,-9102337.837219238,-9149797.439575195,-11635293.006896973,-27061311.721801758,-29677066.802978516,4099812.9844665527,4017449.8558044434,-10390943.52722168,-3625825.6435394287,-2972284.0785980225,-30857999.801635742,-29077058.792114258,-11315780.639648438,-3779525.0415802,-4390636.920928955,-1044523.7159729004,-2719814.0621185303,2172016.6206359863,2296573.4004974365,-16999523.162841797,13718.73077005148,-1516878.1280517578,-11980154.037475586,2595857.620239258,2549739.360809326
0.345,-42140407.56225586,-34761646.27075195,-30819694.51904297,-11334123.611450195,-18981763.83972168,2792419.910430908,-11845735.549926758,-20396121.978759766,-13974012.37487793,-19117906.57043457,-16599565.505981445,-19672782.89794922,-18939590.454101562,-19190122.604370117,-7291004.180908203,-14447113.990783691,-19916399.002075195,-14557848.930358887,-3102082.2525024414,-2301876.3065338135,-3878338.098526001,-18241014.48059082,-9685115.814208984,8401939.392089844,1783755.3024291992,-8777577.40020752,-11113648.414611816,3542886.257171631,-12017862.319946289,-9300486.56463623,-24546840.66772461,-555610.6567382812,21493419.647216797,-10833521.842956543,-13994119.644165039,4908836.841583252,46780.284494161606,-8648834.228515625,-8599197.387695312,-10833096.504211426,-26469621.658325195,-31966100.692749023,1132576.823234558,1352297.5444793701,-11866022.109985352,-2769765.1386260986,-2764915.943145752,-31570837.020874023,-29857965.46936035,-11006116.86706543,-5453614.234924316,-6454139.709472656,-1810757.7562332153,-2135482.7880859375,1614257.2164535522,1677715.4207229614,-19020036.697387695,-100372.73913621902,-2455662.727355957,-12013401.985168457,1992388.8444900513,1983384.7284317017
0.35,-37579616.54663086,-29579441.07055664,-27370311.737060547,-6628337.383270264,-15524699.211120605,13156144.142150879,-3918813.943862915,-14758282.661437988,-9197796.821594238,-16305755.615234375,-16189580.917358398,-19841825.485229492,-19105710.983276367,-19246738.43383789,1243831.2768936157,-8075894.355773926,-16642816.543579102,-13924191.47491455,-2417845.2491760254,-1727674.8418807983,-3178895.2350616455,-18419567.108154297,-12072866.439819336,10402380.94329834,7256645.202636719,-9246348.38104248,-9282769.203186035,4345980.644226074,-11526203.155517578,-11344740.867614746,-25287696.838378906,-4006891.7274475098,27294071.197509766,-8215081.214904785,-15050527.572631836,4747762.680053711,183381.78098201752,-10513525.96282959,-10578189.849853516,-13443415.641784668,-31534612.65563965,-35342647.552490234,545908.8087081909,838968.9922332764,-14872846.603393555,-3950466.6328430176,-5299892.902374268,-35843196.868896484,-34091735.83984375,-16058498.38256836,-7446054.935455322,-8993612.289428711,-2614813.3277893066,-3296762.466430664,-2786772.2511291504,-2855431.318283081,-25274065.017700195,-1051686.406135559,-4102340.2214050293,-13863030.433654785,-2267483.2344055176,-2254183.769226074
0.355,-35501003.26538086,-26030342.10205078,-26666891.09802246,-3321797.8477478027,-14199607.849121094,19885175.704956055,1955222.249031067,-10007081.985473633,-6029107.093811035,-13618270.874023438,-16362667.083740234,-20299240.112304688,-19575143.814086914,-19814022.064208984,6361922.264099121,-3141999.0062713623,-13746195.793151855,-12659783.363342285,-1984543.800354004,-1384860.9924316406,-2825794.9352264404,-18841730.11779785,-13591138.83972168,11118150.71105957,12048724.174499512,-8834841.72821045,-7791563.510894775,4330301.284790039,-11435755.729675293,-12713366.508483887,-25536460.876464844,-4454790.5921936035,31176826.47705078,-5657893.180847168,-15456388.473510742,4847795.9632873535,315362.811088562,-11814912.796020508,-12117357.25402832,-15210685.729980469,-34923164.36767578,-35438129.42504883,1423848.032951355,1548109.0545654297,-16647768.020629883,-4921982.765197754,-6638290.4052734375,-38344203.94897461,-36426116.943359375,-19439638.137817383,-8310364.723205566,-9985994.338989258,-2936379.909515381,-4054442.4057006836,-4526876.926422119,-4649631.977081299,-26825559.616088867,-535105.8840751648,-4336780.548095703,-14703528.40423584,-3823149.2042541504,-3870662.212371826
0.36,-35956321.716308594,-27209415.435791016,-28447013.85498047,-5605394.8402404785,-15842840.194702148,18243722.915649414,1003842.830657959,-10770386.695861816,-8952573.776245117,-17067203.521728516,-16393264.770507812,-19565998.077392578,-18910453.79638672,-19205789.56604004,5240476.608276367,-3318548.9177703857,-13995503.425598145,-12803095.817565918,-2929535.150527954,-2219561.5768432617,-3818314.552307129,-18159372.329711914,-11251693.725585938,12514614.10522461,12883488.655090332,-8166648.864746094,-8001701.354980469,3497678.518295288,-11719927.787780762,-11583482.74230957,-23052947.998046875,793839.156627655,31114356.994628906,-4814319.610595703,-14814245.223999023,6298038.959503174,143071.57695293427,-10815347.671508789,-11109648.704528809,-13158823.013305664,-30540445.32775879,-30250238.4185791,2968112.4687194824,3038432.3596954346,-15528235.43548584,-3712556.6005706787,-4783238.410949707,-36347415.924072266,-34035308.837890625,-16146078.109741211,-5904154.300689697,-7330295.085906982,-1858992.099761963,-2707693.576812744,-387259.1257095337,-448245.2869415283,-20187061.309814453,2573546.1711883545,-1705152.6308059692,-12887244.22454834,340644.32978630066,199400.81238746643
0.365,-35488246.91772461,-29262386.322021484,-28928031.92138672,-9891032.218933105,-17098646.16394043,14283667.56439209,-3235319.6144104004,-15008790.969848633,-14566591.262817383,-25875650.40588379,-15502160.07232666,-17517652.51159668,-16895044.326782227,-17042434.692382812,2363960.5045318604,-6062632.083892822,-16474880.21850586,-13835720.06225586,-4426249.5040893555,-3501456.0222625732,-5285044.6701049805,-16164684.295654297,-6582848.54888916,13907257.080078125,11295711.517333984,-7777112.4839782715,-9289198.875427246,3350397.5868225098,-11730013.847351074,-9814422.607421875,-19162593.841552734,7425685.882568359,29831289.291381836,-5157435.894012451,-13522352.21862793,8679526.329040527,-149137.51184940338,-9195942.878723145,-9203936.576843262,-9806584.358215332,-22893423.080444336,-24549619.674682617,4337926.864624023,4643672.466278076,-13407270.431518555,-1664022.9225158691,-2682445.287704468,-33373340.606689453,-30794662.475585938,-10321735.382080078,-1964843.0347442627,-3219607.8300476074,-447367.93637275696,-725463.2115364075,4123194.2176818848,4157108.783721924,-13722886.085510254,5400823.593139648,1240771.8896865845,-10618002.891540527,4709304.8095703125,4541597.366333008
0.37,-33685268.40209961,-27594039.916992188,-26749567.03186035,-10685502.052307129,-15744691.848754883,12925378.799438477,-5437091.827392578,-18028556.82373047,-16408977.508544922,-33403236.389160156,-14314208.030700684,-16081657.409667969,-15359253.883361816,-15340668.678283691,554739.0580177307,-8247941.017150879,-18601676.94091797,-13630883.21685791,-4350006.103515625,-3333511.5909576416,-5145991.325378418,-14663005.828857422,-4076936.721801758,12580569.26727295,9094795.227050781,-8308037.757873535,-10270916.938781738,4697420.597076416,-11047698.020935059,-9945948.600769043,-17488487.243652344,9327181.816101074,29125514.98413086,-6376075.744628906,-13374400.13885498,10011912.34588623,-189872.50328063965,-9271040.916442871,-9136054.039001465,-9395127.296447754,-20974262.237548828,-24370018.005371094,4291305.5419921875,4864028.453826904,-13323287.010192871,-1540705.2040100098,-3723629.951477051,-33927139.28222656,-31634956.35986328,-9197416.305541992,-1073862.3142242432,-2423409.7003936768,-1193061.5901947021,-767623.4245300293,2442000.150680542,2537476.7780303955,-16415536.880493164,4456139.087677002,633854.09116745,-10998002.052307129,2910807.3711395264,2822275.400161743
0.375,-33468421.936035156,-23617561.34033203,-24786935.806274414,-7947656.631469727,-13644335.746765137,11533977.508544922,-5143463.134765625,-18225419.998168945,-13149449.348449707,-35410263.06152344,-13824834.823608398,-16432931.900024414,-15586179.733276367,-15616057.395935059,-1979368.0906295776,-9949852.94342041,-18945720.672607422,-11732528.686523438,-2127188.9209747314,-1177775.1445770264,-2844325.065612793,-14950285.911560059,-5248159.408569336,8830170.631408691,6405977.725982666,-9262991.905212402,-10171934.127807617,6410746.097564697,-10179607.391357422,-11686699.867248535,-19214300.15563965,6371631.622314453,27853738.78479004,-8410564.422607422,-15048728.942871094,9371237.754821777,-13173.189014196396,-10834451.675415039,-10931268.692016602,-12096403.121948242,-25784877.77709961,-28727252.960205078,2810187.816619873,3367402.3151397705,-15353198.051452637,-3532293.0812835693,-6850825.309753418,-37624877.9296875,-35762237.548828125,-13212022.78137207,-4360305.7861328125,-5821644.7830200195,-4492901.32522583,-2868717.4320220947,-3595509.5291137695,-3443829.7748565674,-25279727.935791016,693332.6125144958,-3250150.442123413,-13692945.48034668,-3071581.8405151367,-3042270.8988189697
0.38,-35641246.7956543,-22740348.81591797,-25915122.985839844,-6120205.879211426,-13827859.878540039,7380630.016326904,-4932091.236114502,-17233470.916748047,-9235931.396484375,-34706775.6652832,-14131904.602050781,-17507297.51586914,-16719247.817993164,-16924329.75769043,-5783236.980438232,-11725177.764892578,-17764108.657836914,-9939583.778381348,166491.21046066284,1033857.2263717651,-466972.0232486725,-16169517.517089844,-7262863.636016846,6167374.610900879,4094954.013824463,-8871606.826782227,-8995279.312133789,7030031.204223633,-9922229.766845703,-12961252.212524414,-21851505.279541016,3406960.2489471436,25733020.782470703,-10016108.512878418,-16552042.007446289,8483700.7522583,3756.861435249448,-12101756.09588623,-12484854.698181152,-14722400.665283203,-30326423.64501953,-31432821.27380371,1937543.272972107,2242428.0643463135,-16582477.569580078,-5067260.7421875,-8566024.780273438,-40757698.05908203,-38606300.354003906,-16928464.889526367,-7926486.968994141,-9254519.46258545,-7655690.670013428,-4412202.835083008,-6873850.8224487305,-6621326.446533203,-30224878.311157227,-1784041.166305542,-6321092.60559082,-15574386.596679688,-6176334.857940674,-6101212.024688721
0.385,-36820304.87060547,-26321586.60888672,-28801620.483398438,-7052251.33895874,-15783797.264099121,4240434.169769287,-4897375.106811523,-16121614.456176758,-8018673.896789551,-36003410.33935547,-14317728.042602539,-17543333.053588867,-16978532.791137695,-17234060.287475586,-7339032.6499938965,-11894487.380981445,-15807001.113891602,-9368237.495422363,609188.1394386292,1454653.024673462,-2710.6772176921368,-16499614.715576172,-7334125.04196167,6450460.433959961,4225655.078887939,-6407999.515533447,-7137825.489044189,6754779.33883667,-10062043.190002441,-13021309.852600098,-22769817.352294922,3087466.7167663574,25308956.146240234,-9677732.467651367,-15751128.196716309,9551333.4274292,-251192.1226978302,-12355271.339416504,-12726940.155029297,-15632296.562194824,-30647514.34326172,-30361684.799194336,3384874.3438720703,3515381.5746307373,-15041175.842285156,-4485315.322875977,-8065903.663635254,-41463748.931884766,-38502437.591552734,-17665573.120117188,-8681013.107299805,-9729856.491088867,-8367886.543273926,-3776518.3448791504,-5470259.666442871,-5113999.843597412,-28341514.587402344,-1593198.0609893799,-6509377.479553223,-15152428.62701416,-4645482.063293457,-4627816.200256348
0.39,-34119373.3215332,-29188802.71911621,-29281192.779541016,-7414499.759674072,-15514818.19152832,6605567.932128906,-2588001.012802124,-14059772.491455078,-7689484.596252441,-38892612.45727539,-12912531.852722168,-15587313.652038574,-15143022.537231445,-15301191.329956055,-4391737.461090088,-8964603.424072266,-13424083.709716797,-8624286.651611328,265669.7630882263,1112857.2225570679,-403355.6878566742,-14719805.717468262,-5366786.479949951,8206482.887268066,7018303.394317627,-3517522.5734710693,-5235029.220581055,6817188.739776611,-9412775.039672852,-12564003.944396973,-21554025.650024414,4238258.838653564,28342037.200927734,-7833703.04107666,-13233641.624450684,12243189.811706543,-446229.4578552246,-11990808.486938477,-12188629.150390625,-15418122.291564941,-29396438.598632812,-29273565.2923584,6270629.8828125,6478678.7033081055,-11947796.821594238,-2954666.1376953125,-7391224.384307861,-40516460.41870117,-37465747.83325195,-17218358.993530273,-7741142.272949219,-8740631.103515625,-7324719.429016113,-2155884.027481079,-3983364.1052246094,-3643278.8372039795,-25630138.397216797,-1046961.4267349243,-5767684.9365234375,-14069393.157958984,-3170523.6434936523,-3214154.9587249756
0.395,-29397382.736206055,-26585233.688354492,-25514316.55883789,-4159320.35446167,-10815485.000610352,12240306.854248047,2465383.768081665,-10590393.06640625,-5167982.10144043,-39342311.85913086,-9130272.86529541,-11772380.828857422,-11199475.288391113,-11306732.177734375,373568.44544410706,-4418591.499328613,-10610975.26550293,-6003569.602966309,1467166.9006347656,2357223.5107421875,774394.8101997375,-10851510.047912598,-2354882.4787139893,10161458.015441895,10164333.34350586,-2110913.2766723633,-3911228.656768799,7461023.330688477,-7579668.998718262,-11782875.061035156,-18814319.610595703,6282340.526580811,33134067.53540039,-6132011.413574219,-11066987.037658691,14278416.633605957,-333992.0938014984,-11040618.896484375,-11194047.927856445,-13782549.858093262,-28388999.938964844,-30017930.98449707,8752854.347229004,9160261.154174805,-9725190.162658691,-2223976.6120910645,-7393259.048461914,-38662189.48364258,-36500431.060791016,-15882959.365844727,-6556878.089904785,-8016457.557678223,-6254744.052886963,-1307886.4812850952,-4857757.091522217,-4710451.126098633,-25716993.33190918,-1048219.3231582642,-5584233.76083374,-13943979.263305664,-4152470.111846924,-4149412.6319885254
0.4,-26684501.64794922,-20638780.59387207,-20316497.802734375,454714.7750854492,-4819246.292114258,15721253.395080566,7305361.747741699,-7126255.035400391,-1238383.8891983032,-36678649.90234375,-4362615.585327148,-7483038.425445557,-6721297.740936279,-6885280.132293701,3542054.8915863037,-820560.8129501343,-7501135.82611084,-2349225.5210876465,4032712.936401367,5071393.4898376465,3424438.4765625,-6412077.4269104,1066660.761833191,13170269.966125488,12325301.170349121,-1635906.9347381592,-3215555.6678771973,7818513.870239258,-5988861.560821533,-10332980.155944824,-15171581.268310547,10396049.499511719,37270919.79980469,-4423946.857452393,-9445778.846740723,14868839.263916016,-137646.55590057373,-9410956.382751465,-9549713.134765625,-9658658.981323242,-25162269.592285156,-28602554.321289062,11144670.486450195,11666434.288024902,-9014505.386352539,-2078887.2241973877,-6655084.133148193,-36133178.7109375,-34303878.78417969,-11255238.53302002,-3469179.86869812,-5749267.101287842,-4852046.012878418,-1069951.5342712402,-4538641.452789307,-4636407.375335693,-24823677.06298828,1243868.350982666,-3861079.9312591553,-13900595.664978027,-3930530.786514282,-3808881.7596435547
0.405,-26875318.52722168,-17116079.330444336,-17569919.58618164,1920169.1150665283,-2363696.0983276367,16243221.282958984,9178064.346313477,-5313087.463378906,710350.1558303833,-34871540.06958008,-1454528.570175171,-4815709.590911865,-4044807.4340820312,-4214689.7315979,5438252.4490356445,1458481.0733795166,-4737027.168273926,-175004.40776348114,5526315.689086914,6731841.564178467,4981914.99710083,-3634065.3896331787,3983536.2434387207,17542098.999023438,14718952.178955078,339.66012415476143,-2506106.13822937,7597213.7451171875,-6221407.413482666,-8705259.323120117,-12081637.382507324,15910241.12701416,40773063.65966797,-918771.9821929932,-6752303.123474121,15695605.278015137,-193044.66247558594,-7889410.495758057,-7755925.178527832,-4499647.14050293,-19234172.821044922,-21862251.28173828,15121541.023254395,15647323.608398438,-8550094.604492188,-1066356.3013076782,-4443685.054779053,-33943965.911865234,-30757759.09423828,-4069936.2754821777,2897325.9925842285,-32349.426299333572,-1634462.2373580933,-76999.2470741272,-52929.844707250595,-242735.8776330948,-19521884.91821289,7734050.273895264,1494751.8110275269,-12297465.324401855,535086.0953330994,703558.3257675171
0.41,-27544235.229492188,-17768375.396728516,-17829153.060913086,-295348.9124774933,-3949341.5355682373,16621395.111083984,8295205.116271973,-5222031.593322754,-406464.3085002899,-36695167.541503906,-1631210.3271484375,-4609493.732452393,-3956668.8537597656,-3998320.1026916504,7429659.843444824,3492732.7632904053,-3381421.0891723633,-440059.48305130005,5116291.522979736,6297172.069549561,4454345.703125,-3379850.6259918213,5248110.294342041,20950017.92907715,17761665.34423828,3028129.3392181396,-1330009.5796585083,7538946.628570557,-7668174.743652344,-7795161.724090576,-11540347.0993042,19591070.1751709,44179588.317871094,3921651.601791382,-3060111.5226745605,17760875.701904297,-425311.98263168335,-7287285.327911377,-6728158.473968506,-1831747.6511001587,-15410458.5647583,-13799610.137939453,19900596.618652344,20427627.563476562,-7379861.354827881,1175026.297569275,-2057220.697402954,-33019977.569580078,-28056081.771850586,499859.7800731659,9466182.708740234,6462330.341339111,2761416.435241699,1996772.8853225708,5574931.1447143555,5496902.942657471,-12934083.938598633,15159584.045410156,8143577.575683594,-9482496.26159668,6215627.670288086,6311191.558837891
0.415,-27586797.7142334,-19744281.768798828,-18962800.979614258,-2922885.4179382324,-6009404.182434082,16907606.12487793,6226397.99118042,-6181117.057800293,-2533881.664276123,-40506679.53491211,-3174520.492553711,-5429986.000061035,-4809597.492218018,-4736181.735992432,8043565.75012207,4776251.316070557,-4294744.968414307,-1856556.0579299927,4472465.515136719,5425148.963928223,3604418.992996216,-4232547.283172607,5042119.979858398,20998100.28076172,18792785.64453125,4874226.5701293945,-382886.1713409424,7988316.535949707,-8142598.1521606445,-7272680.759429932,-13708824.157714844,20062257.766723633,45848121.643066406,6282893.657684326,-1317971.7063903809,19160486.221313477,-464156.71706199646,-6969339.370727539,-6247711.181640625,-2479300.7373809814,-16850875.854492188,-11055020.332336426,21886848.44970703,22438856.12487793,-6162604.331970215,3534705.877304077,-506436.0499382019,-32340099.334716797,-27322076.79748535,13216.855004429817,11717049.598693848,8997618.675231934,5410517.692565918,4127136.23046875,7796408.653259277,7856958.389282227,-9634910.583496094,18508649.826049805,11479130.744934082,-7328618.52645874,8522013.664245605,8525834.083557129
0.42,-28724224.090576172,-21432558.059692383,-20015739.44091797,-4431710.720062256,-6776389.598846436,14776849.746704102,3762032.985687256,-8117032.051086426,-4031629.5623779297,-43822238.92211914,-4132520.1988220215,-5687716.484069824,-5006375.312805176,-4970362.663269043,5585472.106933594,3626561.164855957,-7294255.256652832,-3244204.044342041,4342445.850372314,5144138.813018799,3431554.079055786,-4623209.9533081055,4846008.30078125,18405242.919921875,15670410.15625,3277678.7281036377,-928718.3880805969,8295951.843261719,-6956456.661224365,-6056562.423706055,-16224716.186523438,19861803.05480957,44183986.66381836,3739897.4895477295,-3789142.370223999,17638086.318969727,-192645.23684978485,-5763542.652130127,-5244735.7177734375,-3203996.181488037,-19578327.178955078,-14452990.531921387,19245206.832885742,19761629.104614258,-6130168.437957764,4953362.941741943,891612.8873825073,-30252691.2689209,-27030082.70263672,-1338856.2202453613,9512269.973754883,6828406.810760498,4600454.807281494,5411127.090454102,6981340.408325195,7010885.238647461,-9057448.387145996,17246929.168701172,10336213.111877441,-6776196.002960205,7787496.566772461,7743272.78137207
0.425,-31495288.848876953,-24345607.75756836,-22038665.771484375,-6565841.197967529,-8431523.323059082,11054882.049560547,1450878.2625198364,-10815026.28326416,-5351625.442504883,-46497932.43408203,-5015808.582305908,-6043984.889984131,-5393421.173095703,-5456152.91595459,2120429.515838623,254484.4150543213,-10909317.970275879,-4738768.577575684,3189781.427383423,4130805.015563965,2445442.4381256104,-5115123.271942139,5092202.186584473,15823374.74822998,10613499.641418457,-625813.5437965393,-2943205.8334350586,8209893.226623535,-5971562.86239624,-4429444.789886475,-17053895.950317383,21186878.204345703,40899799.34692383,-1011958.9567184448,-8788291.931152344,14369461.059570312,96757.25549459457,-4114635.944366455,-3819856.1668395996,-1624776.6017913818,-18625793.45703125,-19006914.138793945,14593137.741088867,15016465.187072754,-7401844.501495361,5234324.4552612305,2534613.609313965,-27484985.3515625,-26087751.388549805,573364.3174171448,6532506.942749023,3438449.3827819824,1728343.3675765991,5736880.779266357,6624436.378479004,6466246.604919434,-8213543.891906738,15049733.16192627,7698870.1820373535,-7306751.728057861,7472545.146942139,7349341.869354248
0.43,-33378974.91455078,-28730312.34741211,-25334379.196166992,-9982336.044311523,-12564741.134643555,8959422.11151123,343470.03698349,-12857992.172241211,-6889755.725860596,-48663772.58300781,-7337564.945220947,-8208683.013916016,-7712822.437286377,-7753771.781921387,479573.69685173035,-3026441.5740966797,-13288140.296936035,-6243198.871612549,620758.056640625,1823927.879333496,25549.672544002533,-7267261.505126953,4281465.530395508,14138060.569763184,7491596.221923828,-3282923.460006714,-4467575.550079346,8590628.623962402,-6860318.183898926,-3989071.1307525635,-16882667.541503906,22128135.681152344,38645053.86352539,-3724850.1777648926,-12503681.182861328,13016755.104064941,125003.8594007492,-3717763.1855010986,-3429551.839828491,150314.5694732666,-16136564.254760742,-21232236.862182617,11493296.62322998,11931892.395019531,-8803631.782531738,4441851.615905762,3087814.3310546875,-26574399.948120117,-25896154.403686523,3018262.1479034424,4525094.985961914,1077062.726020813,-1138951.7784118652,5098327.63671875,7238371.849060059,6913304.805755615,-7731392.383575439,13835519.790649414,5789094.4480896,-8568216.323852539,8049766.540527344,7775821.208953857
0.435,-32703212.73803711,-31487255.096435547,-28284025.192260742,-11824823.379516602,-16740495.681762695,8464429.85534668,1019912.600517273,-12606054.306030273,-7342053.413391113,-48663936.614990234,-10639851.570129395,-11956828.117370605,-11535667.419433594,-11431384.086608887,-646729.4096946716,-4572130.6800842285,-13407909.393310547,-6384428.977966309,-611537.1584892273,660194.0989494324,-1258131.504058838,-10879443.168640137,1197397.8281021118,12167156.219482422,6736104.965209961,-2577193.49861145,-3539343.5955047607,9897122.383117676,-8647599.220275879,-5275120.735168457,-17657102.584838867,19394945.14465332,36876678.466796875,-4206378.45993042,-13256705.284118652,15033147.811889648,-29243.25317144394,-5035832.88192749,-4693612.098693848,-1181670.4273223877,-18104078.29284668,-22528596.878051758,10218933.10546875,10871254.920959473,-9337019.920349121,2576540.946960449,1431872.1294403076,-28369674.682617188,-27779212.951660156,564915.7762527466,1831829.54788208,-1424428.3437728882,-3814131.97517395,3350214.4813537598,6045341.968536377,5689316.272735596,-10448081.016540527,11617498.397827148,3528334.379196167,-10930849.075317383,6734370.231628418,6368458.7478637695
0.44,-31472362.518310547,-30452661.514282227,-29606834.411621094,-9596279.14428711,-17750814.43786621,6861961.841583252,2952028.751373291,-10051683.42590332,-5399615.76461792,-45550640.10620117,-12836070.06072998,-15044226.64642334,-14503210.067749023,-14302426.3381958,-3933767.318725586,-4542416.095733643,-11499298.095703125,-4132380.962371826,1650568.2468414307,2782633.7814331055,822511.3749504089,-13901051.52130127,-2953479.051589966,10025104.522705078,6099947.929382324,51622.74092435837,-545600.8911132812,11062385.559082031,-9311870.574951172,-7063672.5425720215,-19837097.16796875,13387551.307678223,33810630.798339844,-5370219.707489014,-12519062.042236328,17810400.009155273,-102182.00087547302,-6791285.037994385,-6512436.866760254,-5295732.021331787,-25005504.608154297,-25037971.49658203,8906550.407409668,9781870.84197998,-9438403.129577637,93481.73439502716,-1381341.9342041016,-31394048.6907959,-30619256.9732666,-6474760.055541992,-2013778.6865234375,-4764052.391052246,-6804201.602935791,881749.8683929443,2001312.7326965332,1706244.2302703857,-15645579.33807373,7109230.995178223,-142719.3135023117,-14146544.456481934,2557259.5596313477,2279489.040374756
0.445,-31911033.630371094,-27870216.369628906,-29951452.255249023,-5194557.189941406,-15980834.007263184,4610623.359680176,5499196.529388428,-6834150.314331055,-1945459.008216858,-41453506.46972656,-12860713.958740234,-15826602.935791016,-15139248.847961426,-15008410.453796387,-7415461.540222168,-3445187.3302459717,-8629942.893981934,-489944.54741477966,5324371.337890625,6388435.840606689,4354918.479919434,-14776368.141174316,-5421636.10458374,10186088.562011719,5536863.327026367,1549949.5267868042,2097540.855407715,11005730.628967285,-8859001.159667969,-8281455.039978027,-22110273.361206055,8304216.384887695,31322702.407836914,-7662094.593048096,-12018421.173095703,18262161.254882812,-15334.115363657475,-7978775.0244140625,-7762240.886688232,-8847455.024719238,-30767463.68408203,-27424270.629882812,7469853.401184082,8323633.193969727,-10177074.432373047,-1919255.6142807007,-3438068.151473999,-34449527.740478516,-32591499.32861328,-12152766.227722168,-3925957.679748535,-6483239.17388916,-9014259.338378906,-1171446.442604065,-2212854.1469573975,-2450396.0609436035,-19140283.584594727,3177152.633666992,-3120762.348175049,-16681364.059448242,-1690921.3066101074,-1806070.08934021
0.45,-32761150.360107422,-27245544.43359375,-30207086.56311035,-2705435.037612915,-14072854.042053223,5240114.212036133,8328251.838684082,-4568390.846252441,639342.6656723022,-38944511.41357422,-11306099.891662598,-14509603.500366211,-13844681.739807129,-13888030.052185059,-6442842.960357666,-1527596.9505310059,-6093882.5607299805,2540481.5673828125,6911662.578582764,8119009.971618652,5903886.795043945,-13581336.02142334,-4541428.089141846,13999104.499816895,7554272.651672363,621104.1212081909,2705708.7421417236,10406898.498535156,-8983346.939086914,-9073712.348937988,-23009634.017944336,7544275.283813477,33400012.969970703,-8160512.924194336,-11539220.809936523,16683097.839355469,68191.40166044235,-8788352.966308594,-8479584.693908691,-9555314.064025879,-30769474.029541016,-26678276.06201172,7667735.0997924805,8315532.684326172,-11289929.389953613,-2455092.191696167,-4176517.0097351074,-37316383.361816406,-33440391.540527344,-12439314.842224121,-1491005.8975219727,-4361078.262329102,-8710921.287536621,-1756162.0473861694,-3587270.0214385986,-3814463.8538360596,-18800289.154052734,3323734.760284424,-2648244.3809509277,-17068286.895751953,-2983276.3671875,-3050036.1919403076
0.455,-32306179.04663086,-28676002.502441406,-29865539.55078125,-3623512.029647827,-12782819.747924805,8417454.719543457,10113134.384155273,-3952357.769012451,763930.7379722595,-37684814.453125,-8844247.817993164,-11970395.0881958,-11444479.942321777,-11619043.350219727,-1647385.9548568726,86808.04818868637,-4941046.237945557,4034264.087677002,6532269.477844238,7909629.821777344,5569526.195526123,-11067512.512207031,-1057288.7659072876,18703769.68383789,12230801.582336426,-1361439.1088485718,1961676.1207580566,10577412.605285645,-9991473.197937012,-9468670.845031738,-21779672.622680664,10610621.452331543,39230304.71801758,-5729483.604431152,-10070249.557495117,15839219.093322754,2735.7852086424828,-9195094.108581543,-8760498.046875,-7635325.4318237305,-26592893.600463867,-22562965.393066406,9691431.999206543,10279198.64654541,-11033778.190612793,-1435915.8277511597,-4057817.4591064453,-38769741.05834961,-33479213.71459961,-8799136.1618042,2919324.1596221924,-402778.62548828125,-6512803.077697754,-817725.0623703003,-1904587.6264572144,-2159731.388092041,-16558822.631835938,6487169.26574707,298844.3672657013,-15542778.015136719,-1214739.9187088013,-1313670.27759552
0.46,-32331565.856933594,-29375951.766967773,-28034990.310668945,-6035472.393035889,-10769666.67175293,9129590.98815918,9045485.496520996,-4792613.983154297,-1074998.8555908203,-35897598.26660156,-5712753.2958984375,-8835047.721862793,-8396867.752075195,-8572647.094726562,991558.0749511719,51134.150475263596,-5307498.931884766,4425064.563751221,7123876.094818115,8490770.33996582,6278353.691101074,-7917437.553405762,2886623.1441497803,20361282.348632812,15806643.48602295,-2339180.2310943604,1584465.6229019165,11201634.407043457,-10134397.506713867,-8670685.768127441,-18440544.12841797,14562623.023986816,42904846.19140625,-3170780.897140503,-7685861.587524414,17168121.337890625,-154041.0965681076,-8374152.183532715,-7981682.777404785,-4226237.773895264,-22271306.99157715,-18178491.592407227,11628094.673156738,12428685.188293457,-8533205.032348633,272425.91977119446,-3120680.332183838,-36987957.00073242,-32184642.791748047,-4529691.696166992,5031140.8042907715,1425947.0701217651,-5116959.095001221,769986.6890907288,967731.5354347229,687162.8761291504,-14692189.21661377,8434205.055236816,1997040.5101776123,-13659824.37133789,1646567.3446655273,1636109.471321106
0.465,-34780162.8112793,-27404418.9453125,-24956863.403320312,-7518806.457519531,-7755028.72467041,5900510.787963867,6019902.70614624,-5886219.501495361,-2794709.4440460205,-33704971.31347656,-2734905.242919922,-5947124.004364014,-5521962.1658325195,-5603719.711303711,-812075.1976966858,-825898.0512619019,-6128033.638000488,4349196.434020996,9328253.746032715,10547440.528869629,8623744.010925293,-5078486.919403076,5602929.592132568,19091241.83654785,15819443.702697754,-1828898.310661316,2125527.1434783936,10831373.21472168,-8605729.103088379,-6775906.562805176,-14377489.08996582,17047285.079956055,41784339.904785156,-2657378.911972046,-5433172.225952148,19179037.09411621,-246427.34229564667,-6481584.072113037,-6247952.461242676,-664380.5503845215,-19606189.727783203,-16460599.899291992,12657664.29901123,13660828.590393066,-5549899.578094482,1548259.973526001,-1507911.4437103271,-33124843.59741211,-29762065.887451172,-1215881.586074829,4343645.095825195,560932.0998191833,-5589685.916900635,1981184.0057373047,3127606.153488159,2881238.9373779297,-13271318.435668945,7785584.449768066,1206772.4466323853,-12492992.401123047,3744266.5100097656,3946589.946746826
0.47,-37336784.36279297,-23812480.926513672,-22089239.1204834,-7577205.657958984,-5734072.208404541,3247909.0690612793,4629624.843597412,-5893675.327301025,-2877520.3227996826,-32681324.005126953,-1348145.604133606,-4501117.706298828,-4087810.99319458,-4091807.3654174805,-2932495.355606079,-690142.810344696,-6469234.466552734,3956877.4700164795,10417993.545532227,11487267.49420166,9759760.856628418,-3718537.0922088623,6734141.826629639,18322797.775268555,14116172.790527344,-1272752.8810501099,2471090.078353882,9350467.681884766,-7304876.804351807,-5630087.375640869,-12173118.591308594,17498317.71850586,39929237.365722656,-2743283.51020813,-4265426.158905029,19452392.578125,-244137.91298866272,-5402122.974395752,-5230118.274688721,1261088.0136489868,-18416881.561279297,-17466220.85571289,13901883.125305176,14813302.993774414,-4819252.967834473,1724794.626235962,-528268.2776451111,-31304302.215576172,-28327608.108520508,604482.5911521912,3949441.67137146,3951.0508067905903,-6208727.836608887,2248856.0676574707,3571114.5401000977,3427839.756011963,-12056512.832641602,7240460.395812988,445765.58470726013,-11921943.664550781,4180289.2684936523,4466827.869415283
0.475,-37109325.40893555,-21548536.30065918,-21137292.861938477,-7585314.2738342285,-6629045.009613037,3451251.745223999,6214216.232299805,-5240983.486175537,-2304555.4161071777,-32927459.716796875,-2147788.5246276855,-5111583.232879639,-4670980.453491211,-4695318.698883057,-2901070.1179504395,-533288.1808280945,-7139579.772949219,3041733.980178833,8695553.77960205,9604407.31048584,7928053.379058838,-4351540.565490723,6601140.975952148,18898054.122924805,12831749.91607666,-2554135.0841522217,1252078.1755447388,8284234.046936035,-8256221.771240234,-6532380.104064941,-13272352.21862793,16332065.58227539,40742839.81323242,-2118035.5548858643,-4861624.717712402,17151866.912841797,-271237.2839450836,-6378180.027008057,-6114325.046539307,527748.3463287354,-18554109.573364258,-19523649.215698242,15192833.90045166,15850310.325622559,-6970255.8517456055,894687.294960022,-1327267.4083709717,-33199764.251708984,-29276124.954223633,358358.7408065796,4966223.71673584,982373.297214508,-5849485.874176025,1606877.4461746216,2463371.0384368896,2404740.09513855,-12053349.494934082,8289897.918701172,1292885.7803344727,-11632688.522338867,3108393.907546997,3234582.6625823975
0.48,-36410354.61425781,-22344676.971435547,-22615648.26965332,-8931966.781616211,-9709044.456481934,2617971.658706665,7639438.629150391,-5804606.4376831055,-3381606.5788269043,-32759376.525878906,-4061474.8001098633,-7025701.522827148,-6415252.685546875,-6540483.474731445,-3953524.112701416,-3386686.8019104004,-9660967.826843262,1467996.597290039,6158039.569854736,6868914.1273498535,5238963.1271362305,-6199588.298797607,5498315.334320068,17821500.778198242,10864879.608154297,-5984417.43850708,-1515824.9139785767,8470489.501953125,-10430083.274841309,-7984001.159667969,-15738355.63659668,14364097.595214844,41543708.80126953,-2712685.8234405518,-7503299.713134766,13473230.361938477,-402585.4170322418,-7858286.380767822,-7475537.300109863,-1318343.997001648,-19522495.26977539,-21701219.55871582,14034724.235534668,14603372.573852539,-10178575.51574707,-132012.5013589859,-2643611.192703247,-35024929.04663086,-30585725.784301758,-1232221.245765686,4647994.041442871,753000.6766319275,-6066544.055938721,693689.6443367004,1305094.3613052368,1232670.783996582,-13304500.579833984,8476122.856140137,1628986.7162704468,-11778017.9977417,1925583.1241607666,1891775.4888534546
0.485,-39067527.770996094,-24150976.181030273,-24587272.64404297,-11008950.233459473,-11758292.198181152,-1256339.5500183105,6484792.709350586,-7515961.647033691,-6070500.373840332,-30971775.05493164,-5117567.06237793,-8317941.665649414,-7463587.284088135,-7690360.546112061,-7568805.694580078,-8349836.349487305,-13240292.5491333,-132811.62083148956,5626784.324645996,6281313.896179199,4691930.294036865,-7401025.772094727,4371180.057525635,14220067.024230957,7233057.498931885,-9406744.003295898,-4105633.7356567383,8983512.878417969,-10881319.999694824,-7227114.200592041,-15632077.21710205,13350830.078125,39494400.02441406,-5744809.627532959,-11065246.58203125,10426529.884338379,-514205.4557800293,-7117357.7308654785,-6679927.349090576,-976115.4651641846,-19316518.783569336,-23633827.209472656,9826575.27923584,10488895.416259766,-12569237.70904541,-134229.30240631104,-1612234.2348098755,-32201873.779296875,-28907373.428344727,-1257372.6177215576,1475892.186164856,-2502950.1914978027,-7904808.99810791,661665.0223731995,2214365.4823303223,2110561.3708496094,-12880640.983581543,6291137.218475342,-153006.46424293518,-12033682.823181152,2752767.0860290527,2815534.3532562256
0.49,-42865726.470947266,-22799137.115478516,-24087392.807006836,-11368724.822998047,-10073271.751403809,-3238857.7461242676,5520586.4906311035,-7173788.070678711,-7228889.942169189,-27919490.814208984,-4034133.4342956543,-7244947.43347168,-6303265.09475708,-6587033.271789551,-8732343.673706055,-9572285.652160645,-14482279.777526855,-109081.00008964539,7084839.344024658,8032541.275024414,6312407.493591309,-6291258.335113525,5103315.830230713,12401927.947998047,4955883.026123047,-9682352.066040039,-4400516.033172607,8885359.764099121,-8809260.368347168,-3942150.115966797,-11493852.615356445,15368984.22241211,38096748.35205078,-7465278.625488281,-12630475.997924805,9552698.135375977,-435187.965631485,-3873692.750930786,-3441561.222076416,2987364.7689819336,-15958861.351013184,-23512487.411499023,6927310.943603516,7573246.955871582,-13471315.383911133,1787970.9005355835,2471170.9022521973,-25718132.01904297,-24141994.47631836,2685920.9537506104,-742593.2884216309,-5160966.873168945,-8711972.2366333,2512855.7682037354,6048866.748809814,6067038.059234619,-7888172.626495361,5557586.669921875,-862540.6622886658,-10980139.73236084,6589502.334594727,6874775.409698486
0.495,-42314205.169677734,-17799648.28491211,-21362283.70666504,-8784014.701843262,-5997998.7144470215,101047.11353778839,8355971.336364746,-2895028.3527374268,-5047027.587890625,-24818895.33996582,-1775925.0402450562,-4450479.984283447,-3679961.919784546,-3981004.9533843994,-4105675.220489502,-4157325.267791748,-11531092.643737793,2606162.7864837646,8153939.247131348,9591609.001159668,7589704.0367126465,-3566186.4280700684,7976540.088653564,15617795.944213867,7425507.545471191,-6040404.319763184,-1900295.1383590698,8590438.842773438,-6848040.580749512,-1211684.226989746,-6847407.341003418,19641483.306884766,41912315.368652344,-3536789.894104004,-9848330.4977417,11092421.531677246,-219386.93523406982,-1157809.9727630615,-813504.695892334,7666306.972503662,-10888393.40209961,-19326932.907104492,10169486.045837402,10581561.088562012,-12530317.306518555,5057031.154632568,6296460.6285095215,-21555532.455444336,-20286613.46435547,8549640.655517578,2497584.104537964,-2362085.8192443848,-5479200.36315918,5775084.018707275,10724510.192871094,11009902.000427246,-799940.0496482849,10394609.451293945,3315458.7745666504,-7998497.96295166,11409478.187561035,11706869.125366211
