time,Fp1,Fpz,Fp2,AF3,AF4,F7,F5,F3,F1,Fz,F2,F4,F6,F8,FT7,FC5,FC3,FC1,FCz,FC2,FC4,FC6,FT8,T7,C5,C3,C1,Cz,C2,C4,C6,T8,TP7,CP5,CP3,CP1,CPz,CP2,CP4,CP6,TP8,P7,P5,P3,P1,Pz,P2,P4,P6,P8,PO7,PO5,PO3,POz,PO4,PO6,PO8,CB1,O1,Oz,O2,CB2
0.0,631216.5260314941,865346.3125228882,677212.119102478,-85799.2023229599,-48859.51057076454,874399.9004364014,-3608762.264251709,-1718968.152999878,250233.85882377625,455439.7761821747,-253695.69659233093,-325586.55738830566,-355474.71046447754,-409998.8341331482,773768.1865692139,-1935677.0515441895,1436526.5369415283,786841.869354248,-271764.72544670105,-288709.6405029297,-349074.0656852722,-350777.5664329529,-518095.0164794922,-1753911.852836609,-220308.15482139587,-984849.6317863464,9999.386966228485,1583303.5707473755,644337.4156951904,300976.12738609314,904477.4770736694,-12737.254612147808,-554537.5347137451,-497249.7522830963,-129526.09360218048,-2214622.4975585938,88705.874979496,373645.75266838074,342870.71228027344,-553976.5357971191,-1557404.2797088623,480853.6171913147,-397322.6249217987,-455681.05578422546,-227850.21364688873,-768594.4437980652,-88354.13306951523,442915.02237319946,-177522.4357843399,-264481.8425178528,1599748.7306594849,1553447.2465515137,1108106.6131591797,-705533.9217185974,383108.0198287964,373628.07989120483,586662.769317627,1330665.4691696167,1000508.5468292236,-316048.41351509094,408862.97821998596,417243.4210777283
0.005,16316871.643066406,18576335.906982422,6156978.607177734,-3525687.2177124023,4308960.437774658,1641641.2591934204,-13816539.764404297,-11102053.64227295,-1056567.668914795,-1528652.6679992676,-1918316.6027069092,-3176248.073577881,-3493656.3968658447,-4405263.423919678,4494843.95980835,-8235630.989074707,1689261.6748809814,-549230.7543754578,2654498.1002807617,2330916.166305542,1731786.2510681152,-3798078.2985687256,-4322252.7503967285,-18191762.924194336,-1996896.1477279663,-5069969.177246094,1042168.140411377,4908127.784729004,-2568198.4424591064,2810833.45413208,-1165313.482284546,5415492.534637451,-4574340.8203125,272650.5696773529,-1514160.2754592896,-276955.15751838684,1202725.4104614258,4185752.8686523438,3761650.562286377,2615640.878677368,-6101266.860961914,-8191411.018371582,-3516288.5189056396,-3648961.5440368652,3686077.356338501,113430.50003051758,4846630.096435547,8693858.14666748,3857920.1698303223,929786.0264778137,2163327.217102051,648775.1603126526,1214947.3428726196,1774417.8771972656,7896979.808807373,7818607.330322266,-1737318.992614746,-1160223.6032485962,423777.34184265137,1015488.5053634644,7633754.730224609,8146637.916564941
0.01,20174430.84716797,20426181.79321289,6070126.056671143,-8562021.255493164,1707662.4631881714,-4333735.466003418,-19232807.159423828,-16483922.958374023,-3487195.7302093506,-4798882.007598877,-8142571.449279785,-10209993.362426758,-10772974.014282227,-11920554.161071777,412014.27578926086,-12325719.833374023,-1416471.6005325317,-1809229.850769043,1214054.2268753052,940748.3339309692,20211.25890314579,-11138817.78717041,-12825556.755065918,-29102087.020874023,-6495420.455932617,-5040952.682495117,942624.4497299194,4452703.952789307,-5954827.785491943,744339.1680717468,-6178881.645202637,-213933.61687660217,-10713598.251342773,-2146841.526031494,-2131901.741027832,866347.9089736938,1620900.3925323486,2681210.0410461426,1968544.9600219727,233248.2784986496,-10728408.813476562,-13365814.208984375,-4838165.760040283,-5230897.426605225,4837738.990783691,-589830.5773735046,3425616.979598999,8690278.053283691,1339298.129081726,-2462825.059890747,1772129.1780471802,-528898.9543914795,-1621586.561203003,1800492.286682129,6087458.610534668,5981655.120849609,-6614593.982696533,-5810892.581939697,-2909916.877746582,-636102.2591590881,5662687.301635742,6409365.177154541
0.015,15076700.210571289,12582589.149475098,2739753.9615631104,-11979204.177856445,-3504577.63671875,-11823939.323425293,-19215818.405151367,-17017107.009887695,-5018266.677856445,-6136505.603790283,-14403573.989868164,-16876924.514770508,-17508123.39782715,-18463729.858398438,-6873965.740203857,-14348256.11114502,-5096540.927886963,-2319965.362548828,-1928888.440132141,-1914479.6133041382,-2861750.602722168,-17764808.654785156,-20605854.034423828,-31729883.193969727,-10602279.663085938,-2108649.969100952,399133.6524486542,2568377.0179748535,-7822979.927062988,-3723484.992980957,-10914590.835571289,-10362285.614013672,-15657416.343688965,-4927885.53237915,-1393910.1696014404,1336658.000946045,1388509.3927383423,-2020959.6157073975,-2740518.569946289,-4482606.887817383,-14352095.603942871,-14505907.05871582,-4081716.537475586,-4771551.609039307,3700342.893600464,-2293251.9912719727,-2167351.007461548,2722572.3266601562,-4510283.470153809,-7049273.0140686035,446075.975894928,-1795910.5968475342,-5489376.068115234,-51198.527216911316,-1450939.655303955,-1479504.942893982,-11892166.137695312,-10716383.934020996,-7212754.726409912,-3885692.358016968,-1911873.698234558,-1158244.4906234741
0.02,11797443.389892578,10441527.366638184,2572327.8522491455,-11582326.889038086,-3169409.2750549316,-12965581.893920898,-17697746.27685547,-15754797.93548584,-4445260.524749756,-3548203.706741333,-13760832.786560059,-16200353.622436523,-16681339.263916016,-17616188.049316406,-8809141.159057617,-16004150.390625,-5685462.474822998,-2108831.8824768066,-1978554.2488098145,-1818184.733390808,-2611033.6780548096,-16925676.345825195,-19531642.91381836,-29504335.403442383,-11017014.503479004,-663065.6719207764,480182.4688911438,3215414.524078369,-6750948.429107666,-5002695.560455322,-9949630.737304688,-10964962.005615234,-16326143.264770508,-4743199.825286865,-395966.47024154663,1490584.9695205688,1168542.1466827393,-3755965.4712677,-4172897.3388671875,-4184272.289276123,-14268614.768981934,-14142171.859741211,-3820384.740829468,-4550437.450408936,2481789.3505096436,-3281423.330307007,-4893771.648406982,-286541.4023399353,-5523417.949676514,-5918582.439422607,-1778169.03591156,-3526971.5785980225,-7452217.578887939,-1421492.2189712524,-4497470.855712891,-4367186.069488525,-13135286.331176758,-13066791.534423828,-9484786.033630371,-5368968.486785889,-4951472.759246826,-4210825.9201049805
0.025,13072049.140930176,14617397.30834961,7020596.027374268,-11669751.167297363,1692750.9307861328,-11091233.253479004,-18887899.39880371,-16511240.005493164,-4932450.294494629,-1712139.8448944092,-7937834.2628479,-9640661.239624023,-9946268.081665039,-11137523.651123047,-7057248.592376709,-18016588.21105957,-5595776.557922363,-2577494.8596954346,-65309.3159198761,-4118.644166737795,-675411.1051559448,-10349512.100219727,-11442471.504211426,-29744489.669799805,-10900963.78326416,-2209067.5830841064,671341.3596153259,4995484.828948975,-4297389.507293701,-1835647.9406356812,-3595624.2084503174,-1255209.6843719482,-16091033.935546875,-4341117.382049561,-1525597.2146987915,985289.454460144,1428220.1528549194,-734091.8183326721,-826582.3721885681,2099798.4409332275,-8568114.280700684,-14692435.264587402,-7145016.193389893,-7653998.374938965,1806920.5284118652,-2862940.788269043,-2214049.816131592,3436058.759689331,-25051.73347890377,1407899.8565673828,-5078498.363494873,-6475268.363952637,-8526701.927185059,-1149996.6382980347,-497294.7835922241,-282518.9232826233,-9271666.526794434,-13374677.658081055,-10159123.420715332,-4352335.9298706055,-938406.229019165,-192158.65433216095
0.03,13219963.073730469,15166629.791259766,12203604.698181152,-15951640.129089355,4136585.7124328613,-14161973.95324707,-22195259.09423828,-19252618.78967285,-8849290.84777832,-5081900.119781494,-4208112.716674805,-4616233.825683594,-4910366.535186768,-6251684.188842773,-8910203.93371582,-19183851.24206543,-8771328.926086426,-4308919.429779053,-621958.6730003357,-664962.5301361084,-1389501.452445984,-5444895.267486572,-5235343.933105469,-34403453.8269043,-14333124.160766602,-3885528.564453125,56865.84115028381,4020492.5537109375,-3259271.1448669434,2142826.0803222656,2471755.7430267334,7065004.825592041,-18790302.276611328,-7195303.440093994,-4874523.162841797,-503287.8518104553,1932555.7947158813,3407975.196838379,3349602.460861206,8453511.238098145,286454.6775817871,-15478726.387023926,-12625880.241394043,-12963315.963745117,866640.0909423828,-1352482.3188781738,2548697.2332000732,9489790.916442871,6156066.89453125,8561840.057373047,-8140972.137451172,-9614797.592163086,-10641914.367675781,427282.3631763458,4787775.993347168,4906281.9480896,-3328297.3766326904,-13265516.28112793,-10843262.672424316,-2319241.0469055176,4375758.171081543,5034296.989440918
0.035,10928941.72668457,12634864.807128906,15909073.829650879,-19169057.846069336,3851023.1971740723,-19135854.721069336,-22653657.913208008,-19765176.77307129,-11901459.693908691,-9185724.258422852,-3899672.508239746,-3408239.3646240234,-3775041.8186187744,-5015707.969665527,-12540712.356567383,-17874092.10205078,-12384371.757507324,-5311878.204345703,-3148691.6542053223,-3105061.5310668945,-4020481.586456299,-4257149.219512939,-3901003.360748291,-36175865.173339844,-17597309.112548828,-2696287.8704071045,-535064.9952888489,1303308.2485198975,-3756405.3535461426,4447518.825531006,4861865.043640137,8372072.219848633,-20490726.470947266,-9451070.785522461,-6855939.3882751465,-2126786.947250366,2116497.755050659,5844430.446624756,5591023.4451293945,11114940.643310547,6627183.91418457,-13975974.082946777,-14431961.059570312,-14844347.953796387,-55230.721831321716,1034183.7406158447,6418727.397918701,13244882.583618164,8877971.649169922,11421028.137207031,-8441077.23236084,-10302493.09539795,-11839927.673339844,2926865.816116333,7913232.803344727,7884099.960327148,1658163.30909729,-11810553.550720215,-10320638.656616211,216788.3664369583,7524735.450744629,8016995.429992676
0.04,11917899.131774902,16897516.25061035,19445123.67248535,-14142718.315124512,6556531.4292907715,-15888411.521911621,-17528440.475463867,-15267806.053161621,-8294436.454772949,-6481158.73336792,-2014102.2205352783,-1810429.8114776611,-2146198.7495422363,-3313550.2338409424,-9224219.32220459,-14323250.770568848,-10392208.099365234,-3500590.0859832764,-2961438.1790161133,-2700065.6127929688,-3789739.1319274902,-2511152.2674560547,-2719260.4541778564,-28657148.361206055,-14080123.901367188,891781.9261550903,404069.36407089233,1476275.5632400513,-3353369.2359924316,6073892.116546631,5579290.390014648,8852851.867675781,-15250700.950622559,-4997131.824493408,-4660899.1622924805,-2583796.739578247,1824281.930923462,7397891.521453857,7056521.892547607,12435922.622680664,7734362.1253967285,-9959530.8303833,-9729935.646057129,-10292483.32977295,420205.9507369995,3644392.0135498047,9301713.943481445,15235513.687133789,9934165.000915527,12485020.637512207,-5815339.088439941,-8040854.454040527,-9523515.701293945,5645799.160003662,10755846.977233887,10762240.409851074,4864197.731018066,-8049500.465393066,-7133894.443511963,3266077.756881714,10344835.28137207,10761244.773864746
0.045,17642559.051513672,27106933.59375,22270341.873168945,-4615889.549255371,12164372.444152832,-5743986.6065979,-11061344.146728516,-9111498.832702637,-325484.2758178711,1326280.5938720703,2514108.657836914,1679750.4425048828,1474856.7342758179,191297.248005867,-141503.51285934448,-11538103.103637695,-3933888.9122009277,-173275.9028673172,631133.4371566772,1066862.1063232422,-61662.96452283859,1077368.974685669,397257.4174404144,-17784551.6204834,-6112031.45980835,3864982.3665618896,2404259.204864502,5133955.001831055,-1069155.216217041,7610796.4515686035,6941253.185272217,13194432.258605957,-6925087.928771973,3504921.9131469727,-637636.8403434753,-1962493.896484375,1474875.569343567,8794648.170471191,8621972.08404541,14797886.848449707,6236437.797546387,-6690925.598144531,-3232222.557067871,-3758822.9179382324,2200091.600418091,4546088.218688965,10604598.999023438,17003156.661987305,11373487.47253418,14715587.615966797,-3619610.30960083,-5895617.961883545,-6077896.595001221,6622735.977172852,13494916.915893555,13739048.00415039,6048362.731933594,-4856999.87411499,-3921044.34967041,4964957.237243652,13039190.292358398,13534420.96710205
0.05,20458625.79345703,30207942.962646484,20378021.240234375,-1985499.7396469116,13379974.365234375,-2618834.972381592,-10319059.371948242,-7627183.437347412,3338888.168334961,4977935.791015625,4269099.235534668,2722643.6138153076,2606515.407562256,1222434.0438842773,1678313.7321472168,-13294160.842895508,-848075.0918388367,1241811.0370635986,3026639.223098755,3469572.067260742,2427272.5582122803,2034446.2394714355,1228414.4163131714,-15878317.832946777,-3530072.6890563965,3779424.4289398193,3404150.2475738525,7955315.113067627,988568.902015686,7176851.272583008,7549728.3935546875,16637537.002563477,-6103160.381317139,6749721.050262451,389069.8850154877,-1803616.2853240967,1484925.7469177246,8293892.860412598,8361670.49407959,15840369.22454834,4932636.737823486,-7263545.989990234,-1490971.4460372925,-1817584.8722457886,3121889.114379883,2195617.914199829,8315530.776977539,16484952.926635742,11133690.83404541,15785164.833068848,-4659633.636474609,-6623199.939727783,-6211568.832397461,4246442.794799805,12424637.794494629,12853356.36138916,4376239.29977417,-6017144.680023193,-4704238.414764404,3086537.5995635986,11971795.082092285,12564659.118652344
0.055,14526849.746704102,21871440.887451172,12744215.965270996,-9196247.100830078,7752473.831176758,-12849987.030029297,-16520317.077636719,-12392792.701721191,-673228.5022735596,1412396.4309692383,467493.0274486542,-1256260.633468628,-1350662.9467010498,-2639722.3472595215,-9781046.867370605,-20002769.470214844,-4352425.098419189,-223387.10725307465,1866893.4106826782,2122450.113296509,1170657.8731536865,-2014704.942703247,-2676811.933517456,-25095882.415771484,-9712959.289550781,794245.8391189575,2759461.4028930664,7600474.3576049805,690799.8919487,3889395.4753875732,5281265.2587890625,13853322.02911377,-15062225.341796875,1861957.311630249,-2769725.561141968,-2986108.3030700684,1740445.852279663,4941038.131713867,5113125.324249268,12735624.313354492,2606424.09324646,-11399114.608764648,-5110995.292663574,-5309716.701507568,1565457.2248458862,-2186183.9294433594,2923279.047012329,11447372.436523438,7145645.1416015625,12016222.953796387,-8143916.130065918,-9676409.721374512,-10284155.84564209,-238074.6155977249,6545235.633850098,6880701.065063477,-132946.6700553894,-10887819.290161133,-9258964.538574219,-1363120.198249817,6144974.231719971,6724900.722503662
0.06,4902835.369110107,13676099.77722168,4803655.624389648,-17024192.810058594,2199916.124343872,-25695413.58947754,-23673456.1920166,-18519584.65576172,-6496065.139770508,-2620334.1484069824,-4435813.903808594,-6515707.969665527,-6604139.804840088,-7717061.996459961,-23586050.033569336,-27259824.752807617,-9177670.4788208,-2272777.0805358887,259829.13374900818,254812.3300075531,-740177.8101921082,-7131453.037261963,-7440438.747406006,-34674980.16357422,-17028408.05053711,-2633407.3543548584,1874953.269958496,6447892.665863037,-1262906.1937332153,341543.67446899414,1273975.3723144531,7574981.689453125,-24441705.70373535,-4179525.375366211,-6891520.977020264,-4567267.894744873,1806610.8226776123,1233621.1204528809,1381751.1796951294,7617255.687713623,-2308736.801147461,-16759212.493896484,-9754892.349243164,-9978788.375854492,-1548593.4019088745,-5527542.1142578125,-1485055.3274154663,4817797.1839904785,1965762.0191574097,5124408.721923828,-12192487.716674805,-13511353.492736816,-14761136.054992676,-3633942.8424835205,415858.3879470825,453661.6802215576,-5668716.907501221,-15743427.276611328,-14059125.900268555,-4911145.210266113,36715.48888087273,514240.026473999
0.065,126800.25398731232,14189824.104309082,1820670.6047058105,-18420581.817626953,2055535.5548858643,-29911684.036254883,-26573066.71142578,-21328575.134277344,-8308362.007141113,-2375049.114227295,-6219063.282012939,-9036236.763000488,-9212673.18725586,-10222891.807556152,-27725151.06201172,-30436708.450317383,-10822978.973388672,-3497248.888015747,679006.1593055725,588225.3050804138,-616188.0493164062,-9489077.5680542,-9465091.705322266,-36699874.87792969,-18943807.60192871,-4141114.7117614746,1493357.1815490723,6487253.665924072,-2736883.8787078857,-727890.0146484375,-1849523.7827301025,3197930.8128356934,-27315408.70666504,-5772433.280944824,-9303679.466247559,-5310313.2247924805,1542811.9897842407,26980.59193789959,112318.88085603714,4771966.457366943,-7224077.224731445,-21923824.310302734,-12873616.218566895,-13103991.508483887,-4051928.0433654785,-6372813.2247924805,-2216386.7950439453,2032506.9427490234,-444030.67231178284,503371.8943595886,-16834981.91833496,-18252027.51159668,-18221590.042114258,-4443769.454956055,-2253483.0570220947,-2447870.7313537598,-10285263.061523438,-19367425.9185791,-17778932.571411133,-6106635.093688965,-2687879.0855407715,-2330447.9122161865
0.07,539512.2766494751,16454917.907714844,2075587.7494812012,-17790990.829467773,3210769.1764831543,-29357660.2935791,-26935804.36706543,-21869981.76574707,-7875470.161437988,-2183691.7400360107,-7009883.880615234,-10129287.719726562,-10568309.783935547,-11532001.495361328,-25827421.188354492,-30296813.96484375,-12106017.112731934,-5487884.521484375,806628.406047821,936241.626739502,-513349.41387176514,-10712182.998657227,-10766141.891479492,-36150943.756103516,-19260736.4654541,-3922364.4733428955,416216.49265289307,6167017.936706543,-2926235.1989746094,-190561.2349510193,-3690103.29246521,690278.8281440735,-28159305.572509766,-6113244.05670166,-10702923.774719238,-5524372.100830078,1267405.1523208618,616817.9512023926,614568.1738853455,4488099.098205566,-8579078.674316406,-26437492.37060547,-15490944.862365723,-15586277.961730957,-4961951.25579834,-6056550.979614258,-1433407.0682525635,3807485.342025757,-385474.7414588928,-167933.3597421646,-22084705.352783203,-23707765.579223633,-22245594.024658203,-4087623.119354248,-3415971.040725708,-3616247.6539611816,-13564968.10913086,-23329261.779785156,-21770946.502685547,-6696909.427642822,-3937412.2619628906,-3685836.5535736084
0.075,451357.81168937683,12172510.147094727,955883.6221694946,-21212545.39489746,238957.88192749023,-33238361.358642578,-28858919.143676758,-23428632.736206055,-9243451.118469238,-6425580.5015563965,-9823891.639709473,-12263838.768005371,-12944846.153259277,-13900027.27508545,-28581073.760986328,-31180519.104003906,-16581235.885620117,-9114436.149597168,-1400008.7976455688,-938605.2489280701,-2468533.754348755,-13172538.757324219,-13744700.43182373,-40503574.37133789,-24212001.80053711,-4095170.9747314453,-1988811.1352920532,4287719.249725342,-2336948.3947753906,-623784.8997116089,-5146760.940551758,-2574687.957763672,-33267250.061035156,-10073309.898376465,-12599518.775939941,-6403925.895690918,1283644.3185806274,327548.92110824585,238739.16268348694,3713208.9138031006,-7391994.476318359,-29312116.622924805,-18451229.095458984,-18419067.3828125,-5074152.946472168,-6355926.990509033,-2532874.10736084,5475720.8824157715,-1293659.6870422363,-319043.69592666626,-25619235.99243164,-27417921.06628418,-26940370.559692383,-4379344.463348389,-6339321.136474609,-6402180.6716918945,-15908364.295959473,-27499418.258666992,-25848899.841308594,-8216677.665710449,-6948228.83605957,-6720006.465911865
0.08,-922336.6975784302,7256228.923797607,-1012629.6281814575,-24888713.836669922,-3689172.5063323975,-38638820.64819336,-31074562.072753906,-25032510.75744629,-10617985.725402832,-10477732.65838623,-11804800.987243652,-13308955.192565918,-13925130.844116211,-14986866.95098877,-34937889.099121094,-33840270.99609375,-20697729.110717773,-11268888.473510742,-2651768.684387207,-2072818.9945220947,-3444126.605987549,-14340099.334716797,-15440606.117248535,-46277565.002441406,-30876613.61694336,-5299338.817596436,-3634933.2332611084,3243532.180786133,-1056304.2163848877,-2063356.3995361328,-5383896.350860596,-5115248.680114746,-39123836.517333984,-15224095.344543457,-14269758.224487305,-7976594.4480896,1464592.8144454956,-1159507.6322555542,-1226356.5063476562,1912068.7246322632,-7463225.841522217,-29531383.514404297,-20530866.622924805,-20585361.48071289,-5621872.901916504,-7487224.102020264,-5150470.733642578,3903473.138809204,-3965737.1044158936,-2326910.972595215,-25416856.76574707,-27535293.579101562,-29857801.43737793,-5464306.831359863,-9925402.641296387,-9892054.557800293,-17238658.905029297,-29276981.353759766,-27603649.139404297,-9905155.181884766,-10661712.646484375,-10276646.614074707
0.085,1177436.5901947021,12134915.351867676,436874.4194507599,-21164646.14868164,-1796712.875366211,-34828575.134277344,-28495344.161987305,-22519315.719604492,-7211904.048919678,-7671306.133270264,-8452155.113220215,-9797138.214111328,-10154891.967773438,-11377567.291259766,-34031112.67089844,-33984535.217285156,-18336771.01135254,-8418727.87475586,1169193.6254501343,1584672.5702285767,467695.027589798,-10661288.261413574,-12021917.343139648,-44363281.25,-30785354.614257812,-5338922.500610352,-1955165.7438278198,5436178.684234619,1117076.9929885864,-2297813.892364502,-2990546.226501465,-3409391.8800354004,-37768760.681152344,-15198813.438415527,-13587349.891662598,-8766123.77166748,1475098.0138778687,-1677061.0809326172,-1578936.8152618408,2062574.3865966797,-9220718.383789062,-27671222.686767578,-20378097.534179688,-20684141.159057617,-6786891.460418701,-8795347.213745117,-6267729.759216309,1484917.5214767456,-5472108.840942383,-4000257.968902588,-23065551.7578125,-25800823.211669922,-29708629.608154297,-6665549.278259277,-10668399.810791016,-10651265.144348145,-17266300.201416016,-27627046.585083008,-26189208.984375,-10603312.492370605,-11567946.434020996,-10898900.032043457
0.09,7466532.230377197,23888626.098632812,4837530.612945557,-11938994.407653809,4841200.351715088,-21367528.915405273,-20764219.284057617,-15657192.23022461,-200542.50955581665,-1158325.0761032104,-1899960.8755111694,-3707223.892211914,-4066343.7843322754,-5260509.490966797,-23325277.32849121,-29320110.321044922,-10524106.979370117,-2395572.9007720947,7665572.643280029,7866999.626159668,6889632.225036621,-4467164.993286133,-5895436.763763428,-34488449.09667969,-22485044.479370117,-2373558.759689331,2330296.9932556152,8954313.278198242,3104439.0201568604,-761491.1794662476,449422.77669906616,1605467.677116394,-29323204.040527344,-8701235.7711792,-9529714.584350586,-7553502.082824707,1247385.025024414,-354499.6678829193,-92381.93929195404,5377144.813537598,-9602620.124816895,-25052469.25354004,-17499925.61340332,-17969087.600708008,-7239188.671112061,-9719017.028808594,-4855558.8722229,1839213.1328582764,-3902691.36428833,-2682755.947113037,-21185306.549072266,-24539402.00805664,-27394176.483154297,-7510612.487792969,-7876095.294952393,-7892729.28237915,-16156961.441040039,-24316843.032836914,-23179986.95373535,-10225541.114807129,-8839562.41607666,-7998025.417327881
0.095,11742887.496948242,29814146.041870117,6372373.580932617,-7528697.967529297,8153029.441833496,-10179971.694946289,-14308843.612670898,-10106444.358825684,3052341.2227630615,-996271.2526321411,757899.1651535034,-1011547.9230880737,-1759495.496749878,-2685419.797897339,-12959649.085998535,-24000034.33227539,-5075999.2599487305,633681.1184883118,9881599.426269531,10006535.530090332,9011635.780334473,-1954673.171043396,-3163239.7174835205,-25387197.494506836,-13808881.759643555,1921480.0596237183,5480228.900909424,9808311.462402344,3035584.6881866455,527206.0036659241,1449825.7637023926,5201104.640960693,-21678722.381591797,-630404.1743278503,-3132267.951965332,-4826984.882354736,1032323.4796524048,1007724.0467071533,1300639.1525268555,8862654.685974121,-7327315.330505371,-21595071.79260254,-11757368.087768555,-12178817.749023438,-5294239.044189453,-9351206.77947998,-2831068.277359009,4548487.663269043,-1043607.9502105713,596616.5661811829,-19049907.684326172,-22559034.34753418,-23428544.998168945,-7143992.900848389,-4004667.7589416504,-3950784.921646118,-14080315.589904785,-20731742.85888672,-19474868.774414062,-8601759.910583496,-4807789.8025512695,-4059836.3876342773
0.1,10099267.00592041,25744417.190551758,2973222.9709625244,-12363018.989562988,4648069.381713867,-8690458.297729492,-13980037.689208984,-10434513.092041016,-1244219.183921814,-9982909.202575684,-2963204.860687256,-3670508.623123169,-4742393.016815186,-5475621.700286865,-10353680.610656738,-22696016.311645508,-6680336.475372314,-2368201.25579834,5530184.268951416,5674367.427825928,4656920.433044434,-4850241.661071777,-5207498.550415039,-21732614.517211914,-11350580.215454102,4329413.414001465,5075285.911560059,7263814.926147461,861469.0899848938,173404.33597564697,-248081.35628700256,5397357.940673828,-19222976.684570312,4325187.206268311,3090102.9109954834,-2285320.75881958,1035838.7231826782,815552.1750450134,1077302.098274231,9825203.895568848,-4059019.5655822754,-16337259.292602539,-4478865.623474121,-4789906.978607178,-1033977.5085449219,-6558242.7978515625,-1862017.9891586304,6502265.453338623,624144.0773010254,3485214.4718170166,-14239166.259765625,-17498613.357543945,-17847286.224365234,-4370813.369750977,-1025346.2791442871,-803747.1175193787,-10733606.338500977,-16450654.983520508,-14545844.078063965,-5032260.894775391,-1519859.790802002,-1008412.7187728882
0.105,7119109.153747559,20020410.537719727,394962.4300003052,-19130311.965942383,-8328.97424697876,-11211692.810058594,-16641359.329223633,-14128065.10925293,-7711946.0105896,-19294630.05065918,-7776626.5869140625,-7163859.3673706055,-8086642.265319824,-8956233.978271484,-10953659.057617188,-23468023.3001709,-11863079.071044922,-7555885.791778564,223443.46344470978,390419.48318481445,-527708.4112167358,-8352200.508117676,-7527034.282684326,-19535423.278808594,-13529961.585998535,4358000.2784729,2767128.9443969727,4338529.109954834,-952011.7044448853,-709017.0383453369,-814183.1755638123,4497640.609741211,-18948472.97668457,5292484.283447266,6219607.830047607,-1325312.2568130493,1219558.1197738647,-111346.43107652664,191563.74037265778,9758502.960205078,-460190.9816265106,-10109533.309936523,354391.33644104004,9584.147483110428,2884592.7715301514,-1827738.0466461182,-1583959.5794677734,6553425.312042236,1066848.9933013916,6128103.733062744,-7834322.929382324,-11045392.990112305,-12946546.55456543,360581.9642543793,910169.3630218506,1268110.1560592651,-6414739.608764648,-11739113.807678223,-9344825.744628906,-229523.8971710205,648416.8767929077,995822.8468894958
0.11,8521504.402160645,19382896.423339844,4016359.329223633,-19545833.587646484,547544.3601608276,-10417867.660522461,-16342058.181762695,-15400713.920593262,-8617140.769958496,-20149248.123168945,-8063718.795776367,-6950481.414794922,-7454190.254211426,-8597792.625427246,-8391116.14227295,-21112308.502197266,-14777197.83782959,-9420689.582824707,88312.82705068588,298155.5759906769,-467351.4664173126,-8008003.234863281,-6856799.602508545,-15366124.153137207,-15593055.725097656,4371460.914611816,1903681.1590194702,3399510.8604431152,-336981.8329811096,-437318.0866241455,2095251.3217926025,4298349.857330322,-17626661.30065918,3509340.763092041,4894450.664520264,-1996512.532234192,1466836.4524841309,13967.27655082941,389297.6641654968,11535184.860229492,4525216.579437256,-5547593.593597412,-606938.4217262268,-1160320.1627731323,3671212.1963500977,2315424.4422912598,-880388.6771202087,6544268.1312561035,1650306.8208694458,9796236.038208008,-4049995.4223632812,-7754612.922668457,-12166213.989257812,4462278.842926025,2191433.4297180176,2571517.7059173584,-2671158.790588379,-8557372.093200684,-6651730.537414551,3358335.018157959,1962204.933166504,2256484.9853515625
0.115,12104594.230651855,20559076.3092041,10200755.11932373,-15291013.717651367,4914871.2158203125,-8410495.75805664,-13016591.07208252,-13162834.167480469,-3652027.8453826904,-14655873.29864502,-4943416.595458984,-4339306.831359863,-4627498.626708984,-5843240.261077881,-4984666.347503662,-15900646.209716797,-14302254.676818848,-7667188.64440918,4022967.81539917,4316305.637359619,3592621.326446533,-5356234.073638916,-5350914.478302002,-12052943.229675293,-16440231.323242188,5780254.364013672,3323253.631591797,3520532.8464508057,1598115.6826019287,1087943.196296692,5501703.262329102,3674313.0683898926,-16337724.685668945,877277.0762443542,1071455.8362960815,-2990910.768508911,1722370.1477050781,1665139.1983032227,1989582.6578140259,14793572.425842285,9608550.071716309,-3836943.1495666504,-5265929.222106934,-6070381.164550781,1884096.0264205933,4242470.264434814,897769.7491645813,8360542.297363281,2783232.9273223877,13370867.729187012,-4356657.5050354,-8680491.44744873,-15036273.956298828,6267485.14175415,3430509.090423584,3794370.174407959,-626161.9925498962,-7762103.55758667,-7165850.639343262,4733695.983886719,3125617.742538452,3391424.1790771484
0.12,11404518.127441406,18494440.07873535,10773940.086364746,-14118323.32611084,6590012.073516846,-10419377.326965332,-11763639.450073242,-11736211.776733398,290471.613407135,-11852568.626403809,-3976966.619491577,-4125662.326812744,-4475790.500640869,-5572239.875793457,-5617334.365844727,-13473241.806030273,-13426184.65423584,-6580827.236175537,5657466.411590576,6006168.842315674,5172028.064727783,-5161865.234375,-6504498.00491333,-12165333.74786377,-17302473.068237305,7498127.460479736,4744093.418121338,2567220.687866211,1956797.2421646118,3070902.3475646973,5085930.347442627,1737269.7591781616,-16146001.815795898,277824.9979019165,-1035580.039024353,-2704546.4515686035,1903894.9012756348,4092972.755432129,4233700.752258301,16972463.607788086,11054867.7444458,-2900499.5822906494,-7334621.906280518,-8306131.362915039,1237212.5387191772,5560554.027557373,4097060.6803894043,11960559.844970703,4241061.210632324,14716914.176940918,-5170591.354370117,-9614862.442016602,-16511024.475097656,7470873.832702637,5888017.177581787,6319039.344787598,919237.8520965576,-7362410.545349121,-7722911.834716797,6191366.195678711,5560556.888580322,5814140.319824219
0.125,6380992.412567139,15453822.135925293,4341142.177581787,-18093456.268310547,2973813.772201538,-13820349.69329834,-14301438.331604004,-13680168.151855469,-1400118.9470291138,-15768871.307373047,-7500180.244445801,-7769691.944122314,-8159998.893737793,-9211319.923400879,-7426054.954528809,-15759973.526000977,-13736596.10748291,-8384469.032287598,1916409.7309112549,2253926.2771606445,1282148.003578186,-8712587.356567383,-9660636.901855469,-11935030.937194824,-16990379.333496094,8694500.923156738,4318591.117858887,502684.71240997314,-115807.84618854523,5141408.443450928,1355543.9710617065,498706.48980140686,-14408410.07232666,4245673.179626465,1445857.4056625366,-628304.7199249268,1872544.288635254,6495394.706726074,6495815.277099609,17705884.93347168,8436986.923217773,231885.03086566925,-3141808.271408081,-4166440.010070801,4202558.994293213,8604390.144348145,8291039.46685791,15877920.150756836,6316294.193267822,14689446.449279785,-2533254.861831665,-6571463.584899902,-12986532.211303711,10494621.276855469,10055041.313171387,10622881.889343262,3953972.339630127,-4943842.41104126,-5048944.95010376,10027370.45288086,9800307.273864746,10107353.210449219
0.13,4179167.2706604004,16862295.150756836,-1475574.254989624,-20974536.895751953,-1290529.727935791,-11693572.044372559,-15930458.068847656,-15608698.844909668,-5237328.52935791,-21436609.268188477,-11588342.666625977,-11105649.948120117,-11398140.907287598,-12534761.428833008,-3836736.2022399902,-17302591.32385254,-13602501.86920166,-10238679.885864258,-3174375.057220459,-2824076.8909454346,-3843710.18409729,-11886446.952819824,-10644707.679748535,-6711593.6279296875,-13274798.393249512,10612459.182739258,3215246.4389801025,-515691.04194641113,-2345475.435256958,6916801.929473877,-757905.7216644287,2510278.4633636475,-8958854.675292969,11597163.200378418,7303625.583648682,2045070.4097747803,1636315.5841827393,8142786.026000977,8176521.301269531,19239633.560180664,6920662.879943848,5817437.171936035,4328333.377838135,3309701.442718506,8635566.711425781,12264598.846435547,11408376.693725586,18315568.923950195,8922653.198242188,16426694.869995117,2856438.8751983643,-788778.54347229,-7001960.754394531,14180952.072143555,13916561.126708984,14567674.63684082,7921045.303344727,-827386.0812187195,-29563.95596265793,14531811.714172363,13741312.026977539,14117173.194885254
0.135,8666774.74975586,22285865.783691406,276042.55080223083,-17442142.486572266,-127363.53278160095,-4654434.2041015625,-12489428.520202637,-13143905.639648438,-4764325.6187438965,-22106769.561767578,-10861248.970031738,-9306773.18572998,-9570728.302001953,-10722480.773925781,3893301.9638061523,-13150310.516357422,-11688353.538513184,-8694949.15008545,-3755718.946456909,-3304576.635360718,-4308210.849761963,-10051530.838012695,-7075880.527496338,1323022.961616516,-8204016.68548584,14142868.041992188,3676755.18989563,963697.075843811,-2290843.963623047,7454882.1449279785,1812680.3636550903,7006207.466125488,-2964088.6783599854,17009296.417236328,12119380.950927734,3445587.158203125,1433992.862701416,8287711.143493652,8463543.891906738,22458265.30456543,10809989.929199219,10763499.25994873,8675451.278686523,7625041.484832764,9951277.732849121,12715824.127197266,11126807.21282959,18140687.942504883,10504631.996154785,20300283.432006836,6440428.733825684,2741654.15763855,-4421786.308288574,14618870.735168457,14433019.638061523,15067347.526550293,9672803.87878418,2031290.2927398682,3015555.1433563232,15495127.67791748,14244347.57232666,14602361.679077148
0.14,14958654.403686523,25980306.62536621,7622695.9228515625,-10584899.90234375,6489558.219909668,-862578.7496566772,-6652672.290802002,-7633359.432220459,713972.6281166077,-17144159.3170166,-5085418.224334717,-3048424.005508423,-3475445.27053833,-4485344.886779785,7270613.670349121,-6471115.589141846,-9778797.149658203,-4811919.212341309,831651.8068313599,1356752.7532577515,322809.8452091217,-3882920.980453491,-1492719.5310592651,5800357.341766357,-7325267.791748047,17320991.51611328,5535728.454589844,3639970.7794189453,-163670.152425766,6587094.306945801,6703213.214874268,10155245.780944824,-1743479.609489441,15982012.748718262,12071071.62475586,2806411.7431640625,1449077.6062011719,7194509.983062744,7479012.012481689,25285745.62072754,17330709.45739746,11638275.146484375,6315008.163452148,5137269.020080566,6514124.393463135,8827033.996582031,8014025.688171387,16188457.489013672,9823142.051696777,22797893.524169922,4870625.4959106445,702978.8494110107,-7914854.049682617,10722219.467163086,11312248.229980469,11903384.2086792,7604146.957397461,1056028.2468795776,1042186.4986419678,11727661.1328125,10997318.267822266,11282735.824584961
0.145,16843217.849731445,25253667.8314209,12814154.624938965,-7494534.492492676,12344496.726989746,-3834837.9135131836,-4329887.390136719,-4773460.865020752,5468659.400939941,-11593478.202819824,379385.70976257324,1883025.1693725586,1267349.0047454834,418751.86562538147,2811834.5737457275,-4504656.3148498535,-10428860.664367676,-2694343.090057373,6055768.4898376465,6472261.428833008,5325494.289398193,1024626.4934539795,1456678.9865493774,4289035.797119141,-12104197.50213623,17273859.02404785,6455817.699432373,5038944.244384766,2037670.8507537842,6062930.583953857,9556122.779846191,9571022.987365723,-5994950.294494629,9982521.057128906,7457814.2166137695,1044510.4837417603,1540016.2935256958,6711460.590362549,7023555.278778076,26033658.981323242,20177585.60180664,8183341.026306152,-504326.10511779785,-1832817.0776367188,1596680.0451278687,4584620.475769043,5830627.44140625,15217448.234558105,8452962.875366211,21741996.76513672,-336016.86358451843,-5061724.662780762,-14199248.313903809,6586694.240570068,8105930.328369141,8664587.97454834,4412046.909332275,-3028359.6515655518,-4192791.9387817383,7171680.450439453,7615955.829620361,7911171.913146973
0.15,15489796.63848877,23996337.890625,11671546.936035156,-9507357.597351074,12536417.961120605,-7261392.593383789,-6520854.473114014,-6847294.330596924,5334089.279174805,-9493916.511535645,1113638.0434036255,1639208.3168029785,976459.264755249,223669.9014902115,-3083003.282546997,-8854597.091674805,-12686269.760131836,-3745458.1260681152,8372672.080993652,8545722.961425781,7297989.368438721,878824.3532180786,551148.7722396851,403069.73457336426,-16497478.485107422,14224314.68963623,5646111.488342285,4773435.592651367,3241417.88482666,7549171.924591064,9188915.252685547,7599890.70892334,-10867411.613464355,5416380.405426025,2873762.1307373047,-322616.3983345032,1441394.329071045,8250705.718994141,8562499.046325684,25897064.208984375,17558969.497680664,3952307.939529419,-5660295.486450195,-6990504.264831543,-480693.9959526062,4322731.971740723,7145077.228546143,16675430.297851562,9069980.62133789,19511304.85534668,-4070460.796356201,-9078801.155090332,-17405033.111572266,6506374.835968018,8353634.834289551,8828844.07043457,3915931.463241577,-6342925.071716309,-7540976.047515869,6420835.494995117,7739509.105682373,8154238.700866699
0.155,16235895.156860352,26320241.928100586,7142490.863800049,-11100942.611694336,9089873.313903809,-5135263.442993164,-8564558.982849121,-9794213.29498291,2857693.1953430176,-10029467.582702637,-1294330.4777145386,-1180575.8476257324,-1808472.8717803955,-2464705.7056427,-3641276.5979766846,-13877514.839172363,-12772400.856018066,-5109110.8322143555,8656998.634338379,8672942.161560059,7460223.67477417,-1875467.06199646,-860048.5324859619,-1500994.9207305908,-14328861.236572266,11691501.61743164,5206948.280334473,4793247.699737549,3807579.755783081,9665682.792663574,7705184.459686279,8385619.163513184,-12039247.512817383,6618897.914886475,2929570.6748962402,-576073.169708252,1181296.5869903564,10289378.16619873,10602905.2734375,26321506.50024414,13373596.19140625,2725418.80607605,-4691524.982452393,-5796863.555908203,856050.7297515869,6993218.898773193,9639778.137207031,17787372.589111328,11020087.242126465,18902637.481689453,-3195480.8235168457,-7942542.552947998,-15239881.51550293,9235702.514648438,11032158.851623535,11363489.151000977,5611323.833465576,-6010059.833526611,-6120516.300201416,9126054.763793945,10413561.820983887,10925712.585449219
0.16,19159830.09338379,29583532.333374023,4190377.712249756,-8819317.817687988,7133886.337280273,-1607091.6652679443,-7494862.5564575195,-9403256.4163208,2559502.8400421143,-10521832.466125488,-2572489.023208618,-2041553.258895874,-2667114.9730682373,-3231471.300125122,-1035999.4173049927,-14587569.236755371,-9936030.387878418,-4461895.46585083,8836145.401000977,8909948.348999023,7878657.341003418,-2789138.5555267334,-190540.50743579865,-959906.4588546753,-8367397.308349609,12188794.136047363,6640111.923217773,5922591.209411621,3820083.1413269043,9040076.25579834,6490126.132965088,11492363.929748535,-10806531.90612793,10514209.747314453,6987365.245819092,-151484.80236530304,1068343.7585830688,9620304.107666016,9874022.483825684,25858533.85925293,11248167.037963867,4069329.261779785,347077.6975154877,-476703.6437988281,2574599.504470825,7744309.425354004,8848393.440246582,14400546.073913574,10330339.431762695,18478343.963623047,-775834.2623710632,-4713242.053985596,-11879128.456115723,9823179.244995117,11402873.992919922,11652501.106262207,4950854.301452637,-4265647.411346436,-3286998.2719421387,10507993.698120117,10882615.089416504,11368731.498718262
0.165,18572622.299194336,27148267.74597168,3779158.8306427,-6902059.555053711,7288475.99029541,-5178161.62109375,-6482038.974761963,-7628715.515136719,3825698.8525390625,-10970794.677734375,-2442516.326904297,-1431162.2381210327,-2073375.4634857178,-2675979.6142578125,-2449622.392654419,-12511448.860168457,-8967459.678649902,-3796718.3589935303,8042174.339294434,8299987.79296875,7455816.268920898,-2245313.1675720215,101510.33848524094,-886113.6436462402,-7793127.536773682,14054232.597351074,7890893.936157227,5981571.197509766,2645148.515701294,5034218.311309814,4618601.7990112305,11214090.347290039,-12003692.626953125,9951840.4006958,9386922.836303711,125319.80872154236,1246869.2064285278,5761667.251586914,5828069.21005249,22454153.060913086,10869289.39819336,3744094.3717956543,2571539.4020080566,1804546.2369918823,2477353.811264038,4836261.749267578,4418026.447296143,7394863.128662109,5649950.981140137,15385810.852050781,-2867930.8891296387,-5795740.127563477,-13401151.657104492,6698914.051055908,7108898.162841797,7412692.070007324,-115176.7149567604,-6182700.634002686,-4914623.260498047,7568406.581878662,6692829.132080078,7070582.389831543
0.17,12349317.55065918,18248088.836669922,3330893.9933776855,-10483196.258544922,5907907.009124756,-15315667.152404785,-9389116.287231445,-9186629.295349121,2671262.9795074463,-13199737.548828125,-4037568.0923461914,-3148884.2964172363,-3793293.7145233154,-4541143.894195557,-9231511.116027832,-11868423.461914062,-13745046.615600586,-6034609.317779541,4943636.417388916,5342133.045196533,4527785.301208496,-3960780.8589935303,-3283287.0483398438,-3637884.6168518066,-15817027.09197998,13951115.608215332,6256242.275238037,3188837.5282287598,650296.9264984131,1518886.4469528198,1937194.9434280396,4738769.054412842,-17292352.6763916,2897997.6177215576,6410284.042358398,102648.51152896881,1477504.4918060303,2452097.6543426514,2299372.1961975098,18042877.197265625,10680325.508117676,-362616.4495944977,-1537549.1380691528,-2532266.616821289,1726940.1550292969,2048856.0199737549,1224955.2011489868,3286897.659301758,1619872.2124099731,11234105.110168457,-10197115.898132324,-12362955.093383789,-19724397.659301758,3887311.2201690674,2101301.431655884,2471577.4059295654,-5250137.3291015625,-12147773.742675781,-11101288.795471191,3160793.0660247803,1694999.4564056396,1964747.667312622
0.175,6606626.033782959,11067688.941955566,1714114.1891479492,-16441909.790039062,2651417.7322387695,-21501157.760620117,-13635400.772094727,-13351995.468139648,-566082.8948020935,-16357442.855834961,-7019358.6349487305,-6458699.703216553,-7149106.979370117,-7921738.147735596,-14664726.257324219,-12606981.27746582,-20104703.903198242,-9463766.098022461,2083149.1947174072,2487471.580505371,1557394.9813842773,-7275974.750518799,-7571686.267852783,-7643622.398376465,-24408800.12512207,11949610.710144043,3189568.9964294434,-80482.38605260849,-297716.1407470703,2217638.0157470703,1218910.0980758667,-1849128.007888794,-22131816.864013672,-4123693.9430236816,1581127.0475387573,539148.0326652527,1481136.2028121948,3186437.1299743652,3021441.2212371826,17386211.395263672,11135768.89038086,-4465662.002563477,-7263625.144958496,-8506050.109863281,2309720.277786255,3079634.189605713,3025228.500366211,6220515.251159668,3260403.3946990967,10898311.614990234,-15963597.297668457,-17743394.85168457,-23753402.709960938,5086993.69430542,2258914.2322540283,2561798.8109588623,-4911332.130432129,-15866157.531738281,-14867316.246032715,2352015.495300293,1758840.0840759277,1955362.08152771
0.18,8225657.4630737305,13108882.904052734,1407102.4656295776,-16523294.448852539,2672550.2014160156,-16895925.521850586,-12559976.577758789,-13721128.463745117,-371038.0494594574,-16556005.477905273,-6370739.459991455,-5546841.144561768,-6342321.872711182,-6946441.173553467,-12802323.341369629,-10486242.294311523,-19797567.36755371,-9006808.280944824,3867643.356323242,4152075.2906799316,3161783.456802368,-6454769.134521484,-6215472.69821167,-8231406.211853027,-24459487.915039062,12160250.663757324,3092336.893081665,243756.7561864853,724572.7777481079,5539803.504943848,4840238.571166992,-474479.16865348816,-20902637.481689453,-3943657.159805298,1390069.9615478516,1992347.8364944458,1336887.8364562988,6390233.516693115,6516844.749450684,21519212.72277832,13594968.795776367,-3364832.878112793,-7699430.9425354,-8947780.60913086,3520565.986633301,6073514.938354492,7035917.282104492,11646112.442016602,8453150.749206543,15225905.418395996,-14418546.676635742,-15956253.051757812,-20732061.3861084,8202081.680297852,7364129.543304443,7530941.963195801,-66414.20722007751,-12773888.58795166,-11504525.184631348,5554605.007171631,6764988.422393799,6946562.29019165
0.185,15925505.638122559,21273794.174194336,5245863.914489746,-8850490.57006836,9000494.003295898,-7481852.5314331055,-4510719.299316406,-7060837.268829346,5779151.439666748,-12107807.159423828,-74068.27062368393,1493747.7111816406,665147.602558136,161535.0991487503,-6045413.970947266,-3551402.3303985596,-11797297.477722168,-3321096.420288086,10030227.661132812,10151551.246643066,9297807.693481445,474853.2176017761,1411049.1275787354,-3292322.1588134766,-17835449.21875,17321311.950683594,6967259.407043457,4060328.0067443848,1861449.2416381836,6544421.672821045,10532322.883605957,7423869.1329956055,-14539667.129516602,1681838.1547927856,6361598.014831543,3518487.2150421143,1344617.8436279297,7339140.892028809,7817061.424255371,25571493.14880371,17748214.721679688,2115387.201309204,-3370882.034301758,-4482275.96282959,2744700.6702423096,6238294.60144043,7386592.864990234,11719242.095947266,10152379.989624023,19098533.630371094,-9157477.378845215,-10400207.51953125,-15634053.230285645,8280504.22668457,10534829.139709473,10671394.348144531,2827930.450439453,-7533765.79284668,-6033267.021179199,7720482.349395752,9926510.81085205,10175905.227661133
0.19,23434638.97705078,27126058.57849121,12794576.644897461,91554.77583408356,17522962.57019043,-2702825.0694274902,4798822.87979126,1926935.6727600098,13250555.038452148,-6142376.42288208,6908274.173736572,8792739.868164062,8098815.91796875,7412153.720855713,-880729.1388511658,4803771.018981934,-4165652.7519226074,2788954.734802246,15032032.96661377,15071039.199829102,14422104.835510254,7736132.621765137,8425042.152404785,3327120.780944824,-13564194.679260254,24460874.557495117,10553943.634033203,6897816.181182861,656286.5972518921,3908731.9374084473,13663022.994995117,13011668.20526123,-9583950.04272461,4904914.379119873,10461997.032165527,3324769.4969177246,1552482.4857711792,4782886.981964111,5342358.589172363,25407663.345336914,21942205.42907715,5851733.207702637,-1042841.3152694702,-2190056.085586548,-398898.78034591675,2788054.943084717,3311956.1672210693,6230763.4353637695,6465878.009796143,18741413.116455078,-8230674.743652344,-9273896.217346191,-16460815.4296875,4666204.452514648,7562046.051025391,7784446.239471436,1131534.0995788574,-7906024.45602417,-6454712.867736816,5337003.231048584,6999470.7107543945,7364196.77734375
0.195,29109125.1373291,30302295.684814453,20796394.34814453,6117424.488067627,22958978.6529541,-1300497.5318908691,10419845.581054688,7395161.151885986,17280542.373657227,-1967888.9513015747,9714982.986450195,11141373.634338379,10629339.218139648,9671219.825744629,1829011.32106781,10577903.747558594,-2475889.205932617,4810438.15612793,15477469.444274902,15583246.231079102,14971453.666687012,10107563.972473145,10489827.156066895,6934532.165527344,-13699872.970581055,28294519.424438477,10446009.635925293,6188870.429992676,-2484096.7655181885,1816491.0078048706,13534194.946289062,13701636.31439209,-8671122.550964355,3685137.7487182617,10208971.02355957,1239445.9247589111,1651019.0963745117,2725029.706954956,3114259.0045928955,23497016.90673828,24973384.857177734,5162188.529968262,-2886323.4519958496,-4280142.784118652,-2752533.9126586914,15623.762272298336,399100.78048706055,3157089.948654175,3669842.9584503174,17088706.970214844,-12272699.356079102,-13555393.21899414,-22082077.026367188,1875880.0029754639,3351250.8869171143,3639853.000640869,-201065.68932533264,-12874478.340148926,-11681978.225708008,1544405.8179855347,2765701.7707824707,3214800.1194000244
0.2,36471786.49902344,38339969.635009766,25644802.09350586,12503458.023071289,25538803.100585938,5873648.643493652,13951177.597045898,9847637.176513672,19653013.229370117,1224408.9841842651,10201277.732849121,11049478.530883789,10583439.826965332,9600387.573242188,7435399.532318115,14156534.194946289,-2216085.195541382,4254184.246063232,14429588.317871094,14656544.68536377,13915816.307067871,10041796.684265137,11253751.754760742,8798447.608947754,-10636971.473693848,28167688.369750977,9090239.524841309,4574529.17098999,-4760227.680206299,3633188.9629364014,13749788.284301758,16252794.26574707,-6351956.367492676,4946472.16796875,9942421.913146973,-328026.8609523773,1419664.740562439,4389581.680297852,4683859.825134277,24478610.99243164,25945951.461791992,4800892.353057861,-2529681.68258667,-4025114.059448242,-1388402.2235870361,1113961.4582061768,2647886.276245117,7005998.134613037,6687549.591064453,18351545.333862305,-13304703.712463379,-15396585.464477539,-23141056.060791016,3109369.7547912598,5087016.582489014,5400233.268737793,3070331.573486328,-13493582.725524902,-12619458.198547363,1801226.6159057617,4398826.599121094,4885999.67956543
0.205,44769348.14453125,51300849.91455078,24343984.603881836,20563131.33239746,27227937.698364258,18995578.76586914,17973974.227905273,12556411.743164062,23551326.751708984,4839125.156402588,11808213.233947754,12501134.872436523,11970714.569091797,11177589.416503906,16959945.678710938,17655277.252197266,2233107.805252075,4847712.993621826,15623003.005981445,15857967.376708984,15056386.947631836,11537400.245666504,13893435.47821045,13165796.279907227,-1083318.9487457275,28227607.72705078,10528923.988342285,5140770.91217041,-4857594.966888428,6853448.390960693,15661663.055419922,23324930.19104004,1704353.5709381104,12786786.079406738,14473088.264465332,796825.7665634155,1098225.3551483154,7404598.712921143,7823744.773864746,27222373.962402344,23809101.104736328,9391345.977783203,4701531.887054443,3482848.4058380127,2588105.6785583496,4146111.488342285,6901015.281677246,12176196.098327637,11367305.755615234,20626068.115234375,-6877038.478851318,-10017141.342163086,-15977968.215942383,6234443.664550781,11440747.261047363,11853826.522827148,6869233.60824585,-6470215.797424316,-5853597.164154053,6255779.266357422,10737821.578979492,11283594.131469727
0.21,45756546.02050781,55813407.89794922,15227544.784545898,22316959.381103516,25331586.837768555,24371067.04711914,18975391.387939453,13622551.918029785,25360940.93322754,5621141.9105529785,11805851.936340332,12437948.226928711,11922938.346862793,11194515.228271484,21385520.935058594,19415609.35974121,6027997.970581055,5478091.716766357,16677547.454833984,16826505.661010742,16091136.932373047,11586493.492126465,13538951.873779297,17653125.762939453,4959956.645965576,30345109.939575195,13255759.239196777,6196666.717529297,-4536605.358123779,7120869.6365356445,15692100.524902344,25975349.42626953,8826167.106628418,18910867.69104004,19765821.45690918,3298594.9516296387,1133134.4842910767,7626975.059509277,8180890.083312988,26483320.236206055,19362749.099731445,14814728.736877441,12040188.789367676,11159379.959106445,5324113.845825195,5740651.607513428,7885927.677154541,11894502.639770508,11044571.876525879,19067342.75817871,-87495.1034784317,-3890141.010284424,-9280990.600585938,7771140.575408936,14197133.06427002,14772311.210632324,4862845.897674561,-273295.49193382263,243946.09034061432,9853072.166442871,13671953.201293945,14316719.055175781
0.215,34572589.87426758,42192985.53466797,432446.50959968567,10942662.239074707,16859897.61352539,12007091.522216797,12158967.018127441,8308525.085449219,19067159.65270996,-595106.7209243774,5738018.989562988,6014024.257659912,5651018.6195373535,4740479.946136475,12178753.852844238,15741006.851196289,-273873.06094169617,1823987.364768982,12798569.679260254,13018170.356750488,12198457.717895508,5321985.721588135,5358817.100524902,13999856.948852539,-3521247.148513794,30854980.46875,11860173.225402832,4005298.614501953,-5639969.825744629,5107947.34954834,11843255.996704102,17174760.818481445,4037430.763244629,11860284.805297852,16905454.635620117,3742606.4014434814,1582287.073135376,5673554.89730835,6224146.842956543,22238628.387451172,17016113.28125,12411192.893981934,8182606.6970825195,7204899.311065674,4761233.329772949,6090791.702270508,6072487.831115723,9093946.45690918,7553373.336791992,15067039.489746094,-2957303.285598755,-6638460.159301758,-12795985.221862793,8004953.384399414,10467371.940612793,11067708.015441895,-369801.0742664337,-3762849.807739258,-3270071.9833374023,9631165.504455566,10132890.701293945,10830121.040344238
0.22,19449625.01525879,21309499.740600586,-13822626.113891602,-5670954.704284668,7014357.089996338,-8314491.271972656,1320545.6733703613,-1395538.091659546,7850481.033325195,-10392161.36932373,-2545518.636703491,-2541506.52885437,-2786671.4000701904,-3857581.13861084,-5007931.709289551,8087363.243103027,-14739049.911499023,-5442726.612091064,5613175.868988037,6205025.196075439,4976437.568664551,-3110675.096511841,-4359282.01675415,1082058.310508728,-21260988.235473633,26595809.936523438,5593069.076538086,-775254.7860145569,-7240928.173065186,5221022.129058838,8686115.264892578,5691825.389862061,-11563237.190246582,-5976717.472076416,5104876.518249512,1267588.2577896118,1968263.9837265015,5692926.88369751,6272142.8871154785,21061441.42150879,20916843.41430664,1468966.7224884033,-6976423.263549805,-8456785.202026367,2361805.9158325195,7312138.557434082,6118881.702423096,11472204.208374023,8640836.715698242,15600291.25213623,-14733757.019042969,-17747962.951660156,-23946508.407592773,9144165.0390625,6752174.854278564,7169373.035430908,102169.79682445526,-13738654.136657715,-13473414.421081543,7943769.931793213,6360665.798187256,6990101.337432861
0.225,13774995.803833008,13712655.067443848,-22973428.72619629,-12032892.227172852,5026775.360107422,-17378534.3170166,-3563218.832015991,-6763906.002044678,2907369.613647461,-14292771.339416504,-3792540.7886505127,-3555052.2804260254,-3865691.900253296,-4840854.167938232,-14555456.161499023,3400604.009628296,-23535284.0423584,-9596112.251281738,2502792.8352355957,3528116.9414520264,1883634.8056793213,-4088117.5994873047,-4745551.586151123,-9755166.053771973,-30850507.736206055,20714027.404785156,534203.052520752,-3216671.4668273926,-7264811.5158081055,8110505.104064941,11079071.998596191,5651691.436767578,-23047513.961791992,-18462163.9251709,-5197807.788848877,-1062611.3414764404,1825223.5651016235,8314559.9365234375,9056988.716125488,25863929.748535156,28459590.911865234,-7884748.458862305,-19947145.462036133,-21774396.896362305,511712.9683494568,8644783.020019531,8752254.486083984,18038219.451904297,15089407.920837402,22111045.837402344,-24193002.700805664,-26657245.635986328,-31159238.815307617,10381117.820739746,8616576.194763184,8867030.143737793,7466763.496398926,-19339866.638183594,-19533805.84716797,7568348.8845825195,7985156.059265137,8482042.31262207
0.23,19452798.84338379,23333135.6048584,-29702617.645263672,-5561641.693115234,10769073.486328125,-10552611.351013184,282138.2284164429,-4097437.3817443848,8204493.522644043,-9091585.159301758,2751336.8129730225,3169878.2444000244,2694483.0417633057,1939776.5398025513,-9905265.808105469,5211503.982543945,-19105537.41455078,-7042483.329772949,6053354.740142822,7191830.158233643,5565059.185028076,2601279.4971466064,3121734.857559204,-8196839.332580566,-24537841.796875,18628265.380859375,1357759.952545166,-1077011.3468170166,-6006278.514862061,9139249.801635742,15479821.20513916,15376296.997070312,-19727703.094482422,-14977827.072143555,-4817131.042480469,-520767.2119140625,1259723.6633300781,9254855.155944824,10000091.552734375,29967151.641845703,31222467.42248535,-6797030.448913574,-19284582.138061523,-20954481.12487793,-81431.15043640137,7222261.428833008,9411963.46282959,19191741.943359375,18215688.705444336,26454666.137695312,-23428171.157836914,-25844282.150268555,-28609441.75720215,8821934.700012207,12252593.040466309,12553824.424743652,11737907.409667969,-16374887.466430664,-16749895.095825195,7440325.2601623535,11549599.647521973,11965367.317199707
0.235,25681737.899780273,33609790.80200195,-39782535.552978516,706718.385219574,13683683.395385742,-1338785.5291366577,4972955.703735352,240596.90535068512,14375432.968139648,-2964497.8046417236,6663613.319396973,6322483.539581299,5772416.591644287,5104626.178741455,-725676.4769554138,9000217.43774414,-10254266.738891602,-2806319.236755371,9628836.631774902,10531167.984008789,9260672.569274902,5687576.770782471,6273444.175720215,1548553.5860061646,-12961682.319641113,20435836.791992188,5011116.504669189,1867546.6775894165,-6063877.582550049,5654809.474945068,13683188.438415527,18873441.696166992,-8135989.189147949,-2818087.339401245,3175153.4938812256,1472654.5810699463,806803.0476570129,6122257.709503174,6440331.935882568,26275199.89013672,24918348.31237793,1492612.9579544067,-8713993.072509766,-10011361.122131348,90954.92959022522,3576609.8499298096,5996956.825256348,11568963.050842285,12889232.635498047,22090442.657470703,-16316253.662109375,-18931831.35986328,-21858219.146728516,5150736.331939697,11251255.989074707,11680582.046508789,6392451.286315918,-11048842.430114746,-10851464.27154541,5793696.880340576,10769634.246826172,11190793.991088867
0.24,25368412.017822266,31740159.98840332,-51979759.216308594,-1543564.2004013062,8263046.2646484375,-397930.20486831665,4950294.494628906,492408.8418483734,12895895.004272461,-4009894.371032715,1175687.551498413,-657065.8683776855,-1160249.8292922974,-1887008.4285736084,2089347.1240997314,9979588.508605957,-8733808.517456055,-3106106.0428619385,6736743.927001953,7411426.544189453,6290037.631988525,-1360402.226448059,-1668543.4579849243,7560215.950012207,-9157147.407531738,21986656.188964844,5867137.908935547,1089887.022972107,-8676411.628723145,1418885.4694366455,4835562.229156494,8933588.027954102,-1753231.6446304321,3807202.100753784,8889331.817626953,1631296.8730926514,773685.2169036865,2391267.2996520996,2166416.4066314697,18118724.822998047,15731829.643249512,6795546.531677246,-886546.25415802,-2052115.6787872314,850076.4966011047,2233384.132385254,2725069.284439087,4168931.9610595703,5868870.258331299,14133251.190185547,-11822003.364562988,-14442062.377929688,-18959684.371948242,4036622.5242614746,6940873.622894287,7314970.970153809,-1129171.371459961,-10093263.626098633,-8874609.94720459,4296564.102172852,6646238.803863525,7094062.328338623
0.245,24601081.84814453,25203298.568725586,-57489608.76464844,-4082157.611846924,2651630.163192749,-2140925.168991089,5652173.99597168,654243.5884475708,9073805.809020996,-8549523.35357666,-6794151.782989502,-9743489.265441895,-10223650.932312012,-10988529.205322266,817076.6830444336,10835838.317871094,-12972729.682922363,-6246853.828430176,579896.1520195007,1270450.7112503052,-126047.10459709167,-10498943.328857422,-11613613.12866211,6842627.52532959,-12207451.820373535,22121051.788330078,3968522.548675537,-2569352.149963379,-11845442.771911621,931614.9353981018,-2703894.1383361816,-3239333.152770996,-3382641.315460205,1485416.054725647,8623363.494873047,-379604.2501926422,936312.0198249817,2009114.0270233154,1705519.437789917,14528326.034545898,12957320.213317871,5045264.720916748,-1648582.4584960938,-2950106.382369995,2059322.5955963135,5229400.634765625,3411011.219024658,5182765.960693359,5849587.440490723,12104428.2913208,-13128550.52947998,-15558518.409729004,-21219375.610351562,7373541.355133057,5416221.141815186,5590960.0257873535,-500596.1060523987,-13091716.766357422,-11204062.461853027,5417157.6499938965,4958969.1162109375,5392932.415008545
0.25,30462604.522705078,26999164.581298828,-52767063.14086914,2258015.8710479736,5803264.141082764,1923432.70778656,12746759.414672852,6199444.770812988,12513890.266418457,-7490660.190582275,-7493391.036987305,-10801155.090332031,-11368032.455444336,-12113768.577575684,3196639.060974121,15619621.276855469,-13523900.032043457,-6279200.077056885,-828080.5349349976,-77431.83523416519,-1760674.3574142456,-11569211.959838867,-13492108.345031738,6085831.165313721,-13666831.970214844,23266462.326049805,3532709.3601226807,-4686343.193054199,-13010808.944702148,2589559.0782165527,-3268753.2901763916,-5995349.884033203,-5918567.180633545,-2677838.8023376465,6638192.176818848,-1934165.2393341064,931626.02186203,3268975.7347106934,3377390.146255493,16695356.369018555,16662504.196166992,449083.71567726135,-6445694.446563721,-7863170.623779297,2513912.6777648926,8168309.211730957,4961576.93862915,9826873.779296875,10339073.181152344,15565881.729125977,-17297513.961791992,-19684093.475341797,-25202810.287475586,10444671.630859375,6457480.907440186,6557010.650634766,4884389.877319336,-16710819.244384766,-14781300.54473877,7149802.207946777,5656855.10635376,6055829.5249938965
0.255,36361923.21777344,33483428.955078125,-47944313.049316406,9499278.06854248,12024382.591247559,6214913.368225098,19183317.184448242,11681478.500366211,19387609.481811523,-1779786.229133606,-3682776.45111084,-7319379.3296813965,-7973948.4786987305,-8749960.899353027,6519412.040710449,19542713.165283203,-9974990.844726562,-3620009.422302246,3087064.027786255,3662220.7164764404,2074510.5743408203,-8030977.249145508,-11427259.44519043,7307920.455932617,-13517363.548278809,24846149.444580078,4990568.6378479,-3886787.6529693604,-12447080.612182617,1541013.3600234985,-1708824.3961334229,-4070687.2940063477,-7059851.169586182,-5227975.845336914,5667690.753936768,-1900791.883468628,756263.0772590637,1827400.9227752686,2259669.303894043,16596389.770507812,17617740.631103516,-4013293.743133545,-10574803.352355957,-11972536.087036133,884501.5168190002,5733540.058135986,2072127.342224121,8411351.203918457,9749738.693237305,14677590.370178223,-22675155.639648438,-25218984.603881836,-29533063.888549805,7837707.51953125,3165424.346923828,3359686.1362457275,2052564.8593902588,-21346271.514892578,-19467821.12121582,4726404.666900635,2244385.004043579,2644379.3773651123
0.26,29666122.436523438,29457767.486572266,-55686550.14038086,2607419.490814209,7803370.952606201,-1011489.3913269043,13340308.18939209,6600796.222686768,16016252.517700195,-2476503.1337738037,-6415003.299713135,-10722105.026245117,-11317158.699035645,-12181111.335754395,856478.5122871399,13721576.690673828,-11430147.171020508,-5082042.694091797,4531309.127807617,4807233.810424805,3494378.3283233643,-11314921.379089355,-16184680.938720703,4026244.640350342,-19056709.28955078,22428705.2154541,4177454.4715881348,-3392258.644104004,-12525088.3102417,-2585061.0733032227,-5350369.930267334,-9053274.154663086,-12268445.014953613,-10311876.29699707,3041022.539138794,-2246957.302093506,699005.4845809937,-2230984.2109680176,-1912931.0846328735,9708300.590515137,10209491.729736328,-10564149.856567383,-15152409.553527832,-16512365.341186523,-2068166.971206665,-844534.5759391785,-4224373.817443848,1415675.8785247803,1999462.0084762573,5112167.835235596,-30537570.95336914,-33043243.408203125,-35211799.62158203,1032146.9306945801,-6697199.821472168,-6510574.3408203125,-12095015.525817871,-29063037.872314453,-26799562.454223633,-2271200.41847229,-7463268.756866455,-7027685.642242432
0.265,12320658.683776855,12764947.891235352,-73454299.92675781,-15974954.605102539,-7713702.67868042,-16608951.568603516,-1683523.416519165,-7025707.244873047,563940.8826828003,-13762067.794799805,-17460474.014282227,-22014543.533325195,-22434087.7532959,-23325487.13684082,-12467778.205871582,465540.4984951019,-20040357.58972168,-12440368.65234375,-618545.7110404968,-409823.7752914429,-1683074.2359161377,-22510250.091552734,-27401060.104370117,-5363737.106323242,-29346580.505371094,15829567.909240723,61963.30487728119,-5559500.694274902,-14022583.0078125,-5292399.4064331055,-12713545.799255371,-20206836.700439453,-21756294.25048828,-18328763.961791992,-1914632.797241211,-4252508.640289307,888270.0204849243,-4584945.201873779,-4502619.743347168,1971062.5410079956,475406.79574012756,-18696887.969970703,-20601154.327392578,-21958044.052124023,-3602211.7137908936,-5072911.739349365,-7717704.772949219,-2270223.85597229,-4831134.31930542,-5074025.1541137695,-38895404.81567383,-40873058.3190918,-40509853.36303711,-3222506.523132324,-15712289.810180664,-15783118.24798584,-25141834.259033203,-37077465.05737305,-34118877.41088867,-8060631.75201416,-16358459.47265625,-15932205.200195312
0.27,2085440.1588439941,335887.73012161255,-84641761.77978516,-26016687.393188477,-19165887.8326416,-22841039.657592773,-8566124.91607666,-13736042.976379395,-10909194.946289062,-24544464.111328125,-25391014.099121094,-29164762.496948242,-29472757.33947754,-30317527.770996094,-18153823.852539062,-5806133.74710083,-25210935.592651367,-17886674.880981445,-6080918.788909912,-5652526.85546875,-7061541.557312012,-29695930.48095703,-33299945.831298828,-10410628.318786621,-32691204.071044922,12275835.037231445,-2201382.637023926,-8013878.82232666,-14900229.454040527,-4173381.805419922,-15863506.317138672,-25535470.962524414,-25390592.575073242,-20725475.311279297,-3493693.8285827637,-5691281.795501709,1134888.4105682373,-3331301.212310791,-3202809.0953826904,949316.5612220764,-1686105.489730835,-20743881.225585938,-21518886.56616211,-22861921.310424805,-2087322.9503631592,-3227698.32611084,-5839934.825897217,185769.2152261734,-4602117.06161499,-6298383.2359313965,-40786083.22143555,-42005809.78393555,-40509372.71118164,-1249727.8451919556,-16135370.254516602,-16449409.484863281,-25304586.41052246,-38492961.88354492,-35021499.63378906,-7278709.411621094,-16830308.91418457,-16519630.432128906
0.275,9532503.128051758,5383836.74621582,-79635437.01171875,-16673492.431640625,-14995482.444763184,-11227780.34210205,1409632.0867538452,-5105565.547943115,-5833235.740661621,-22876712.799072266,-21517005.920410156,-24237302.780151367,-24601879.119873047,-25466924.6673584,-7434704.303741455,2627497.911453247,-18969413.75732422,-14826605.796813965,-4175137.0429992676,-3571319.341659546,-4890030.384063721,-24944963.455200195,-27788000.106811523,-2231089.1151428223,-23436491.012573242,17099136.352539062,1331869.2445755005,-7207862.377166748,-13346131.324768066,-1928830.0275802612,-11928506.851196289,-19682361.602783203,-16646493.911743164,-12049513.816833496,2404345.750808716,-3933137.6552581787,1220286.8461608887,-1290206.1939239502,-964534.4018936157,5594640.254974365,4985256.671905518,-11662641.525268555,-14186099.0524292,-15572520.25604248,849928.2598495483,1900862.9322052002,-2413325.309753418,2300096.9886779785,-639257.550239563,578412.0559692383,-32828502.655029297,-33601947.78442383,-33512336.73095703,3931887.149810791,-9409021.377563477,-9621192.932128906,-15378825.187683105,-30714378.356933594,-27214155.197143555,-1126719.59400177,-10089439.392089844,-9940684.31854248
0.28,22902326.583862305,18583473.205566406,-68394828.79638672,-1981398.8208770752,-2989231.3480377197,4377823.352813721,15573813.438415527,7485250.473022461,6740396.976470947,-12980786.323547363,-12143492.698669434,-14665593.147277832,-15177209.854125977,-16170703.887939453,7720674.514770508,14713568.687438965,-8935048.10333252,-8191349.029541016,2715853.452682495,3248975.2769470215,2277415.2755737305,-15556606.29272461,-19062437.057495117,11628946.304321289,-12552269.93560791,25273441.314697266,6892633.438110352,-3986026.7639160156,-10674125.671386719,-1605655.7893753052,-6434025.764465332,-11110230.445861816,-4648618.221282959,-849353.4326553345,10085109.71069336,-423045.0391769409,1156280.517578125,-1136432.0516586304,-845583.6772918701,9295066.833496094,12558779.7164917,859396.9941139221,-5302516.460418701,-6915900.230407715,2163884.6397399902,5359384.059906006,-1300909.7576141357,45868.62400174141,1048111.5579605103,7418483.257293701,-22197835.92224121,-23086389.541625977,-25257493.97277832,7287510.871887207,-3032271.8620300293,-2871427.7744293213,-6409329.891204834,-20167413.71154785,-17113073.348999023,4483287.334442139,-3477630.376815796,-3401304.7218322754
0.285,24009290.69519043,21184724.807739258,-66781257.62939453,-1433398.3659744263,695163.6075973511,5443277.359008789,16459087.371826172,7618347.16796875,8770118.713378906,-9360629.081726074,-9626649.856567383,-12761628.150939941,-13371147.155761719,-14431427.955627441,9252968.788146973,14448302.268981934,-8254950.523376465,-8058633.804321289,5308780.670166016,5754557.132720947,4942564.010620117,-13705381.393432617,-18117181.7779541,15491687.774658203,-14151390.075683594,27461811.065673828,7908279.895782471,-2587944.746017456,-9820651.054382324,-2499839.0674591064,-5197833.061218262,-9918592.45300293,-3623732.328414917,-98903.23877334595,10284113.883972168,663608.9086532593,1079910.9935760498,-1888535.737991333,-1871870.517730713,9332145.690917969,14191608.428955078,3834868.1926727295,-5488538.74206543,-7405667.304992676,898915.4100418091,5294708.728790283,-1857527.732849121,-2053619.8616027832,63702.75467634201,9722080.23071289,-19731781.005859375,-21068899.154663086,-23618793.487548828,7097259.998321533,-1403584.2418670654,-985977.8881072998,-3809259.4146728516,-16185440.063476562,-13791083.335876465,5294334.411621094,-1616737.6041412354,-1476050.9729385376
0.29,13128428.45916748,11094614.98260498,-75477462.76855469,-13406757.354736328,-6881927.013397217,-7504822.254180908,4580918.312072754,-4234294.891357422,-1474677.324295044,-16087156.295776367,-15934302.33001709,-19669332.50427246,-20268028.259277344,-21217298.50769043,-3494626.522064209,1960534.2149734497,-17252649.307250977,-15395795.822143555,477477.2524833679,1085903.286933899,8415.881544351578,-20539211.27319336,-24964019.775390625,6229232.311248779,-26769592.28515625,22218748.092651367,4096164.7033691406,-4518880.844116211,-11571449.279785156,-2726127.6245117188,-7943642.139434814,-15876388.549804688,-13934485.43548584,-9681359.29107666,2898587.465286255,-1905739.7842407227,1047182.0831298828,-1845569.4913864136,-2011265.9931182861,7982752.323150635,10555895.805358887,-4562922.477722168,-14805074.691772461,-16823743.82019043,-1219855.9045791626,3059861.183166504,-2267301.321029663,40259.82692837715,-800763.0705833435,9003264.427185059,-26887458.80126953,-28577671.05102539,-29700332.641601562,4842792.987823486,-3562704.563140869,-3202355.146408081,-5554506.301879883,-21207706.451416016,-19207160.94970703,1855246.1862564087,-3809715.0325775146,-3576369.7624206543
0.295,7315327.167510986,4663241.863250732,-80602981.56738281,-19052106.857299805,-13224955.558776855,-17517608.642578125,-4118673.324584961,-12530248.641967773,-8266839.981079102,-21456998.825073242,-21744205.474853516,-25961992.263793945,-26471565.24658203,-27285284.0423584,-14326136.589050293,-7843233.108520508,-23690958.02307129,-20859012.603759766,-4850247.383117676,-3992994.3084716797,-5414608.955383301,-26740724.563598633,-31023698.806762695,-3386611.4616394043,-36250270.84350586,16683422.088623047,1380264.163017273,-6497657.775878906,-13855751.991271973,-3002659.320831299,-11387125.968933105,-21877847.67150879,-22417928.69567871,-16849348.068237305,-2736023.6644744873,-4630648.612976074,1043286.0851287842,-2038584.4707489014,-2162650.3467559814,6345973.968505859,6044074.535369873,-13313869.47631836,-21891000.747680664,-23761119.842529297,-2396598.5774993896,476253.9565563202,-3394424.6768951416,2233081.102371216,-1854704.3800354004,6803555.488586426,-34526683.80737305,-36173595.4284668,-36791339.87426758,2309565.544128418,-7401085.376739502,-7217580.795288086,-9531367.301940918,-29098585.12878418,-26866542.81616211,-2389720.4399108887,-7839113.712310791,-7606497.287750244
0.3,15267157.554626465,12150753.97491455,-74148979.18701172,-9668045.997619629,-9341992.378234863,-14530813.217163086,-449209.5410823822,-8326229.095458984,-1939590.8117294312,-15709776.878356934,-20633249.282836914,-25799663.543701172,-26201059.341430664,-27064697.265625,-12400251.388549805,-5833155.155181885,-20169795.989990234,-18161907.196044922,-4140209.197998047,-3323372.8408813477,-4745390.892028809,-26539560.317993164,-31739133.834838867,-2714708.5666656494,-35115955.3527832,16066194.534301758,3374877.452850342,-5548210.144042969,-14882794.380187988,-5266340.732574463,-14616212.844848633,-24471242.904663086,-20897697.44873047,-14072387.6953125,-698685.2288246155,-4113364.6965026855,1085539.1025543213,-4390946.388244629,-4451588.153839111,2639489.6507263184,2655841.827392578,-14053323.745727539,-19209861.755371094,-20938283.920288086,-2676480.293273926,-1288776.9937515259,-6559662.818908691,-1029025.1970291138,-5518554.210662842,2255254.5070648193,-35298507.69042969,-36512748.71826172,-38694019.31762695,541176.9151687622,-11746945.38116455,-11610762.596130371,-15610471.725463867,-32957912.44506836,-30146539.68811035,-4513166.904449463,-12238160.133361816,-12077411.651611328
0.305,25788248.06213379,23185104.370117188,-64715385.43701172,2144450.902938843,-1812227.487564087,-5962331.771850586,8015532.493591309,371203.54175567627,8144817.352294922,-5466589.92767334,-16951797.485351562,-23317159.65270996,-23655452.728271484,-24696020.126342773,-3946327.6863098145,1332659.2445373535,-12857362.747192383,-12311401.3671875,-185712.26298809052,292740.94104766846,-864563.4055137634,-24051963.806152344,-30730470.657348633,4185163.974761963,-30240623.474121094,18031019.21081543,7094710.826873779,-3385249.8531341553,-15232575.416564941,-8882042.88482666,-18270778.65600586,-25852928.161621094,-15232225.41809082,-7808984.756469727,4404089.450836182,-1858355.4029464722,1179067.4924850464,-8021250.7247924805,-8142114.639282227,-2904919.385910034,-132180.5864572525,-10602663.99383545,-12490801.811218262,-14239272.117614746,-2994356.632232666,-1466109.9910736084,-9954816.818237305,-7329397.678375244,-10926032.066345215,-3941743.6122894287,-32012069.702148438,-32747810.36376953,-36361846.923828125,257245.9876537323,-14864298.820495605,-14677522.659301758,-21703485.4888916,-32060264.587402344,-29056903.839111328,-3941185.712814331,-15245498.657226562,-15110149.383544922
0.31,25426740.646362305,22517929.077148438,-64221794.12841797,1644976.3774871826,-1762056.2314987183,-2909501.314163208,10320290.565490723,2135624.885559082,8658632.278442383,-3986879.348754883,-17523536.682128906,-24132499.69482422,-24486398.696899414,-25589157.104492188,180332.0199251175,3656174.898147583,-10819139.48059082,-11427248.001098633,-30797.475948929787,213947.69847393036,-799041.0923957825,-24850069.046020508,-32004333.49609375,7610443.115234375,-30209285.736083984,18520479.202270508,8081485.748291016,-3568407.2971343994,-16089458.465576172,-10929510.116577148,-20950466.15600586,-27684253.692626953,-13603411.674499512,-6697982.311248779,5570115.089416504,-2394076.108932495,1239470.2434539795,-9947827.339172363,-10136348.724365234,-6195756.435394287,-1934517.0259475708,-9779525.756835938,-11085090.637207031,-12876467.70477295,-3437193.8705444336,-38391.321897506714,-10482391.357421875,-9650823.593139648,-14077394.485473633,-7873686.790466309,-31002149.58190918,-31671409.606933594,-34580970.764160156,1556543.8270568848,-14798740.38696289,-14653241.157531738,-23993057.250976562,-29994899.74975586,-27439096.450805664,-2075248.2414245605,-15139250.755310059,-14945409.774780273
0.315,17335821.1517334,11384020.805358887,-71304977.41699219,-8160173.416137695,-8691547.393798828,-5243617.534637451,6768835.067749023,-2353271.722793579,987415.7309532166,-12417435.646057129,-21347003.936767578,-26762994.76623535,-27160610.19897461,-28144752.502441406,-601659.6555709839,1778137.5646591187,-13736542.701721191,-15222602.844238281,-4482618.808746338,-4120928.2875061035,-5218328.475952148,-27435623.168945312,-33791931.15234375,6408105.850219727,-33493824.005126953,18086767.196655273,6437591.552734375,-6122037.887573242,-16955715.17944336,-10109243.392944336,-20197555.541992188,-28168275.833129883,-14248493.194580078,-8880624.771118164,3503512.382507324,-7456019.878387451,1189541.5782928467,-9072073.936462402,-9217386.245727539,-4389691.352844238,-1038053.3933639526,-9982869.148254395,-14449803.352355957,-16210546.493530273,-3291494.846343994,1951076.0307312012,-8219637.870788574,-6602854.7286987305,-13271604.537963867,-6833583.831787109,-31921680.450439453,-33077312.469482422,-34622356.41479492,3526917.9344177246,-12115706.443786621,-12120481.491088867,-22032505.03540039,-28538692.474365234,-26401308.059692383,-504712.0451927185,-12561296.463012695,-12308540.344238281
0.32,14286663.055419922,3651913.4044647217,-74927902.22167969,-13207144.737243652,-12552064.895629883,-5869223.594665527,5249608.516693115,-4082957.7445983887,-3179123.878479004,-19246786.11755371,-22298234.939575195,-26290880.20324707,-26665811.53869629,-27524675.369262695,76225.08704662323,3034930.944442749,-14925129.890441895,-16681856.155395508,-7630352.973937988,-7034167.766571045,-8199048.99597168,-26917797.088623047,-32663928.985595703,6687402.725219727,-33586116.790771484,19624210.357666016,5659480.094909668,-7846472.74017334,-16580739.974975586,-8350272.178649902,-16689506.530761719,-26200349.807739258,-10734430.313110352,-7113381.862640381,3972530.6034088135,-14154663.0859375,1083878.8747787476,-7447023.391723633,-7532219.886779785,-81470.81732749939,2529819.4885253906,-5575867.652893066,-14744324.684143066,-16565916.061401367,-2500256.061553955,3307093.381881714,-6364085.1974487305,-3480797.529220581,-11154365.539550781,-2895893.8121795654,-29586521.14868164,-31429584.503173828,-33737483.978271484,5017909.526824951,-9870296.478271484,-9956934.928894043,-19533126.831054688,-26437944.412231445,-23991727.828979492,349484.384059906,-10375036.239624023,-10132041.931152344
0.325,19333473.205566406,5373154.163360596,-70697563.17138672,-8667589.18762207,-9046183.586120605,-3329959.6309661865,8444428.443908691,-68999.94611740112,277358.35313796997,-17162532.806396484,-19086048.126220703,-22861856.46057129,-23139072.41821289,-23984062.19482422,3500737.190246582,8679671.287536621,-12255907.05871582,-13060050.964355469,-5919167.995452881,-5298660.755157471,-6355411.529541016,-23494823.455810547,-30033906.936645508,10757951.736450195,-30133069.99206543,22953651.428222656,7266215.801239014,-7387898.4451293945,-15319656.372070312,-8083910.942077637,-14388271.33178711,-24721717.834472656,-3773612.9760742188,-1372314.691543579,8057181.358337402,-19023271.560668945,1000746.488571167,-7339807.510375977,-7488689.422607422,1879278.1829833984,5703053.951263428,1868708.3721160889,-9988609.313964844,-12055911.06414795,-2147159.5764160156,3737896.9192504883,-6827996.730804443,-3912837.028503418,-10892910.00366211,-264143.4371471405,-23650527.954101562,-25954130.172729492,-30983486.17553711,5627522.4685668945,-9817602.157592773,-9833632.469177246,-18930038.452148438,-23337860.107421875,-20178256.98852539,847612.6790046692,-10213234.901428223,-10013032.913208008
0.33,24070869.44580078,9219467.163085938,-65232658.38623047,-2823413.610458374,-4497575.759887695,-2138154.0298461914,11656798.362731934,3672855.6156158447,3977563.3811950684,-11863416.67175293,-16705541.610717773,-21292972.564697266,-21506441.116333008,-22358814.239501953,5205718.517303467,12522487.64038086,-10105985.641479492,-9461672.78289795,-2848759.174346924,-2355533.1230163574,-3292252.3021698,-22001688.00354004,-30275716.78161621,14749830.24597168,-28391523.361206055,25148876.190185547,9036322.593688965,-7054996.490478516,-14867791.175842285,-9257266.0446167,-15578348.159790039,-27018659.591674805,-182172.79016971588,1437218.5468673706,10727175.71258545,-21823581.69555664,880615.4727935791,-8460827.827453613,-8762881.2789917,329842.1502113342,5512565.135955811,4822911.262512207,-6857082.366943359,-9101325.988769531,-3142656.087875366,3794092.6551818848,-7983494.281768799,-5553642.272949219,-12582488.059997559,-446737.5576496124,-19967140.197753906,-22503255.84411621,-29177108.764648438,5740269.660949707,-10284640.312194824,-10211067.199707031,-18437198.638916016,-21199094.772338867,-17906503.677368164,1146607.9950332642,-10549485.206604004,-10356921.195983887
0.335,24111083.984375,9200131.4163208,-64289215.087890625,-2010146.3794708252,-4476840.496063232,-3026811.122894287,11876801.490783691,2757615.327835083,2340198.278427124,-11466702.461242676,-17862051.010131836,-22866071.701049805,-23127143.85986328,-23920837.40234375,4249318.1228637695,11206510.543823242,-11441172.59979248,-10642887.115478516,-3119445.323944092,-2607777.8339385986,-3621211.7671966553,-23644056.32019043,-33216304.779052734,16227209.091186523,-29988960.26611328,25000207.901000977,8377686.500549316,-8901439.666748047,-15768417.358398438,-9870707.511901855,-17706592.559814453,-30978918.075561523,-1993260.2643966675,-1164229.154586792,8967008.590698242,-24293016.43371582,650096.5356826782,-8809132.57598877,-9205142.974853516,-1459749.8178482056,2911494.9703216553,1364359.736442566,-9690246.58203125,-11781853.675842285,-4878766.059875488,4187784.6717834473,-7328035.354614258,-4987076.759338379,-14095080.375671387,-1437292.0989990234,-21617254.25720215,-24463922.50061035,-29934665.67993164,6034761.428833008,-8751729.011535645,-8693085.670471191,-15775898.933410645,-20858543.395996094,-18340478.897094727,1407611.1316680908,-9026021.957397461,-8804788.589477539
0.34,25192470.55053711,9398996.353149414,-64581733.70361328,-1945713.996887207,-5441182.613372803,-1384338.7365341187,12131555.557250977,808856.5468788147,-324024.6772766113,-14429117.202758789,-18498102.18811035,-22740238.189697266,-23093757.62939453,-23851530.075073242,5102325.916290283,9172343.254089355,-13484972.953796387,-14117800.71258545,-5791264.533996582,-5063822.269439697,-6293967.247009277,-23483333.587646484,-33145938.873291016,16878353.118896484,-30966823.57788086,24418327.33154297,5693317.890167236,-11536742.210388184,-16643997.192382812,-8863341.331481934,-16633653.64074707,-30699504.852294922,-4190180.778503418,-3901054.859161377,6132104.873657227,-26802326.202392578,467690.4082298279,-7549669.7425842285,-7904301.643371582,-457235.9621524811,2115848.7796783447,-2282573.699951172,-13955775.260925293,-15731752.395629883,-5862995.147705078,5181526.660919189,-5036538.600921631,-2946040.8687591553,-14008316.993713379,-823913.4550094604,-24420507.431030273,-27697841.64428711,-30880275.72631836,6921586.990356445,-5590716.83883667,-5579709.529876709,-12202485.084533691,-20495279.31213379,-18896036.14807129,2187200.0694274902,-5943524.360656738,-5708678.245544434
0.345,31338888.16833496,14098885.536193848,-60736339.5690918,2882040.26222229,-1661590.337753296,3545436.382293701,15311522.483825684,2758513.927459717,2006803.7509918213,-13459130.28717041,-14170660.018920898,-17099712.371826172,-17480144.500732422,-18329677.58178711,9101508.140563965,11289229.393005371,-12685609.817504883,-14330345.153808594,-6057009.220123291,-5171611.785888672,-6527388.095855713,-17737842.559814453,-26640857.696533203,17033721.923828125,-29361001.96838379,25489273.071289062,3744094.8486328125,-12308090.209960938,-16126781.463623047,-7461453.914642334,-11946484.565734863,-24430980.682373047,-3718502.2830963135,-3009153.366088867,6157499.313354492,-28283908.84399414,593456.0298919678,-6091799.259185791,-6311219.215393066,2516121.3874816895,5645570.755004883,-2093638.4201049805,-14257972.717285156,-15930685.997009277,-5799438.4765625,5980358.123779297,-3818891.763687134,-2666108.6082458496,-12971036.911010742,1508704.7815322876,-24145261.764526367,-27653514.862060547,-30336120.60546875,7739689.350128174,-4072276.5922546387,-4038566.5893554688,-11025685.31036377,-19425558.09020996,-18047317.504882812,3241674.4232177734,-4424204.8263549805,-4222736.835479736
0.35,36341991.42456055,18143196.10595703,-54586250.30517578,8648973.46496582,4670239.448547363,5202579.021453857,18441589.35546875,6571452.617645264,7085920.333862305,-7647570.1332092285,-7368335.247039795,-9442568.7789917,-9781704.902648926,-10773561.477661133,10547815.322875977,15175111.770629883,-10376420.974731445,-10963772.773742676,-2330865.3831481934,-1498728.7521362305,-2788130.044937134,-10048171.997070312,-18282945.63293457,13597824.096679688,-29204027.17590332,27857324.600219727,4219770.908355713,-11148410.79711914,-14517857.551574707,-7598015.785217285,-7662630.558013916,-18199970.245361328,-4312448.024749756,-2493179.5597076416,7104401.588439941,-28937816.619873047,968633.1152915955,-6325058.460235596,-6421934.127807617,3901316.6427612305,10627120.018005371,-2465858.221054077,-13574739.456176758,-15399879.455566406,-6404529.094696045,4810368.061065674,-5681441.783905029,-5386736.869812012,-13088462.829589844,3149920.94039917,-23683494.567871094,-27095424.65209961,-31540742.874145508,6644790.6494140625,-6902671.813964844,-6872931.480407715,-13860035.89630127,-20772602.081298828,-18973680.49621582,2471409.797668457,-7215309.619903564,-7085606.098175049
0.355,32672077.178955078,14096021.65222168,-52368774.4140625,7390247.344970703,6156795.024871826,-1152865.4098510742,16639013.290405273,6076407.432556152,7803733.348846436,-3998939.7525787354,-4861028.19442749,-6865782.260894775,-7175767.89855957,-8205872.535705566,4606930.732727051,14601045.608520508,-10821671.485900879,-9186806.678771973,1444934.606552124,2163999.080657959,1004872.0836639404,-7543930.0537109375,-15949069.97680664,5780198.097229004,-34479862.213134766,29333742.141723633,5792769.908905029,-10489759.44519043,-13218698.501586914,-9684664.726257324,-7926950.931549072,-19481302.26135254,-9920284.271240234,-7621537.685394287,4140578.269958496,-30587415.69519043,1181322.693824768,-8477612.495422363,-8592827.796936035,1079215.2881622314,11218584.060668945,-8636076.927185059,-18618677.139282227,-20558879.852294922,-9265125.274658203,728363.5139465332,-9713999.74822998,-9482749.938964844,-16187025.07019043,1059050.0831604004,-28574140.548706055,-31881307.60192871,-38277587.890625,2514340.877532959,-13480923.652648926,-13649994.850158691,-19898290.634155273,-27525030.1361084,-25240470.88623047,-2003192.42477417,-13862925.52947998,-13808861.73248291
0.36,22842929.84008789,3586807.0125579834,-55292732.23876953,-1091291.7852401733,865075.8266448975,-11246809.005737305,10425531.387329102,89444.79376077652,2523440.5994415283,-7196007.72857666,-9112751.960754395,-11535935.401916504,-11861646.65222168,-12815035.820007324,-5428960.800170898,8727849.006652832,-15179534.912109375,-11993952.751159668,901163.8760566711,1625577.3305892944,490350.96168518066,-12259344.100952148,-21726785.65979004,-1917845.8452224731,-42832469.94018555,28463672.637939453,6032045.841217041,-11903592.109680176,-13260521.88873291,-12528677.940368652,-12835634.231567383,-28710105.895996094,-18291938.78173828,-16550945.281982422,-2655516.8628692627,-33697814.94140625,987746.7155456543,-11257799.14855957,-11575196.266174316,-5221354.961395264,5211690.425872803,-17999019.622802734,-28538305.282592773,-30425806.045532227,-13155927.658081055,-4557189.464569092,-13482651.710510254,-13039407.730102539,-21911544.799804688,-5435120.582580566,-37948646.545410156,-41348945.61767578,-48242858.88671875,-2965928.316116333,-20782667.16003418,-21278814.3157959,-27501470.5657959,-37638851.165771484,-34899013.51928711,-8705020.904541016,-21325822.830200195,-21295951.84326172
0.365,15885566.711425781,-5098758.697509766,-57886947.63183594,-8641654.968261719,-4944038.391113281,-17670354.84313965,5544543.266296387,-5570944.786071777,-2867555.3798675537,-13096877.098083496,-15354207.038879395,-18295907.974243164,-18643894.19555664,-19520902.633666992,-12370407.104492188,3890923.9768981934,-19748006.82067871,-15809252.738952637,-3190830.4691314697,-2398774.6238708496,-3621990.203857422,-18977176.666259766,-29740497.589111328,-5413128.37600708,-48268070.220947266,26273370.74279785,4810169.696807861,-14258097.648620605,-14514492.988586426,-14991832.733154297,-18369003.295898438,-39001182.556152344,-24342782.974243164,-22669849.395751953,-7487161.636352539,-36032596.588134766,640509.9034309387,-13620429.992675781,-14163150.787353516,-11389221.19140625,-2746632.5759887695,-23614444.732666016,-34767120.361328125,-36640872.955322266,-14835537.910461426,-7991908.073425293,-15940483.093261719,-15556586.265563965,-27392534.255981445,-12844339.370727539,-44831394.19555664,-48184574.127197266,-54897769.927978516,-6558717.250823975,-26245431.900024414,-26936624.52697754,-34563537.59765625,-45780105.59082031,-42208866.119384766,-13707390.785217285,-26873706.817626953,-26770820.61767578
0.37,16004922.866821289,-7339877.128601074,-55189002.990722656,-8891118.049621582,-4710863.5902404785,-18537567.138671875,6189064.025878906,-5265034.6755981445,-2535432.3387145996,-14318614.00604248,-17114454.26940918,-20354112.62512207,-20704725.26550293,-21568639.755249023,-13424891.471862793,5801621.437072754,-20038530.349731445,-15219859.12322998,-5718987.464904785,-4937833.786010742,-6223450.660705566,-21047885.89477539,-32427894.592285156,-5349571.704864502,-48058902.740478516,25465614.318847656,4636928.558349609,-15267953.872680664,-15743503.57055664,-16760000.228881836,-19813823.699951172,-43233478.54614258,-26093172.073364258,-22878843.307495117,-6370721.817016602,-35678749.084472656,510269.2246437073,-15406991.004943848,-15949982.643127441,-13560750.961303711,-5573901.176452637,-23202686.309814453,-32574268.341064453,-34652103.424072266,-13077084.5413208,-8677050.590515137,-17848337.173461914,-17132616.04309082,-29502426.147460938,-15647448.539733887,-44932895.66040039,-47816471.099853516,-55320583.34350586,-7222822.666168213,-29027608.87145996,-29684604.64477539,-38031158.447265625,-48895866.39404297,-44182483.6730957,-15099211.692810059,-29602884.29260254,-29364789.962768555
0.375,20372987.747192383,-4404616.832733154,-48333339.69116211,-3182899.4750976562,1303157.925605774,-16047672.271728516,11002780.91430664,252654.61206436157,3154660.46333313,-9133258.819580078,-12844728.469848633,-15992832.18383789,-16327825.546264648,-17221107.482910156,-10675042.152404785,12805726.051330566,-15245069.50378418,-10071945.190429688,-3225219.249725342,-2523024.320602417,-3758114.5763397217,-16840501.78527832,-27582994.46105957,-3511511.80267334,-44121772.76611328,27373062.133789062,7093227.386474609,-13943946.838378906,-15531860.3515625,-17565961.837768555,-15829333.305358887,-39651947.021484375,-24214540.481567383,-19498527.52685547,-2167412.281036377,-34046577.45361328,578807.9500198364,-16353260.040283203,-16664466.857910156,-10777387.619018555,-1387547.254562378,-19980554.580688477,-26964328.76586914,-29346351.623535156,-10570820.808410645,-8648012.161254883,-19433813.095092773,-17360427.856445312,-27851499.557495117,-11696064.949035645,-40851963.04321289,-43362133.02612305,-52262859.34448242,-7080316.066741943,-28933549.880981445,-29499691.009521484,-35642654.41894531,-47608501.43432617,-42288635.25390625,-14603129.386901855,-29419130.325317383,-29105979.919433594
0.38,24992872.23815918,1060537.576675415,-42850296.02050781,3061408.042907715,7235548.496246338,-10900222.778320312,15545711.517333984,5560611.248016357,9187479.019165039,-2605055.093765259,-6973230.838775635,-9883117.67578125,-10177527.42767334,-11144471.168518066,-6260207.176208496,18443000.79345703,-8886992.454528809,-5575657.844543457,1997326.135635376,2641376.256942749,1502988.338470459,-10849857.330322266,-19880290.985107422,473794.96693611145,-39498611.45019531,29968122.482299805,10152460.098266602,-11413357.734680176,-13880269.050598145,-17034435.272216797,-10060747.146606445,-32071952.81982422,-19292715.072631836,-15635128.021240234,-357859.37309265137,-34090873.71826172,568842.5898551941,-15916785.24017334,-16067361.831665039,-6330103.874206543,4282947.540283203,-16586671.829223633,-24907695.770263672,-27481300.354003906,-10655644.416809082,-9677379.608154297,-19493024.826049805,-15955889.701843262,-25290178.298950195,-5362807.750701904,-37222312.927246094,-40226646.423339844,-48882476.806640625,-8080640.79284668,-26135177.612304688,-26701932.907104492,-29302291.870117188,-43670722.96142578,-38819671.630859375,-14310897.827148438,-26558017.73071289,-26304317.474365234
0.385,27411056.518554688,6098755.836486816,-43309970.85571289,5749006.271362305,7745647.90725708,-3937136.8885040283,16811248.779296875,6663396.835327148,11304270.74432373,-285906.3446521759,-5411646.366119385,-8491418.838500977,-8731175.422668457,-9835813.522338867,-1591950.535774231,19055540.084838867,-5542905.807495117,-5674746.036529541,4551863.670349121,5143041.610717773,4039143.5623168945,-9372902.870178223,-16586982.727050781,5580589.294433594,-36248687.744140625,30118774.4140625,10624402.99987793,-9695912.36114502,-12583197.593688965,-15795600.891113281,-8226353.645324707,-26982038.497924805,-13265533.447265625,-12562160.49194336,-1980266.4518356323,-36243282.318115234,446133.553981781,-14626001.358032227,-14897093.772888184,-5212291.240692139,4420397.2816467285,-13108206.748962402,-26326181.411743164,-28927797.317504883,-13099581.718444824,-11042131.423950195,-17764987.94555664,-13976127.624511719,-25093057.63244629,-3703831.911087036,-35588607.78808594,-39697586.05957031,-45756820.67871094,-9525888.442993164,-22652629.852294922,-23236934.661865234,-24899936.67602539,-39255851.74560547,-35212047.5769043,-14149986.267089844,-23000244.140625,-22840614.318847656
0.39,25682214.736938477,6791461.46774292,-49476184.8449707,3856670.379638672,2543692.5888061523,279068.4998035431,15166730.880737305,4289536.476135254,9463960.647583008,-2649817.46673584,-9812040.328979492,-13686829.566955566,-13912605.285644531,-15149312.973022461,779469.7880744934,16808710.0982666,-6547032.833099365,-8375632.286071777,2384008.8844299316,2869792.4613952637,1741517.186164856,-14435644.149780273,-20882402.420043945,7506228.923797607,-35328971.86279297,27950115.203857422,8674683.570861816,-9623661.994934082,-12989928.245544434,-15279805.183410645,-12260326.385498047,-28922889.709472656,-10289925.575256348,-10672348.976135254,-3133477.6878356934,-38023063.65966797,454064.57781791687,-14044473.648071289,-14494524.955749512,-8842555.99975586,-1840267.0621871948,-10053113.93737793,-26138275.146484375,-28662212.371826172,-14561232.566833496,-11204201.698303223,-16220165.252685547,-12949591.636657715,-27379129.40979004,-8511693.954467773,-34895401.00097656,-39477325.439453125,-43211872.10083008,-9750429.153442383,-21632524.490356445,-22147947.311401367,-26227556.228637695,-37249416.35131836,-33101024.627685547,-13331672.668457031,-21924150.466918945,-21722537.994384766
0.395,20234653.47290039,2758408.784866333,-56099010.4675293,-494512.4089717865,-3591077.8045654297,-1813943.62449646,13348217.964172363,2091614.4847869873,7224693.298339844,-5581915.378570557,-15701167.106628418,-20531202.31628418,-20798959.732055664,-22038213.7298584,-764800.9061813354,15459644.317626953,-8747817.039489746,-8732211.112976074,-830700.3974914551,-444668.4420108795,-1557755.470275879,-21353677.74963379,-28330184.936523438,4932820.796966553,-35916580.20019531,26999450.68359375,7736810.684204102,-9956865.310668945,-13833391.189575195,-15501746.17767334,-17670299.530029297,-35820484.16137695,-11993783.950805664,-9622110.366821289,-851590.8122062683,-37703708.64868164,673394.0243721008,-14380877.494812012,-14699232.10144043,-12780411.720275879,-8437382.698059082,-8759603.500366211,-22450260.162353516,-24820573.806762695,-12996306.419372559,-10086717.60559082,-16185129.165649414,-12603426.933288574,-28644094.467163086,-13574005.126953125,-34025493.62182617,-37855068.20678711,-42351642.60864258,-8599818.229675293,-23251058.57849121,-23676668.167114258,-29605976.104736328,-38604728.69873047,-33288269.04296875,-12096398.35357666,-23645122.528076172,-23269582.748413086
0.4,15417014.122009277,-401652.7533531189,-57583408.35571289,-3468514.4424438477,-5672017.0974731445,-6658529.758453369,13409228.324890137,2230710.029602051,7510641.098022461,-5651949.882507324,-17329872.131347656,-22669773.10180664,-22956575.393676758,-24059877.395629883,-4049086.570739746,15203192.710876465,-8622488.021850586,-5550722.122192383,-755420.9232330322,-366265.6247615814,-1377625.823020935,-23687709.80834961,-31480730.056762695,2775569.6773529053,-36031185.150146484,28953752.517700195,9419296.264648438,-9119217.872619629,-12890992.164611816,-14622644.424438477,-18554801.94091797,-40229736.328125,-14676828.384399414,-8274267.196655273,2725978.8513183594,-36603836.05957031,869539.6184921265,-13742746.353149414,-13678833.0078125,-11743664.741516113,-9505261.421203613,-9011598.587036133,-18973737.716674805,-21152618.408203125,-10191701.889038086,-8584852.21862793,-15950555.801391602,-11129084.587097168,-25824316.024780273,-12014559.745788574,-32765430.450439453,-35580463.40942383,-42895179.748535156,-7030168.056488037,-23732236.862182617,-24138288.497924805,-28163427.352905273,-40427143.09692383,-34027194.97680664,-10862871.170043945,-24379003.524780273,-23929891.58630371
0.405,14180377.006530762,960176.7063140869,-53845157.623291016,-3781430.959701538,-4058980.4649353027,-8920788.764953613,13847779.273986816,2757586.4791870117,8660872.459411621,-4219651.699066162,-14545303.344726562,-19849887.84790039,-20094081.87866211,-21048179.626464844,-6449227.809906006,13093654.63256836,-7448987.007141113,-3188707.5901031494,1692107.2006225586,2144834.280014038,1272711.7538452148,-20889928.817749023,-28767499.923706055,3711142.063140869,-36115299.224853516,30416501.998901367,10769816.398620605,-7755912.780761719,-10570914.268493652,-12020149.230957031,-14920474.0524292,-38111183.166503906,-15591386.795043945,-7502422.80960083,2653321.9814300537,-36982120.513916016,854427.6356697083,-11226418.495178223,-11012223.243713379,-6754096.984863281,-5863833.904266357,-9994926.452636719,-20302232.74230957,-22352109.909057617,-9509325.981140137,-7162758.350372314,-13686037.063598633,-8426986.694335938,-20745491.02783203,-5445921.897888184,-32355037.689208984,-35112525.939941406,-43616870.88012695,-5592277.526855469,-21060670.852661133,-21456087.112426758,-22023769.37866211,-40200710.29663086,-33758033.752441406,-9521136.283874512,-21851266.860961914,-21608093.26171875
0.41,13071596.145629883,1522252.082824707,-50195270.53833008,-5061905.860900879,-3885540.246963501,-10804668.426513672,10813592.910766602,-174329.41496372223,6014255.046844482,-5656218.0519104,-12902132.034301758,-17864610.67199707,-18124885.55908203,-18995828.62854004,-9811430.931091309,7745142.936706543,-10052754.402160645,-6183344.841003418,1701194.5247650146,2171245.0981140137,1420147.5381851196,-18748716.354370117,-26297950.744628906,1961840.5103683472,-39979316.71142578,27301036.834716797,8286396.026611328,-8365737.9150390625,-9726021.766662598,-10140388.488769531,-12451168.060302734,-34598617.55371094,-18457681.65588379,-11271404.266357422,-3064270.01953125,-38899887.08496094,746520.7576751709,-9142141.342163086,-9250091.552734375,-4426268.577575684,-2989593.744277954,-12977548.599243164,-27076681.13708496,-29121469.497680664,-11927398.681640625,-6095458.984375,-11236743.927001953,-7151454.925537109,-18764646.530151367,-2449993.61038208,-35101268.76831055,-38569862.365722656,-45440925.59814453,-4578255.653381348,-19139884.94873047,-19459817.88635254,-19576940.536499023,-40441627.502441406,-34683845.52001953,-8614959.716796875,-19785905.838012695,-19889772.415161133
0.415,7947032.928466797,-4663027.763366699,-49840240.478515625,-10593714.714050293,-7773603.916168213,-17868659.97314453,3851879.119873047,-6877665.042877197,-1500297.0695495605,-11427796.363830566,-15958484.649658203,-20318456.649780273,-20761106.491088867,-21564521.78955078,-16733663.558959961,2204760.789871216,-17343187.33215332,-13380571.365356445,-2511806.7264556885,-2049899.1012573242,-2707496.6430664062,-21143756.866455078,-28970214.84375,-7058253.765106201,-48722961.42578125,21218942.642211914,3197508.0966949463,-11723690.032958984,-11328954.696655273,-11045936.584472656,-14366712.57019043,-36875576.01928711,-26843074.798583984,-20756185.53161621,-10617388.725280762,-40264301.30004883,763816.1182403564,-9780043.601989746,-10292560.577392578,-7813924.312591553,-3194251.537322998,-18744237.899780273,-35231632.232666016,-37347198.486328125,-14868782.997131348,-5702394.485473633,-11516757.96508789,-8553387.641906738,-21740613.93737793,-6841069.69833374,-40846698.76098633,-44624057.76977539,-49988388.06152344,-4289100.646972656,-21951507.568359375,-22232053.756713867,-25265235.900878906,-44473884.58251953,-39254287.71972656,-9067957.878112793,-22373813.62915039,-22642101.287841797
0.42,2730355.739593506,-12313823.699951172,-49081813.81225586,-16955038.07067871,-11834689.140319824,-26867055.892944336,-1224991.9176101685,-12233752.250671387,-8584899.90234375,-17641216.278076172,-20396324.157714844,-23843238.830566406,-24489309.310913086,-25208547.592163086,-23250049.591064453,1393151.2832641602,-23322668.075561523,-18931890.4876709,-7104847.431182861,-6588425.636291504,-7196828.365325928,-24740974.42626953,-33412292.48046875,-15572729.110717773,-56310951.232910156,18272050.857543945,292065.97805023193,-15103275.299072266,-12724003.791809082,-12769046.783447266,-16971763.610839844,-43493053.4362793,-35349636.07788086,-29370250.701904297,-13777177.810668945,-39394851.68457031,963381.5288543701,-11500893.592834473,-11972653.38897705,-11637269.973754883,-2892172.8134155273,-23217985.153198242,-38990215.30151367,-41189418.79272461,-14840589.52331543,-5285516.262054443,-13301448.822021484,-9608481.407165527,-24874095.916748047,-11820278.16772461,-44590053.55834961,-47889053.34472656,-54734653.47290039,-3994670.1526641846,-26025072.09777832,-26419794.0826416,-31254983.90197754,-49160938.26293945,-44105339.05029297,-9773579.597473145,-26483448.028564453,-26619667.053222656
0.425,5287883.758544922,-10955784.797668457,-42801288.60473633,-17687705.993652344,-11403364.181518555,-27691375.732421875,1537005.5437088013,-11121133.804321289,-9704984.664916992,-19718664.169311523,-21286344.528198242,-23883756.637573242,-24492858.88671875,-25210584.64050293,-22125595.092773438,6953969.955444336,-22419769.287109375,-18806318.283081055,-7966625.213623047,-7387364.864349365,-8029432.29675293,-24684871.673583984,-33752773.28491211,-12704183.578491211,-56330600.73852539,21307033.53881836,1852742.7911758423,-15483400.344848633,-11630577.087402344,-12281793.594360352,-15758304.595947266,-46892395.01953125,-35846130.37109375,-29667160.034179688,-10562651.634216309,-36716758.728027344,1271150.1121520996,-11300671.577453613,-11335851.669311523,-10121466.636657715,954011.9171142578,-21306993.48449707,-36158664.70336914,-38444129.943847656,-11276698.112487793,-3506731.5101623535,-13041498.184204102,-7723138.332366943,-23519979.47692871,-9742396.354675293,-41722454.07104492,-44549903.869628906,-54842956.54296875,-2268087.62550354,-25025840.759277344,-25574939.727783203,-28140373.22998047,-48247978.21044922,-43395538.330078125,-8167415.618896484,-25745117.1875,-25683673.858642578
0.43,14718852.043151855,-1465877.1753311157,-32656509.399414062,-13022756.576538086,-8032275.199890137,-19179620.74279785,9766139.98413086,-5071895.122528076,-6226377.487182617,-17911796.56982422,-19408885.955810547,-21859367.37060547,-22190408.70666504,-23089601.516723633,-14245744.705200195,14993733.406066895,-17370948.791503906,-14779457.092285156,-5990699.768066406,-5478278.160095215,-6220672.607421875,-22306751.251220703,-31182542.80090332,-2049114.465713501,-51652973.17504883,26382261.276245117,5115772.724151611,-13476894.37866211,-9742248.53515625,-10971604.347229004,-12750316.619873047,-45493030.5480957,-30769605.63659668,-24278366.088867188,-5650198.459625244,-34093227.38647461,1569144.2489624023,-10270816.802978516,-10022727.012634277,-6421165.943145752,4694839.000701904,-15336706.161499023,-31110031.127929688,-33440448.760986328,-7458715.915679932,-1015430.3312301636,-11535243.98803711,-6372649.669647217,-20922086.715698242,-4157984.733581543,-35430976.86767578,-38341785.4309082,-51012645.72143555,330068.8862800598,-20822364.807128906,-21347747.802734375,-20558341.97998047,-42759582.51953125,-38330619.81201172,-4695114.612579346,-21641296.38671875,-21575571.060180664
0.435,20380718.231201172,3763678.550720215,-25872896.194458008,-10519890.785217285,-6989355.564117432,-13210289.95513916,14338637.351989746,-1017558.217048645,-4328965.187072754,-16265127.182006836,-19508295.0592041,-22577116.012573242,-22679342.26989746,-23859380.7220459,-9722016.334533691,19314954.75769043,-15717889.785766602,-11686727.523803711,-5063756.942749023,-4703736.782073975,-5536038.398742676,-22775810.24169922,-31941881.17980957,1747994.065284729,-51165699.00512695,28245296.478271484,6287003.993988037,-12306286.811828613,-10158601.760864258,-13143740.6539917,-13596119.88067627,-45850086.2121582,-30998081.20727539,-23111293.79272461,-4855926.036834717,-32997196.197509766,1680063.009262085,-12455673.217773438,-12378441.81060791,-8622830.390930176,2183773.0407714844,-13591827.392578125,-30363882.064819336,-32597591.400146484,-6848625.183105469,-735386.0139846802,-13619673.728942871,-11132145.881652832,-24256534.576416016,-5517793.655395508,-33786972.04589844,-36790630.34057617,-49878890.99121094,807470.8580970764,-22289545.0592041,-22615339.279174805,-22432683.94470215,-40863361.35864258,-36758579.25415039,-3717631.5784454346,-22868364.334106445,-22940729.14123535
0.44,15678112.983703613,-1270483.136177063,-26059619.903564453,-14329941.749572754,-9308576.583862305,-18481195.4498291,10487024.307250977,-2986608.0284118652,-6609339.237213135,-17015359.87854004,-22673358.917236328,-26363834.381103516,-26474800.10986328,-27817754.7454834,-14664474.487304688,17226873.39782715,-19586681.365966797,-12065671.920776367,-6602498.531341553,-6281850.337982178,-7157681.941986084,-26703222.274780273,-36913917.541503906,-5889942.169189453,-56871280.670166016,26730039.596557617,4981724.262237549,-13367900.848388672,-12629199.981689453,-18748414.993286133,-18646654.12902832,-51261585.2355957,-39602294.921875,-28954341.888427734,-7984500.408172607,-33238338.470458984,1484826.2071609497,-17841556.549072266,-18075971.603393555,-17117109.298706055,-5824813.365936279,-18720020.294189453,-34356914.52026367,-36365211.486816406,-8781785.011291504,-3727430.820465088,-19846117.01965332,-20105312.34741211,-33107746.124267578,-15404936.790466309,-38492542.2668457,-40990581.51245117,-54218959.80834961,-2113518.476486206,-31477794.647216797,-31650787.353515625,-36019973.75488281,-45760494.232177734,-41586795.806884766,-7557992.935180664,-31781532.287597656,-31878894.805908203
0.445,6427840.232849121,-8195976.257324219,-29708166.122436523,-19144582.748413086,-10980826.377868652,-28224746.704101562,3736304.521560669,-7516386.50894165,-9273189.544677734,-18347181.32019043,-24990627.28881836,-28648250.579833984,-28881252.28881836,-30142906.188964844,-22941381.454467773,12016608.238220215,-23490161.895751953,-14288496.971130371,-8528592.109680176,-8121695.518493652,-9010706.901550293,-29292428.970336914,-39960414.88647461,-13779119.491577148,-60917709.35058594,25414361.95373535,3485688.4479522705,-14710571.2890625,-14008922.576904297,-22009462.356567383,-22002552.032470703,-55822868.34716797,-47104011.53564453,-33333702.087402344,-9646142.00592041,-33192180.633544922,1142542.2430038452,-20886009.216308594,-21134090.423583984,-22720643.997192383,-11509673.118591309,-23847480.77392578,-36840816.497802734,-38686019.89746094,-9474489.212036133,-6791833.877563477,-23829446.79260254,-24215379.71496582,-37987197.87597656,-22999244.689941406,-42378814.697265625,-44241313.93432617,-58418113.708496094,-5328985.214233398,-38920654.296875,-39114727.02026367,-46542510.986328125,-50928558.349609375,-46378204.345703125,-12427327.156066895,-39269718.170166016,-39198616.02783203
0.45,1788957.8342437744,-8120497.703552246,-32227478.02734375,-18300613.403320312,-9874201.774597168,-30736419.677734375,2372923.6125946045,-8691483.497619629,-8223929.405212402,-17821197.509765625,-23993228.912353516,-27222469.329833984,-27517326.35498047,-28538408.279418945,-25500459.671020508,9362730.979919434,-22879779.815673828,-15198447.227478027,-8918120.384216309,-8526995.658874512,-9370802.879333496,-27970104.217529297,-37668849.94506836,-13513447.761535645,-57796360.01586914,25657472.610473633,3112634.1819763184,-14211536.407470703,-12888214.111328125,-19207771.30126953,-20003400.802612305,-53904193.87817383,-46418010.71166992,-29973812.103271484,-7384758.949279785,-31632659.912109375,979657.4711799622,-18040384.29260254,-18032299.041748047,-19318696.975708008,-10093666.076660156,-23544034.957885742,-34353279.11376953,-36240196.228027344,-7694294.452667236,-6663644.790649414,-21074586.868286133,-19154628.75366211,-32838451.385498047,-19965589.52331543,-40771358.489990234,-42761215.20996094,-57628643.03588867,-5386926.651000977,-37033794.40307617,-37319400.787353516,-42494670.86791992,-50945652.00805664,-46000572.204589844,-13525024.4140625,-37653320.3125,-37420246.12426758
0.455,2621596.574783325,-3974646.0914611816,-33435054.779052734,-13398928.64227295,-8659456.253051758,-25344888.68713379,7121866.703033447,-5495518.207550049,-4464711.666107178,-15663180.351257324,-22043048.858642578,-25132230.758666992,-25457275.390625,-26274377.822875977,-22295289.993286133,11518573.760986328,-19980091.094970703,-13480524.063110352,-8074975.01373291,-7877252.578735352,-8574618.339538574,-25793750.762939453,-34321891.78466797,-10844031.33392334,-52398109.436035156,25339889.526367188,3233676.4335632324,-12294228.553771973,-11057140.350341797,-14118908.882141113,-16089973.449707031,-49025928.49731445,-42932815.55175781,-24428323.74572754,-5155642.986297607,-29346719.74182129,1053269.1478729248,-13062408.447265625,-12899402.618408203,-12384497.64251709,-5807234.764099121,-22016403.198242188,-31668251.037597656,-33701374.05395508,-6940619.468688965,-4992709.159851074,-16010034.561157227,-11849599.838256836,-23803077.697753906,-11973715.782165527,-38820793.15185547,-41638324.73754883,-55685134.88769531,-3715020.6565856934,-31205648.42224121,-31508432.388305664,-31856561.6607666,-49844287.87231445,-44768501.28173828,-11929060.935974121,-31933643.341064453,-31718294.143676758
0.46,3252008.9149475098,-3139651.5369415283,-35198280.334472656,-11415287.971496582,-9908905.982971191,-20369976.043701172,11638685.22644043,-2065013.1702423096,-2100260.019302368,-14217853.546142578,-22031511.306762695,-25286787.033081055,-25690286.63635254,-26462747.57385254,-19480319.97680664,15642843.246459961,-19231086.73095703,-10787829.399108887,-7108491.897583008,-7002635.478973389,-7564397.811889648,-25905946.731567383,-34429019.927978516,-12793446.54083252,-51715332.03125,23236452.102661133,3163187.026977539,-10777340.88897705,-10202249.526977539,-12615921.020507812,-15090961.456298828,-47708690.64331055,-44095409.39331055,-24719820.022583008,-6951824.188232422,-28471355.438232422,1067553.8778305054,-11690107.345581055,-11617208.480834961,-10658401.489257812,-4993563.652038574,-25015441.89453125,-34198135.37597656,-36303432.46459961,-10219504.356384277,-5892319.679260254,-15633164.405822754,-10957741.737365723,-20868480.682373047,-9755876.541137695,-42547065.73486328,-45944286.34643555,-58352428.4362793,-4501144.4091796875,-31068269.729614258,-31294353.485107422,-29637790.67993164,-53174312.591552734,-48444282.53173828,-12366590.49987793,-31620771.408081055,-31499355.31616211
0.465,524497.5686073303,-5780321.5980529785,-37395111.083984375,-15188854.217529297,-12501239.776611328,-20070230.48400879,11331326.484680176,-1943264.4844055176,-3420245.1705932617,-15701325.416564941,-23422519.68383789,-26451574.325561523,-26912338.256835938,-27754837.036132812,-19149116.51611328,17659837.72277832,-20983736.038208008,-10235739.707946777,-6624561.309814453,-6270158.290863037,-6914323.806762695,-27076543.8079834,-36052021.02661133,-15119795.799255371,-54426799.77416992,21390865.325927734,3124775.6481170654,-10548707.962036133,-9756807.327270508,-14616059.303283691,-16470735.549926758,-49431480.407714844,-47147304.53491211,-28662494.659423828,-10348774.909973145,-29789781.57043457,843662.440776825,-13742033.004760742,-13766088.485717773,-13861211.776733398,-6939344.40612793,-28952867.50793457,-38896999.35913086,-41013889.31274414,-14591213.22631836,-9180500.984191895,-19247768.40209961,-15006794.929504395,-24424533.84399414,-13666780.471801758,-47826999.66430664,-51069370.26977539,-63020214.08081055,-7833076.953887939,-35848514.556884766,-35960342.40722656,-36104347.229003906,-57544261.93237305,-53568534.85107422,-15264719.96307373,-36218475.341796875,-36053142.54760742
0.47,-4154988.7657165527,-7870772.838592529,-38687725.06713867,-21406986.236572266,-14601357.460021973,-22018960.95275879,7789289.951324463,-4561846.2562561035,-7553057.1937561035,-20626983.642578125,-24594005.584716797,-26677091.598510742,-27104207.99255371,-27976335.525512695,-18833890.914916992,16619894.027709961,-22927902.221679688,-13457668.30444336,-7119035.720825195,-6382736.2060546875,-7296916.484832764,-27192342.75817871,-35732353.21044922,-11713242.530822754,-54922893.52416992,21819601.05895996,3177713.632583618,-11441844.940185547,-8916480.06439209,-15438083.64868164,-16646017.074584961,-49434974.670410156,-45389678.955078125,-28367937.088012695,-10187971.115112305,-31318561.553955078,598392.903804779,-14565814.018249512,-14484650.611877441,-14789400.100708008,-6248683.452606201,-25992023.468017578,-38687946.31958008,-40904170.989990234,-14300716.400146484,-10104784.01184082,-20294836.044311523,-15803338.050842285,-26400245.666503906,-15068194.389343262,-45925239.56298828,-48820419.31152344,-62570522.30834961,-9004051.208496094,-36961578.369140625,-36976249.69482422,-38735427.85644531,-55911685.943603516,-52582168.57910156,-16007556.915283203,-37377349.853515625,-37033206.939697266
0.475,-8977965.354919434,-9690670.96710205,-39035476.68457031,-26071205.139160156,-16500270.84350586,-24445314.407348633,5072296.142578125,-6957374.095916748,-11963440.895080566,-26756366.729736328,-25774620.056152344,-26781396.865844727,-27201667.78564453,-27964956.283569336,-18326190.948486328,14787426.948547363,-24524614.334106445,-18556924.81994629,-8646971.702575684,-7811711.78817749,-8831016.540527344,-27117406.845092773,-34907157.89794922,-7281028.747558594,-53255084.99145508,23134872.436523438,2750167.13142395,-13042757.987976074,-8398623.4664917,-13266689.30053711,-14999771.118164062,-47500347.13745117,-40694305.419921875,-23350435.256958008,-6544843.1968688965,-30456335.067749023,559229.0163040161,-12445782.661437988,-12181086.540222168,-10855808.25805664,-1899043.5600280762,-17219327.926635742,-33592376.708984375,-35988929.748535156,-8811992.645263672,-6321231.842041016,-16554412.841796875,-10898351.669311523,-22717140.197753906,-10495121.955871582,-37196414.947509766,-40192386.627197266,-56974945.068359375,-5390198.230743408,-32078655.242919922,-32066474.91455078,-32510364.532470703,-49505508.42285156,-46196395.87402344,-12302392.959594727,-32637947.08251953,-32194324.493408203
0.48,-13240641.593933105,-13601476.669311523,-38807544.70825195,-27954124.450683594,-18620243.072509766,-28045005.798339844,4863390.922546387,-7243005.752563477,-14073219.299316406,-30023435.592651367,-27452945.709228516,-27914382.934570312,-28473043.44177246,-29061363.220214844,-19976234.436035156,14347823.143005371,-26542892.456054688,-21623188.018798828,-9911693.572998047,-9327671.05102539,-10059762.001037598,-28215147.018432617,-36462463.37890625,-9648753.16619873,-54062866.2109375,22442882.537841797,1677926.3019561768,-14539651.870727539,-8798377.990722656,-10827585.220336914,-13734694.480895996,-47025840.759277344,-40517009.73510742,-20750415.802001953,-4589672.088623047,-27223051.071166992,599369.1086769104,-10124846.458435059,-9841561.317443848,-6834393.501281738,1576767.8022384644,-12238828.659057617,-30796012.87841797,-33250534.057617188,-4077904.224395752,-1431358.2181930542,-12462041.854858398,-5946818.3517456055,-17782894.134521484,-5838115.215301514,-31134946.823120117,-34542194.36645508,-53444419.860839844,-363547.6529598236,-27525297.164916992,-27566944.122314453,-25830211.639404297,-46181983.947753906,-42449356.07910156,-7716175.556182861,-28071779.251098633,-27707639.694213867
0.485,-15901918.411254883,-17353322.982788086,-37250438.69018555,-27534576.416015625,-19810796.7376709,-31331153.869628906,6205599.308013916,-5934250.354766846,-13036028.861999512,-28635028.839111328,-28355472.564697266,-28555051.803588867,-29257623.67248535,-29771930.694580078,-22813001.63269043,15351994.514465332,-28136783.599853516,-20944974.899291992,-9486496.925354004,-9162980.079650879,-9483775.13885498,-28983442.306518555,-38348426.818847656,-15520046.23413086,-57693267.822265625,19481498.71826172,639516.1747932434,-14855848.31237793,-8943161.010742188,-9856162.071228027,-13092659.950256348,-47427394.86694336,-45295913.69628906,-23716535.568237305,-6977596.759796143,-24403268.814086914,545016.7059898376,-9225679.397583008,-9113911.628723145,-6090457.916259766,2062722.6829528809,-15280678.749084473,-33777107.23876953,-36068714.1418457,-4853332.51953125,193251.93762779236,-11081537.246704102,-4840977.668762207,-15846705.436706543,-5438919.544219971,-32713348.388671875,-36333454.13208008,-55271701.81274414,1587564.9452209473,-26781784.057617188,-26883365.631103516,-25048755.645751953,-48055709.83886719,-44229278.564453125,-6214081.764221191,-27179882.049560547,-26911859.5123291
0.49,-15866082.191467285,-16539905.548095703,-33727783.203125,-25828012.466430664,-19378213.88244629,-30723760.6048584,7814995.765686035,-4740985.870361328,-10876114.845275879,-25804662.704467773,-27250949.85961914,-26719282.150268555,-27351121.90246582,-27954412.46032715,-22425191.87927246,16863834.381103516,-27725614.547729492,-18764812.469482422,-8072175.025939941,-7763494.968414307,-7984786.033630371,-27251964.569091797,-36137420.654296875,-14914326.667785645,-59043716.43066406,17029827.117919922,251506.56700134277,-13978027.34375,-7631974.220275879,-8436180.114746094,-10829307.556152344,-44426345.82519531,-47520652.770996094,-27066680.908203125,-10322519.302368164,-24212905.883789062,555802.6432991028,-7750874.5193481445,-7826249.599456787,-5557623.386383057,3448909.044265747,-19161453.247070312,-37426769.2565918,-39528976.44042969,-8803969.383239746,-781338.0360603333,-9769912.719726562,-4386327.266693115,-14519191.74194336,-5109304.428100586,-35938137.05444336,-39544742.584228516,-57416358.947753906,848523.3187675476,-25296571.731567383,-25396928.787231445,-24647838.592529297,-48678180.69458008,-45437503.814697266,-6741540.431976318,-25659818.649291992,-25331205.368041992
0.495,-12468111.038208008,-10629447.937011719,-28283500.67138672,-23487819.67163086,-17594310.760498047,-25820661.544799805,9761287.689208984,-4040778.636932373,-9993691.444396973,-25431037.90283203,-24568468.09387207,-22792736.053466797,-23209653.854370117,-23945392.608642578,-17614717.483520508,18992626.190185547,-25659988.403320312,-17739290.237426758,-7455071.926116943,-7046862.602233887,-7489544.868469238,-23341829.299926758,-29805749.893188477,-6925670.623779297,-55374477.38647461,17438531.87561035,568956.3751220703,-13254795.07446289,-5794336.795806885,-5205597.877502441,-6360720.157623291,-37565174.1027832,-43203876.49536133,-25651758.193969727,-10235061.645507812,-25753808.975219727,829159.140586853,-4448102.951049805,-4591600.41809082,-1764678.1206130981,9083500.862121582,-15984375.953674316,-35908569.3359375,-38054603.576660156,-10284284.591674805,-679203.450679779,-6026904.582977295,-1140777.587890625,-10183101.654052734,96275.29233694077,-33579528.80859375,-37352844.23828125,-55006271.36230469,988822.5793838501,-19528060.913085938,-19619798.66027832,-18161691.665649414,-43812995.91064453,-41212741.85180664,-5902275.085449219,-20056035.9954834,-19588153.839111328
