time,Fp1,Fpz,Fp2,AF3,AF4,F7,F5,F3,F1,Fz,F2,F4,F6,F8,FT7,FC5,FC3,FC1,FCz,FC2,FC4,FC6,FT8,T7,C5,C3,C1,Cz,C2,C4,C6,T8,TP7,CP5,CP3,CP1,CPz,CP2,CP4,CP6,TP8,P7,P5,P3,P1,Pz,P2,P4,P6,P8,PO7,PO5,PO3,POz,PO4,PO6,PO8,CB1,O1,Oz,O2,CB2
0.0,965116.5008544922,-1724224.56741333,4347025.394439697,452798.8135814667,-136090.90447425842,-97971.77463769913,514960.52742004395,559247.3149299622,399452.805519104,155388.7277841568,-102990.38141965866,24239.355698227882,381564.3787384033,442459.3448638916,-971239.0899658203,-87331.71224594116,420295.4173088074,364819.79489326477,213469.5202112198,213672.28031158447,65165.60912132263,559590.9357070923,353464.3352031708,-940958.2614898682,511207.34214782715,381679.9223423004,-46387.702226638794,3117.6002230495214,563734.8890304565,787524.163722992,704773.485660553,758606.0166358948,-863034.4271659851,-776075.0651359558,1199270.6060409546,191428.73585224152,-3915.74390232563,44697.750359773636,1265828.9670944214,1006088.9720916748,-120571.5760588646,-917320.8475112915,-495416.7902469635,564273.1189727783,788560.5096817017,582707.0474624634,280195.05739212036,-237683.89225006104,-249826.5504837036,-218494.7282075882,-238296.5236902237,-17622.08342552185,70546.90271615982,567139.9235725403,-1076829.3142318726,-591055.9296607971,-574148.4761238098,-515479.6838760376,55391.63947105408,-531828.1650543213,-1095113.1582260132,-1176299.810409546
0.005,-3412231.4453125,-6042541.50390625,53338409.423828125,-10453773.498535156,-41203266.14379883,-4658467.2927856445,-4491837.978363037,-3631700.277328491,-8520021.438598633,-11768104.553222656,-17091714.85900879,-18199871.063232422,-8284333.229064941,-7088085.651397705,-11154965.4006958,-11294394.493103027,-3770089.864730835,-4875768.184661865,-7148131.370544434,-9065620.422363281,-11530562.400817871,-7702992.916107178,-8764497.756958008,-10602978.706359863,2575656.1756134033,-3858455.8963775635,2417967.7963256836,-144083.60421657562,-4529206.7527771,-5030936.241149902,-4448690.891265869,-6000445.365905762,-9808279.991149902,-9722544.67010498,3958235.025405884,2499986.410140991,175672.85895347595,1830225.3484725952,83034.7090959549,3846150.3982543945,-11588119.506835938,-11172695.15991211,16032724.380493164,10780281.066894531,20294645.309448242,20120340.34729004,10486735.343933105,299614.69769477844,850684.404373169,1724194.2882537842,15273941.993713379,18678180.694580078,20651185.989379883,19899646.759033203,-1770546.555519104,2691395.5211639404,2948962.2116088867,7209965.229034424,20279273.986816406,-243139.66929912567,-1856394.648551941,-2984828.7105560303
0.01,-4954587.936401367,-7926757.335662842,75286621.09375,-14496298.789978027,-57527969.36035156,-5693965.911865234,-6110699.653625488,-4838973.522186279,-11805830.001831055,-16957263.946533203,-24048961.639404297,-25878688.81225586,-11541017.532348633,-9941517.82989502,-15153752.326965332,-15029296.875,-4969852.924346924,-6371710.777282715,-9759157.180786133,-11657231.330871582,-15524644.85168457,-9927846.908569336,-12116017.34161377,-14584895.133972168,3565365.5529022217,-5812255.382537842,3244039.535522461,-155589.2378091812,-6534248.352050781,-7226486.2060546875,-6434453.010559082,-7348148.345947266,-13049943.923950195,-13123541.831970215,6413927.07824707,4229888.439178467,271034.5387458801,2145292.5205230713,-1178278.5654067993,4617288.112640381,-16222797.393798828,-15195393.562316895,23249063.49182129,15611289.024353027,29315444.946289062,28796220.779418945,15067165.37475586,-233769.20819282532,548752.6059150696,1652462.2440338135,22922386.169433594,27649621.963500977,30404636.38305664,28620523.45275879,-312998.89087677,3637402.296066284,4079231.2622070312,14578843.116760254,29858551.025390625,3335067.0337677,-320600.6586551666,-1781830.906867981
0.015,-7822187.900543213,-11087343.215942383,67901786.80419922,-14427996.635437012,-52990745.544433594,-6949002.265930176,-6739240.1695251465,-5442693.710327148,-10750976.5625,-16426031.112670898,-22737167.358398438,-25756351.470947266,-12276329.99420166,-10921689.987182617,-14970846.176147461,-14156002.99835205,-4063762.664794922,-5156030.178070068,-8656426.429748535,-9809847.831726074,-14637764.930725098,-9670428.276062012,-12714208.602905273,-14637977.600097656,2387566.089630127,-6189684.3910217285,2384083.5094451904,-32676.544040441513,-6105951.78604126,-7262226.104736328,-7993184.0896606445,-6704469.203948975,-12616792.678833008,-12904447.555541992,7428499.221801758,4980175.971984863,318741.5599822998,1683776.2594223022,-2732542.7532196045,2434877.1572113037,-17264307.022094727,-14905696.868896484,19750854.4921875,14219432.830810547,28065612.79296875,27366270.065307617,15181939.125061035,-1715630.292892456,-1054812.7889633179,-217885.62834262848,21127117.156982422,25388542.17529297,27806020.736694336,27263601.303100586,1642469.882965088,1749015.0928497314,2286066.770553589,17219013.214111328,27312046.05102539,7543303.489685059,1827953.2194137573,592090.6662940979
0.02,-15414448.738098145,-18373512.268066406,52364830.017089844,-16409093.856811523,-48928588.8671875,-12950448.989868164,-9948685.646057129,-8744771.957397461,-10238105.773925781,-15838372.230529785,-21961721.420288086,-27230693.817138672,-15960327.1484375,-14853940.963745117,-16930646.896362305,-16360961.9140625,-3990080.8334350586,-4906374.454498291,-8153049.468994141,-10109887.12310791,-16467914.581298828,-13470125.198364258,-16386043.548583984,-16537225.723266602,-889892.1012878418,-7478996.276855469,944128.692150116,87865.80711603165,-6209368.2289123535,-8989188.194274902,-13108294.486999512,-10541747.093200684,-14558830.261230469,-14895805.358886719,6358494.758605957,4867028.23638916,393195.2118873596,2162620.5444335938,-4395485.877990723,-1422918.438911438,-22234107.971191406,-16688970.565795898,12425338.745117188,10543091.773986816,25119121.551513672,24854576.110839844,15839066.505432129,-3149931.4308166504,-2673492.908477783,-2096146.1067199707,14946605.682373047,18563835.14404297,20425882.33947754,24569099.42626953,628596.4846611023,-1259985.5661392212,-766965.5680656433,11812772.750854492,20081848.14453125,6679178.237915039,943363.9049530029,-214784.32416915894
0.025,-21335567.474365234,-23860958.099365234,49179244.99511719,-19050035.47668457,-53414253.23486328,-19254526.138305664,-13184082.03125,-12085431.098937988,-11225959.777832031,-17282957.077026367,-24845588.68408203,-31566705.70373535,-20682916.64123535,-19491876.60217285,-21629035.94970703,-21659492.49267578,-5262279.033660889,-6453014.373779297,-9508270.263671875,-13309908.866882324,-21614772.79663086,-19142957.68737793,-21247167.587280273,-20902656.55517578,-3729621.8872070312,-10093789.100646973,-237286.95511817932,65720.71462869644,-7885211.46774292,-12444890.022277832,-19192823.41003418,-17193470.001220703,-19317401.885986328,-19523509.979248047,4858381.748199463,4657179.832458496,450428.5156726837,3730071.0678100586,-5114459.991455078,-3842261.552810669,-30404123.306274414,-21393144.607543945,9298589.706420898,9538827.896118164,26680423.736572266,26596126.556396484,18560785.2935791,-3561146.9745635986,-3053810.1196289062,-2550276.517868042,11184994.6975708,15096797.943115234,16912744.522094727,26073707.580566406,-3237557.4111938477,-2711813.449859619,-2433162.6892089844,3173676.013946533,16638885.498046875,400191.0090446472,-2968076.467514038,-4456999.778747559
0.03,-17392654.418945312,-20454517.364501953,58752441.40625,-16729267.120361328,-56614723.205566406,-17365091.32385254,-10935637.474060059,-10019886.97052002,-10975568.771362305,-18267253.875732422,-27069486.618041992,-32302082.061767578,-20102165.22216797,-18728055.953979492,-23028068.54248047,-22600709.915161133,-5672556.8771362305,-7192723.274230957,-10290445.327758789,-14505695.343017578,-24022022.247314453,-18888265.60974121,-20655349.731445312,-22162376.403808594,-2597325.8018493652,-11497855.186462402,-924030.1847457886,-101430.81843852997,-9330544.471740723,-13829567.909240723,-19792423.248291016,-18673416.137695312,-20851850.509643555,-20943756.103515625,5533080.101013184,5125169.277191162,374400.0196456909,4807170.867919922,-3975160.598754883,-2551812.6487731934,-33582271.575927734,-23080301.28479004,12050233.840942383,12759589.195251465,31258892.059326172,29834581.37512207,20500274.658203125,-2560668.468475342,-1839942.9321289062,-1333689.570426941,12897561.073303223,17578802.10876465,19747249.603271484,29361902.236938477,-5422372.817993164,-1297838.3302688599,-1298046.588897705,692184.8654747009,19417909.622192383,-4198184.490203857,-5262455.463409424,-7046784.400939941
0.035,-7611483.573913574,-12331876.754760742,66687431.33544922,-10841833.114624023,-52488536.8347168,-8008070.945739746,-4103923.3207702637,-3379652.976989746,-9113708.49609375,-17350261.688232422,-25904989.24255371,-28157024.383544922,-14822449.684143066,-13440949.440002441,-18266874.313354492,-16746887.20703125,-4143512.24899292,-5634243.011474609,-9120100.975036621,-12024868.01147461,-21720691.680908203,-12635114.669799805,-15118525.505065918,-17560199.737548828,2704890.9664154053,-9968792.915344238,-972293.3769226074,-253671.16928100586,-9096395.492553711,-11684118.270874023,-14816248.893737793,-13269351.0055542,-16226039.88647461,-16349027.633666992,8174188.613891602,6049466.609954834,178180.9777021408,4336348.056793213,-1985261.2018585205,1023627.8772354126,-29460922.241210938,-18599859.2376709,15666923.522949219,16817276.000976562,33813541.412353516,29801033.02001953,19595737.45727539,-941124.4988441467,-87998.77017736435,532338.3212089539,17101755.142211914,21951858.520507812,24316799.16381836,29497255.325317383,-3068271.8753814697,1262265.0861740112,1130677.580833435,6476687.908172607,23929058.074951172,-1363634.705543518,-2888335.2279663086,-4515644.073486328
0.04,-4333527.088165283,-10604993.82019043,63916366.57714844,-9074817.657470703,-48455875.396728516,-1890943.6464309692,-295946.24042510986,431996.3753223419,-8490529.06036377,-16186393.737792969,-24152303.69567871,-26062133.7890625,-12956359.86328125,-11663856.506347656,-13344182.968139648,-11761728.286743164,-2519715.5475616455,-3747926.4736175537,-7624772.548675537,-10013229.370117188,-19984151.84020996,-9542267.799377441,-13057663.917541504,-12738979.33959961,7135475.158691406,-7679129.600524902,-436153.8887023926,-218748.7781047821,-8264311.790466309,-9620982.17010498,-12143441.200256348,-9019615.173339844,-11322146.41571045,-11542261.123657227,9042040.824890137,6274657.726287842,29822.343960404396,2913447.856903076,-1891867.6376342773,2537334.680557251,-26599708.557128906,-13610654.830932617,14875110.626220703,16591621.398925781,31853012.084960938,25832237.243652344,16949871.063232422,-747647.8815078735,30803.430825471878,929592.2517776489,17701156.616210938,21921878.814697266,24084491.729736328,25394083.02307129,258434.89170074463,1391945.481300354,1350186.5863800049,11799583.435058594,23761508.94165039,4950078.010559082,596215.9633636475,-620717.1678543091
0.045,-10325856.20880127,-16486721.03881836,56758636.474609375,-13134823.7991333,-50275596.618652344,-5716085.433959961,-3481528.9974212646,-2541493.8926696777,-9679249.76348877,-15670130.729675293,-24100490.57006836,-29518148.42224121,-17571546.55456543,-16285470.962524414,-15511764.526367188,-14813014.98413086,-2754595.5181121826,-3849773.168563843,-7344887.256622314,-11306149.48272705,-22403112.411499023,-14197282.791137695,-17821949.005126953,-14803390.502929688,5398063.659667969,-8077251.434326172,-16750.58715045452,-25139.840319752693,-8586361.8850708,-11195834.159851074,-16718072.891235352,-11991952.896118164,-13445235.252380371,-13699509.620666504,5538147.926330566,5242227.077484131,30720.140784978867,1596252.679824829,-4979904.651641846,-315085.14285087585,-32412490.844726562,-15449927.33001709,10125153.541564941,11156306.266784668,27325950.622558594,21229358.673095703,14397810.935974121,-3197003.8414001465,-2523236.036300659,-1489517.2119140625,12352592.468261719,15971238.136291504,17812110.900878906,20450399.39880371,-1097108.3641052246,-2261826.753616333,-2168143.2723999023,8280554.77142334,17634328.842163086,5539934.6351623535,-684112.012386322,-1724644.8993682861
0.05,-14230401.992797852,-18260690.689086914,57077430.725097656,-15312759.399414062,-51277202.60620117,-13518472.671508789,-8348964.691162109,-7233752.727508545,-9202979.08782959,-14090279.579162598,-23418968.200683594,-32073375.701904297,-20618782.04345703,-19303236.00769043,-22726194.381713867,-21914337.158203125,-4037757.396697998,-5182302.951812744,-7524466.037750244,-13078242.301940918,-25033161.163330078,-18832056.045532227,-21219074.249267578,-21986757.278442383,-847780.168056488,-10718165.397644043,-447176.4862537384,75133.83775949478,-9873127.937316895,-14590195.655822754,-22781213.760375977,-16847059.24987793,-20710943.2220459,-20925125.122070312,649934.6494674683,4112410.545349121,79392.28415489197,778445.3630447388,-8561954.498291016,-4215486.526489258,-41629383.0871582,-22471038.818359375,6698271.751403809,6135838.508605957,24558526.99279785,19813524.24621582,12823473.930358887,-6167148.590087891,-5423474.7886657715,-4741568.565368652,6362105.369567871,10130722.045898438,11912981.033325195,19037405.014038086,-6570794.105529785,-6390532.493591309,-6291731.834411621,-744140.5653953552,11798010.82611084,-1543136.715888977,-6328186.511993408,-7545333.385467529
0.055,-7033264.636993408,-8280084.609985352,67114616.39404297,-10058520.317077637,-44127956.39038086,-15210850.715637207,-7868458.7478637695,-6772830.486297607,-5111632.823944092,-10612649.917602539,-19877420.42541504,-27034709.930419922,-14040144.920349121,-12786777.49633789,-25709909.439086914,-23130983.352661133,-4143857.955932617,-5291248.798370361,-7027244.091033936,-12036385.536193848,-22937726.974487305,-14236739.158630371,-14814499.855041504,-25163051.60522461,-3704891.4432525635,-11325727.462768555,-1431818.6044692993,-105920.79907655716,-10593641.28112793,-15171641.34979248,-21388927.459716797,-14453566.551208496,-23841659.545898438,-24004644.3939209,105049.56543445587,4497859.954833984,56551.68369412422,624726.6530990601,-8439941.40625,-3686786.17477417,-43214950.56152344,-25584609.985351562,8054668.426513672,7836269.378662109,26328624.725341797,22690496.44470215,12951865.196228027,-5916870.1171875,-5011572.360992432,-4904109.001159668,6935525.894165039,11379922.866821289,13401515.007019043,22382961.27319336,-9372318.267822266,-6471604.824066162,-6420527.458190918,-4553431.987762451,13192679.405212402,-7726890.087127686,-9401313.781738281,-10836466.789245605
0.06,4731445.3125,4978719.711303711,77490257.2631836,-2541749.2389678955,-34240726.470947266,-9708651.542663574,-2991485.595703125,-1962719.440460205,-905688.8818740845,-7706546.306610107,-16173030.853271484,-18242074.966430664,-2250037.19329834,-1080376.9826889038,-20708335.876464844,-16443262.100219727,-2871245.861053467,-3874745.8457946777,-6409523.010253906,-9901066.780090332,-18283540.725708008,-3469736.337661743,-2860403.537750244,-20318820.95336914,1032658.6961746216,-7939419.746398926,-2120219.4690704346,-412469.44665908813,-10400083.541870117,-12259190.559387207,-13206624.031066895,-5744363.784790039,-18926048.278808594,-19058206.55822754,4693918.704986572,6036940.097808838,31361.080706119537,1404587.0304107666,-4346097.469329834,1361928.5821914673,-36484756.46972656,-20856040.954589844,11187364.57824707,14699980.735778809,30578941.345214844,26563079.833984375,14916893.005371094,-2498553.2760620117,-1585471.6300964355,-1649452.4478912354,12953275.680541992,17777784.34753418,20040985.107421875,26610126.495361328,-6129429.817199707,-2980460.4053497314,-2849045.753479004,431714.7731781006,19683773.040771484,-5580954.551696777,-6242071.151733398,-7674534.797668457
0.065,8020023.345947266,8015159.606933594,78941978.45458984,-1356739.0441894531,-32232368.46923828,-5226812.362670898,-861455.3213119507,248910.00986099243,-1184215.0688171387,-8010482.7880859375,-16366912.841796875,-15134222.030639648,2775425.672531128,3985943.555831909,-15181824.684143066,-10711331.367492676,-2544606.6856384277,-3380137.9203796387,-6694168.567657471,-10238293.647766113,-17185430.5267334,1858578.4435272217,2484201.669692993,-14709435.46295166,7316795.825958252,-4500115.394592285,-2594233.512878418,-498167.6638126373,-10453642.845153809,-10049574.851989746,-8235411.643981934,-1324636.8169784546,-13375102.043151855,-13495409.01184082,8236444.473266602,6337653.160095215,126772.47822284698,2669754.2667388916,-1040847.659111023,4245816.707611084,-32876941.680908203,-15514492.988586426,9966499.328613281,17769878.387451172,31812475.204467773,26113136.291503906,16643198.013305664,-1002128.005027771,-270099.78890419006,-27332.788333296776,14751656.532287598,19243106.842041016,21509944.915771484,25927270.889282227,-2545330.762863159,-1754728.3172607422,-1431251.4066696167,5653110.027313232,21091318.130493164,398114.7110462189,-2507403.612136841,-3790688.2762908936
0.07,485949.8143196106,151999.01163578033,72353523.25439453,-6959322.452545166,-38274597.16796875,-7992921.352386475,-4940948.009490967,-3667942.762374878,-5428283.69140625,-10581275.939941406,-19720031.73828125,-19770238.876342773,-2886131.525039673,-1578393.578529358,-17903427.124023438,-13830096.244812012,-4793812.7517700195,-5525889.873504639,-7426131.725311279,-12429719.924926758,-20612546.920776367,-2950896.0247039795,-2987808.9427948,-17317726.135253906,5879386.425018311,-5889058.1130981445,-3713745.1171875,-286977.3805141449,-11244167.32788086,-11439913.749694824,-12604198.455810547,-7138564.109802246,-16078882.217407227,-16205390.930175781,5161555.767059326,4083118.438720703,252852.6782989502,3005749.9408721924,-2739042.043685913,-341613.44170570374,-40265224.45678711,-18269708.63342285,3090264.320373535,11647134.780883789,27516242.98095703,20190576.553344727,15264984.130859375,-5183918.476104736,-4604027.74810791,-4140595.9129333496,6849215.030670166,10725977.897644043,12846824.645996094,19471336.364746094,-6084918.49899292,-6877878.665924072,-6425680.160522461,1752953.1717300415,12467863.082885742,-433659.70253944397,-5936899.185180664,-7128612.518310547
0.075,-7820584.774017334,-7289714.336395264,66074684.143066406,-12381066.32232666,-42802032.470703125,-14900610.92376709,-11068513.870239258,-9757517.81463623,-8959867.477416992,-12265789.985656738,-21597209.930419922,-24800363.540649414,-10800438.88092041,-9527676.582336426,-27147733.688354492,-22722743.98803711,-7992197.9904174805,-8646319.389343262,-7345434.188842773,-12630413.055419922,-23231258.392333984,-10483715.057373047,-10969671.249389648,-26683677.673339844,-3519192.4571990967,-10946338.653564453,-5270576.000213623,-95933.62361192703,-11589351.654052734,-13837206.840515137,-20697679.51965332,-16560131.072998047,-25365800.857543945,-25489225.387573242,-2073494.6727752686,1201464.8914337158,189389.51194286346,1493204.5936584473,-7890548.7060546875,-8693924.903869629,-52169464.111328125,-27416229.248046875,-3729852.6763916016,1831346.869468689,21758958.81652832,13970547.676086426,10716674.8046875,-12076617.240905762,-11501438.14086914,-11174736.976623535,-3787716.1502838135,-87788.84261846542,1985259.771347046,13026926.99432373,-15647530.555725098,-15375656.127929688,-14912399.291992188,-9310002.326965332,1664914.608001709,-10306138.99230957,-15653797.149658203,-16858276.3671875
0.08,-8728449.821472168,-7299499.51171875,65561523.4375,-13109833.717346191,-40664505.00488281,-18674293.518066406,-13767911.911010742,-12545996.66595459,-9066314.697265625,-11733505.249023438,-19755569.458007812,-24121868.133544922,-12206891.059875488,-11063612.937927246,-33507919.311523438,-28386772.15576172,-9004659.652709961,-9615481.37664795,-6316533.56552124,-9755605.697631836,-21230140.686035156,-12192158.699035645,-12603945.7321167,-33278827.667236328,-11576948.165893555,-13760795.593261719,-5724491.596221924,-186959.95211601257,-10477864.265441895,-12930210.11352539,-23061611.17553711,-19656299.591064453,-31722814.559936523,-31775331.497192383,-6198421.001434326,655644.5360183716,-51120.13965845108,-1047494.1730499268,-11338328.36151123,-12081009.864807129,-56803924.560546875,-33587059.020996094,-4817792.4156188965,-2296295.166015625,20056407.928466797,12470551.490783691,5929122.447967529,-15754148.483276367,-15178410.530090332,-14907169.342041016,-6888493.061065674,-2773032.6652526855,-613771.4385986328,11751173.973083496,-22848543.167114258,-20886064.529418945,-20420946.12121582,-17216640.47241211,-887259.4237327576,-19968292.236328125,-23122072.219848633,-24356864.92919922
0.085,-5251424.312591553,-4664321.422576904,67889320.37353516,-11403764.724731445,-36610397.33886719,-17579626.083374023,-13087234.497070312,-11879490.852355957,-7540344.715118408,-10405380.249023438,-16823287.963867188,-20200330.73425293,-8604313.850402832,-7447865.962982178,-32762218.475341797,-27810388.565063477,-7193663.120269775,-7887175.559997559,-5491971.015930176,-7014074.802398682,-17195835.11352539,-8886526.107788086,-9180208.206176758,-32572086.334228516,-11606429.100036621,-11675618.171691895,-4501003.265380859,-379756.71887397766,-8879636.764526367,-8842019.081115723,-18613117.218017578,-16049337.387084961,-30856655.12084961,-30767364.501953125,-4595780.849456787,2570111.036300659,-171006.9179534912,-3109220.266342163,-10810684.204101562,-8005742.073059082,-52492519.37866211,-32674430.84716797,-1667749.7625350952,452907.89008140564,21919225.692749023,13673398.0178833,2903388.9770507812,-15098613.739013672,-14637460.708618164,-13982933.044433594,-2920703.172683716,1610497.4746704102,3755709.409713745,13248489.379882812,-22778211.59362793,-21169261.932373047,-20674684.524536133,-16205932.6171875,3574283.5998535156,-20899587.631225586,-23078948.974609375,-24313159.942626953
0.09,-4754446.983337402,-6118752.479553223,66659591.67480469,-11011163.711547852,-36483119.96459961,-16421884.536743164,-12978798.866271973,-11652749.061584473,-7221572.399139404,-10122248.649597168,-16481115.341186523,-19114414.21508789,-7301676.273345947,-5952455.520629883,-29792173.385620117,-25971948.623657227,-5354573.2498168945,-6232570.171356201,-5924700.736999512,-7295821.666717529,-15893065.452575684,-7248207.569122314,-7884634.971618652,-29420490.264892578,-7102332.592010498,-8366045.951843262,-3283643.960952759,-320654.86907958984,-8694518.089294434,-5954905.5099487305,-14650263.786315918,-13610812.187194824,-27759195.32775879,-27553762.435913086,-1514287.3525619507,4241249.561309814,7739.718072116375,-4245376.110076904,-8774672.508239746,-3052216.5298461914,-47773860.931396484,-29668233.87145996,185130.8047771454,3210671.1864471436,22301355.361938477,12187653.541564941,979581.356048584,-13997121.810913086,-13629853.248596191,-12538946.151733398,-854052.5436401367,3474949.598312378,5365609.169006348,11806634.902954102,-18881252.28881836,-19195472.717285156,-18744691.848754883,-10350016.593933105,5340506.553649902,-15321954.727172852,-18886365.89050293,-20112848.28186035
0.095,-7859755.992889404,-10204599.380493164,60773143.76831055,-11954797.744750977,-39894866.943359375,-17938318.252563477,-14861206.0546875,-13506344.79522705,-8486108.779907227,-11640239.715576172,-19555482.864379883,-22387943.267822266,-10678011.894226074,-9221537.590026855,-29109621.047973633,-26664144.51599121,-6125056.266784668,-7111301.898956299,-7818436.145782471,-9823550.2243042,-18244174.95727539,-9843623.161315918,-11186283.111572266,-28593835.830688477,-4640985.96572876,-7830327.987670898,-3929051.160812378,-17966.965213418007,-10382691.383361816,-7007278.4423828125,-16122606.27746582,-16391504.287719727,-27086210.250854492,-26873329.162597656,-628237.3070716858,4116837.501525879,282875.657081604,-4936208.724975586,-7950096.607208252,-3147602.319717407,-48173267.36450195,-29013839.721679688,98302.6847243309,2415982.246398926,20028461.456298828,8425070.762634277,-339856.92262649536,-14382008.55255127,-13919672.966003418,-12883640.28930664,-3347869.396209717,312576.8303871155,1928786.7546081543,7894029.61730957,-16448656.08215332,-17743431.091308594,-17431114.196777344,-6187467.575073242,2013346.4336395264,-11146343.231201172,-16153244.018554688,-17374055.862426758
0.1,-9212142.944335938,-11573469.161987305,56078414.91699219,-12311895.370483398,-43554241.18041992,-18263063.430786133,-16216245.651245117,-15088314.056396484,-10073580.741882324,-15001711.84539795,-24267766.95251465,-26586320.877075195,-14598237.037658691,-13276998.519897461,-28470504.760742188,-27304063.79699707,-8757575.988769531,-9702789.306640625,-10728018.760681152,-12117547.035217285,-21478700.637817383,-13121259.689331055,-15129264.831542969,-27991333.0078125,-4367011.547088623,-8978679.656982422,-6085140.228271484,166525.76625347137,-12553243.637084961,-9799708.366394043,-19818443.298339844,-19789344.787597656,-26556547.164916992,-26382251.739501953,-92952.26633548737,3791418.5523986816,368819.4155693054,-5285302.639007568,-7831821.918487549,-5489590.167999268,-50017269.134521484,-28307071.685791016,2680371.9997406006,2497060.537338257,19886394.500732422,8467155.456542969,285711.795091629,-13704868.31665039,-13057474.136352539,-12434682.846069336,-3222405.9104919434,119540.10277986526,1777101.993560791,7819740.772247314,-15969290.733337402,-16523113.250732422,-16295394.897460938,-5192675.1136779785,1784867.6443099976,-11208415.031433105,-15689079.284667969,-16889057.159423828
0.105,-7630622.863769531,-10523103.713989258,57451541.900634766,-12386235.237121582,-46192024.23095703,-14701361.656188965,-15772055.625915527,-14915644.645690918,-11389078.140258789,-19203445.434570312,-28006937.02697754,-28377801.8951416,-15449737.548828125,-14292057.991027832,-25700172.424316406,-25329231.26220703,-10614768.028259277,-11519196.510314941,-13452666.282653809,-12888632.774353027,-22985982.89489746,-13610598.56414795,-16119918.823242188,-25306806.564331055,-2864380.359649658,-8863731.384277344,-8049261.093139648,38563.85499238968,-13592077.255249023,-10428673.74420166,-20175975.799560547,-18627407.07397461,-23814756.393432617,-23578273.77319336,2450625.8964538574,5006008.148193359,284795.73130607605,-4964740.753173828,-6815354.347229004,-3832249.164581299,-48471042.63305664,-25377187.728881836,8355358.123779297,6854972.362518311,24463575.36315918,13955505.37109375,3228735.4469299316,-10370792.388916016,-9674601.554870605,-9275668.144226074,2920495.2716827393,6782260.417938232,8777625.08392334,13336004.257202148,-15382193.565368652,-15061103.820800781,-14776438.71307373,-5705636.024475098,8553086.280822754,-12291557.312011719,-15357340.812683105,-16536268.23425293
0.11,-8903841.018676758,-11860562.324523926,61562500.0,-14130764.00756836,-47011383.056640625,-13360895.156860352,-16394559.860229492,-15478652.000427246,-12288906.09741211,-21284097.67150879,-28010389.32800293,-26825546.264648438,-13834475.51727295,-12632629.39453125,-25499893.188476562,-24330169.677734375,-10810771.942138672,-11797126.770019531,-14027921.676635742,-11828305.2444458,-21673526.763916016,-11650563.24005127,-14611920.356750488,-25064229.96520996,-1774883.0318450928,-8261711.120605469,-9097523.68927002,-190943.50934028625,-12818750.381469727,-7933378.219604492,-16834087.371826172,-14840419.76928711,-23483102.798461914,-23058895.111083984,4143260.4789733887,6504338.74130249,254472.16629981995,-4201285.362243652,-5488168.716430664,1374142.050743103,-45282333.37402344,-25091562.271118164,9703182.220458984,10367711.067199707,28599218.368530273,18026138.305664062,5683254.241943359,-7514611.24420166,-6917700.76751709,-6439281.463623047,6580754.75692749,11272356.986999512,13487672.805786133,17521961.212158203,-15324716.567993164,-15063988.68560791,-14727694.511413574,-8043155.670166016,13112039.566040039,-12762026.7868042,-15458106.04095459,-16653627.395629883
0.115,-15846726.417541504,-15982939.720153809,60835052.490234375,-17252529.14428711,-44177806.85424805,-20985420.22705078,-20399015.426635742,-19064054.489135742,-11878692.626953125,-18515752.7923584,-23043022.15576172,-22584310.53161621,-11690891.26586914,-10374773.025512695,-32329448.699951172,-28388107.299804688,-10590347.290039062,-11666791.915893555,-11410977.363586426,-8766511.917114258,-17439006.805419922,-9038969.039916992,-12483731.269836426,-31744760.513305664,-5915688.037872314,-9893356.323242188,-9578174.591064453,-250708.07337760925,-10467543.601989746,-4533449.172973633,-13765334.129333496,-13590771.675109863,-30190233.23059082,-29624353.408813477,905738.890171051,5928851.60446167,345051.3780117035,-3685769.557952881,-5754404.544830322,3590039.2532348633,-44752456.66503906,-31995363.235473633,1937383.770942688,6405311.584472656,26098045.349121094,14566743.850708008,4646766.662597656,-8647321.701049805,-8127463.340759277,-7610981.464385986,-531398.0579376221,4328359.603881836,6330031.871795654,14132869.720458984,-18056158.0657959,-17976015.090942383,-17780740.73791504,-12914642.333984375,6093179.702758789,-15062796.592712402,-18104253.7689209,-19339290.618896484
0.12,-21486841.201782227,-17929935.455322266,54468021.392822266,-18725091.9342041,-38898288.72680664,-30768840.789794922,-24355220.794677734,-22654991.149902344,-9677767.753601074,-12965679.168701172,-16324254.989624023,-18076641.082763672,-9905417.442321777,-8681094.1696167,-39875053.40576172,-33204002.380371094,-10565806.38885498,-11582021.713256836,-7670721.530914307,-4891891.956329346,-12198857.307434082,-6663965.225219727,-10737096.786499023,-39219051.361083984,-12799672.12677002,-12382703.78112793,-9452907.56225586,-141959.10096168518,-7723379.611968994,-2403451.2042999268,-13127257.347106934,-14923325.538635254,-37863262.17651367,-37380195.61767578,-4646117.687225342,3938829.6604156494,442143.2614326477,-3423339.1284942627,-7688581.466674805,477054.05950546265,-46242538.45214844,-39708106.994628906,-7431775.5699157715,-1785972.8336334229,19541172.02758789,7508001.804351807,1190672.755241394,-12058378.219604492,-11547023.77319336,-11132620.811462402,-11861818.313598633,-7683505.535125732,-6135397.911071777,7020018.100738525,-22175886.154174805,-21620887.756347656,-21693929.67224121,-16637538.90991211,-6029137.134552002,-19303298.950195312,-22074478.149414062,-23326442.71850586
0.125,-17994230.270385742,-15856167.793273926,50783851.623535156,-16942775.72631836,-37002536.77368164,-27528219.22302246,-22710172.653198242,-21061141.967773438,-7540188.789367676,-11179594.039916992,-14310881.614685059,-17109477.996826172,-9247172.355651855,-8243597.030639648,-36877094.26879883,-30179805.755615234,-9814940.452575684,-10699906.349182129,-6885976.314544678,-3175362.3485565186,-10209912.300109863,-5322677.6123046875,-10187315.940856934,-36343013.763427734,-12499802.589416504,-10940331.45904541,-8434523.582458496,-10529.686696827412,-6614377.498626709,-1885682.463645935,-13352552.41394043,-14117899.894714355,-35201591.49169922,-34976684.5703125,-5089101.791381836,3822977.5428771973,516718.8048362732,-2826855.421066284,-9369319.915771484,-2346796.989440918,-45721790.3137207,-36889675.14038086,-6244715.690612793,-3784355.1635742188,17985366.821289062,6036612.987518311,-694588.6611938477,-12973888.397216797,-12498642.921447754,-12029496.192932129,-12685536.38458252,-9158302.307128906,-7802861.213684082,5451947.6890563965,-22706491.470336914,-21830022.81188965,-22028188.705444336,-13656946.182250977,-7492583.751678467,-19967630.38635254,-22572013.85498047,-23842798.233032227
0.13,-9414971.351623535,-14124859.809875488,55511707.3059082,-14408533.096313477,-41112434.38720703,-11115830.421447754,-16531654.357910156,-15243063.926696777,-8140165.328979492,-16327812.194824219,-19268383.026123047,-20503358.840942383,-9961996.078491211,-8976095.199584961,-24024681.091308594,-19856222.15270996,-8213715.553283691,-9091254.234313965,-10379861.831665039,-5152174.472808838,-13692955.017089844,-5768040.657043457,-10925536.155700684,-23677452.087402344,-2044352.7698516846,-4981576.442718506,-7186720.371246338,99883.92889499664,-8249913.215637207,-2435688.257217407,-12731054.306030273,-9736277.58026123,-22508840.560913086,-22448999.404907227,1229343.1758880615,6603410.243988037,652018.2490348816,-2028805.2558898926,-9505648.612976074,-72343.83374452591,-42553302.76489258,-24129383.087158203,5562991.142272949,3669608.8314056396,24376895.904541016,12154378.890991211,654326.5581130981,-10129475.593566895,-9699180.603027344,-8934112.548828125,-321284.86037254333,3373732.328414917,5006493.091583252,11615238.189697266,-17673263.549804688,-17505027.770996094,-17546194.076538086,-5235286.712646484,5149059.295654297,-13424427.032470703,-17548994.064331055,-18914789.1998291
0.135,-7455229.759216309,-14699980.735778809,61496490.478515625,-14467840.194702148,-43776779.17480469,-3040496.1109161377,-14040777.206420898,-13060252.18963623,-11020953.178405762,-22268672.943115234,-24372085.571289062,-22642034.53063965,-9508553.504943848,-8334908.485412598,-16041172.02758789,-13956480.026245117,-7523902.416229248,-8477992.057800293,-13941761.016845703,-7925441.741943359,-18153308.868408203,-6505358.695983887,-10305044.174194336,-15686793.327331543,6541071.41494751,-784114.7184371948,-6662261.486053467,195003.9267539978,-10678192.138671875,-3658896.4462280273,-11852190.017700195,-6459163.188934326,-14244619.369506836,-14069169.998168945,6387077.808380127,8804250.717163086,796573.4601020813,-1873715.1622772217,-8477052.688598633,3416497.4689483643,-39427551.26953125,-15962759.017944336,14152176.856994629,10972002.983093262,29857948.303222656,17588247.299194336,2466976.6426086426,-7051039.695739746,-6550090.312957764,-5601454.257965088,10846119.88067627,15053744.316101074,17054096.221923828,17280866.622924805,-11558204.650878906,-12606912.612915039,-12376980.781555176,-512575.03032684326,16832231.521606445,-5330038.547515869,-11333039.283752441,-12806431.770324707
0.14,-14044582.36694336,-11285314.559936523,55820858.001708984,-16274171.829223633,-35142822.265625,-18928253.173828125,-19818309.783935547,-18975648.880004883,-12225271.224975586,-19702003.479003906,-20552667.61779785,-16889579.77294922,-4600164.890289307,-3460940.8378601074,-22430929.18395996,-19953758.239746094,-8840783.11920166,-9692348.48022461,-12099182.12890625,-7057773.590087891,-16183023.452758789,-4376625.061035156,-5187149.524688721,-21843215.942382812,151162.59455680847,-3732911.1099243164,-6355159.759521484,197685.74833869934,-10226872.444152832,-5053850.173950195,-11812766.075134277,-8204115.867614746,-20261960.983276367,-19864017.486572266,2775247.33543396,6756328.105926514,749012.82787323,-2168148.994445801,-6660414.695739746,1093365.6692504883,-35867099.76196289,-21889219.284057617,9163393.020629883,7636417.388916016,24214115.142822266,14363924.980163574,1734772.3245620728,-6285056.591033936,-5659572.124481201,-4881333.351135254,7697227.478027344,11509417.533874512,13395606.994628906,14260111.808776855,-9461951.25579834,-11322120.666503906,-10987329.483032227,-5126539.23034668,13016611.099243164,-4451749.801635742,-9086479.187011719,-10434822.082519531
0.145,-17257164.001464844,1541823.8639831543,36413265.228271484,-15421398.162841797,-17841323.852539062,-42110885.62011719,-26865390.77758789,-26194417.95349121,-9052072.525024414,-8376926.422119141,-8611465.454101562,-5470517.635345459,2688029.0508270264,3348312.6163482666,-32776405.334472656,-28913200.37841797,-10331440.925598145,-10813130.378723145,-5209922.790527344,-2628396.987915039,-7371011.257171631,618552.8635978699,2198057.4131011963,-32062362.670898438,-16240547.180175781,-10439229.011535645,-4838943.4814453125,69195.73247432709,-6154618.263244629,-6053273.2009887695,-12209284.782409668,-12002659.797668457,-30837686.53869629,-30530618.66760254,-6329128.265380859,1831037.4021530151,470425.8441925049,-1300748.9442825317,-3576958.179473877,-6259440.898895264,-27331636.428833008,-31961038.58947754,-2218176.1264801025,-3658210.9928131104,9873334.884643555,5380898.475646973,50206.22909069061,-5076920.509338379,-4508067.607879639,-4002036.5715026855,-4231142.044067383,-2127571.3443756104,-940543.7111854553,5241827.011108398,-9194136.619567871,-11564209.938049316,-11369545.936584473,-11775818.824768066,-1120056.8675994873,-9432119.369506836,-8835645.67565918,-9687583.923339844
0.15,-8278904.914855957,16564077.377319336,15709085.464477539,-9596929.550170898,-7221795.558929443,-39457584.381103516,-23662475.5859375,-23329109.19189453,-3572396.993637085,1299891.5910720825,2045.5550402402878,567738.7714385986,4485435.009002686,4617941.856384277,-28331441.87927246,-24999797.821044922,-9090471.267700195,-9210033.416748047,126065.4628276825,224089.92052078247,-673145.9498405457,3181754.3506622314,4085517.8833007812,-27895545.959472656,-22656892.776489258,-11990752.220153809,-2138654.947280884,-40743.07158589363,-2593769.5503234863,-7081501.9607543945,-12456110.954284668,-12058576.583862305,-27382604.598999023,-27654430.389404297,-10000693.321228027,-609366.238117218,203742.95115470886,1279564.2614364624,176911.69679164886,-10297659.873962402,-13352802.276611328,-27972356.79626465,-3692221.4031219482,-9456659.317016602,954897.7017402649,1503921.9856262207,1861420.3929901123,626668.6916351318,958747.923374176,1436797.4996566772,-7473527.908325195,-7278857.231140137,-6854048.728942871,1197936.8925094604,-3516103.2676696777,-6491478.91998291,-6489008.42666626,-7847971.439361572,-6758967.876434326,-8774880.409240723,-3396350.383758545,-3635326.147079468
0.155,5456769.4664001465,19226554.87060547,6761551.856994629,-1613512.5160217285,-14127796.173095703,-2857279.062271118,-8241327.285766602,-8219103.813171387,106517.493724823,542232.4538230896,-3599938.154220581,-6558785.915374756,-4565321.922302246,-4481030.464172363,-5827430.725097656,-5455153.942108154,-4716321.4683532715,-4804669.380187988,-1197109.8184585571,-2168389.7972106934,-4294075.489044189,-2316068.172454834,-4750667.095184326,-5874478.340148926,-8062017.440795898,-4585522.651672363,-7138.182874768972,45286.6367995739,-4103904.2472839355,-9673371.315002441,-14059823.036193848,-8786853.790283203,-5906186.103820801,-6863864.421844482,-2758000.373840332,2528621.6735839844,184082.10575580597,3241867.5422668457,1393917.441368103,-6986471.652984619,-3170662.1646881104,-6492320.0607299805,9878998.756408691,-1493787.5270843506,7286528.11050415,8430421.829223633,7445406.436920166,8502346.03881836,8761116.027832031,9404502.868652344,5225127.696990967,4793719.291687012,4996081.829071045,8099204.063415527,8148148.536682129,4940269.947052002,4924474.716186523,7421041.488647461,5095108.985900879,2598321.1994171143,8012913.703918457,8021375.65612793
0.16,10483492.851257324,5068319.320678711,10376703.262329102,3667718.6489105225,-32854644.775390625,39266242.98095703,8710873.6038208,8732414.245605469,501669.58570480347,-8060688.9724731445,-15773063.659667969,-22895599.365234375,-21111751.556396484,-20637655.25817871,17314872.74169922,14977052.688598633,43921.712785959244,-345374.58419799805,-6986031.532287598,-7422348.976135254,-16153564.453125,-15816356.658935547,-21166183.471679688,17066041.946411133,15454640.38848877,5820500.85067749,381237.7154827118,259765.53559303284,-10123822.212219238,-14598373.413085938,-19820346.83227539,-9829504.013061523,16971494.674682617,15811136.245727539,9007113.456726074,8397656.440734863,368913.4120941162,1644365.906715393,-3461364.269256592,-3164851.665496826,-8688160.89630127,15860537.5289917,25675060.272216797,13324517.250061035,22619667.053222656,18964593.8873291,10060150.146484375,9469587.326049805,10007603.645324707,10750529.289245605,21177633.28552246,21716627.12097168,22324127.197265625,18735158.920288086,14513575.553894043,11757170.677185059,11890306.47277832,19215898.513793945,22162054.06188965,13058647.155761719,14338701.248168945,14027032.852172852
0.165,4401386.260986328,-15031630.516052246,17734535.217285156,3542934.8945617676,-50111579.89501953,55716899.87182617,15283204.078674316,15635714.530944824,-1370908.3795547485,-16116565.704345703,-26669389.724731445,-38848529.81567383,-37527526.85546875,-36735481.26220703,22504425.048828125,20382366.180419922,1810268.9981460571,1053946.2566375732,-11709627.151489258,-11015498.161315918,-27685056.686401367,-32019645.69091797,-37843856.81152344,22449972.15270996,26712116.241455078,10064531.326293945,-553651.3924598694,337708.56261253357,-15873788.833618164,-20352697.372436523,-30243827.81982422,-20458475.11291504,22609407.424926758,21847541.80908203,14547117.233276367,11508462.905883789,551194.2505836487,-3064507.484436035,-13832129.47845459,-7569603.443145752,-30805797.576904297,20946361.541748047,27812068.939208984,20725419.998168945,32045848.846435547,21045824.05090332,3403610.4679107666,-1994639.7542953491,-1142292.6187515259,-395797.9381084442,22608106.61315918,24722200.393676758,25965219.497680664,20713479.99572754,4523744.106292725,2082177.8774261475,2310975.3131866455,14093502.044677734,25562784.19494629,7674602.98538208,4548039.91317749,3640501.2607574463
0.17,-4744625.091552734,-28857160.568237305,20855266.571044922,-1713905.3344726562,-60481220.24536133,46043823.2421875,10101183.891296387,10850974.082946777,-5040224.552154541,-20584911.346435547,-32450519.561767578,-49660854.33959961,-49487712.86010742,-48719879.150390625,10186459.5413208,10500423.431396484,-642397.7017402649,-1632536.1728668213,-13920895.57647705,-12499872.207641602,-34338493.34716797,-45084659.576416016,-50299934.38720703,10346368.789672852,19817438.12561035,5574832.439422607,-2189985.2752685547,133894.97995376587,-18353305.81665039,-24422645.568847656,-41382106.78100586,-35111415.86303711,10754800.796508789,10483960.151672363,10696646.690368652,9955120.086669922,592425.6443977356,-6837739.46762085,-23930475.23498535,-18195316.314697266,-55074214.935302734,8828075.408935547,15833736.419677734,15403592.109680176,29727575.302124023,12905008.316040039,-8559097.290039062,-18279872.89428711,-17473508.834838867,-16680986.404418945,8302301.406860352,11442349.433898926,13151728.630065918,12157285.690307617,-16024253.845214844,-18827386.8560791,-18713844.299316406,-2733564.1384124756,12714009.284973145,-10347044.944763184,-15732832.908630371,-17070587.158203125
0.175,-11626918.79272461,-35269294.73876953,17904855.728149414,-9474404.335021973,-67245948.7915039,33261062.622070312,1720585.1078033447,2657024.145126343,-10230406.761169434,-24273559.5703125,-36237922.66845703,-56143684.38720703,-56488929.748535156,-55842212.67700195,-2376759.5291137695,-974703.7887573242,-5310727.596282959,-6415708.541870117,-16335302.352905273,-14742831.230163574,-37975879.66918945,-51529178.619384766,-57491436.00463867,-2245121.717453003,8738120.079040527,-1383976.697921753,-4290576.457977295,-218940.22822380066,-19084453.582763672,-25907926.559448242,-47456882.47680664,-41884262.08496094,-1701289.0577316284,-1901118.3977127075,4534021.854400635,7305203.437805176,470168.5607433319,-6385644.912719727,-27407602.310180664,-23846183.77685547,-63980926.513671875,-3725570.9171295166,5044202.80456543,6746390.819549561,24791456.22253418,6219229.221343994,-13634544.372558594,-24051780.700683594,-23528987.884521484,-22673175.811767578,-4317975.997924805,-1028543.3530807495,866640.2697563171,5152605.5335998535,-27132019.04296875,-29776367.1875,-29885149.002075195,-12460005.760192871,547814.7268295288,-20794635.772705078,-26712211.60888672,-28170734.405517578
0.18,-17122570.037841797,-39375682.83081055,11777022.361755371,-15102792.739868164,-72056015.01464844,32684959.411621094,-1342856.1687469482,-485447.13854789734,-14222059.24987793,-27835401.53503418,-39558498.38256836,-58711341.857910156,-58262897.49145508,-57539428.7109375,-1331319.6897506714,-2365521.192550659,-8297435.760498047,-9475221.633911133,-19713466.64428711,-18132482.528686523,-40391613.0065918,-50785820.00732422,-58982219.69604492,-1264764.5473480225,8473017.692565918,-2886832.4756622314,-5817972.660064697,-458653.39040756226,-20466897.96447754,-25909814.834594727,-46231037.13989258,-35760040.283203125,-618372.2615242004,-1081321.0010528564,4626017.093658447,8127249.717712402,255073.87518882751,-2724277.0195007324,-23468259.811401367,-18365133.28552246,-54091796.875,-2740971.326828003,8526975.631713867,7254012.584686279,28315259.93347168,11684655.18951416,-5616518.020629883,-13296827.31628418,-12827352.523803711,-12032026.290893555,176988.28876018524,3209633.8272094727,5076341.152191162,10815834.999084473,-17414037.704467773,-18174684.524536133,-18379585.26611328,-4709945.201873779,4936053.75289917,-11303811.073303223,-17104742.0501709,-18544206.619262695
0.185,-20799154.28161621,-42153553.0090332,6923179.149627686,-14801244.735717773,-72107429.50439453,39124526.97753906,1755778.6703109741,2426057.3387145996,-13629920.959472656,-28097955.70373535,-39623046.875,-56579128.26538086,-55274181.3659668,-54366188.049316406,9549089.431762695,4797426.223754883,-7346776.485443115,-8531578.063964844,-21178327.560424805,-19438018.798828125,-40010810.85205078,-45698108.6730957,-55716331.481933594,9754817.962646484,17905303.955078125,2161504.030227661,-5235175.132751465,-423566.3414001465,-21932655.334472656,-25353151.321411133,-41178432.46459961,-24485004.425048828,10529391.288757324,9945065.49835205,11349043.846130371,12480636.596679688,131730.13925552368,398414.88003730774,-17501604.080200195,-8295725.8224487305,-38930610.65673828,8362952.23236084,22147281.646728516,17533998.489379883,38794555.6640625,24860248.565673828,7105123.996734619,2782426.357269287,3541841.506958008,4213205.337524414,16870477.6763916,19820730.209350586,21538253.784179688,24515119.552612305,1502781.1527252197,3030243.6351776123,2930408.477783203,10956536.293029785,21604146.95739746,7055991.172790527,1556789.2789840698,117716.32730960846
0.19,-19838083.267211914,-41331237.79296875,6172108.173370361,-10110923.767089844,-67418151.85546875,41167297.36328125,5462250.232696533,6023855.209350586,-9546418.190002441,-24706314.086914062,-35619503.021240234,-51829433.44116211,-51055145.263671875,-50124622.3449707,15855804.443359375,10191516.876220703,-4548265.45715332,-5607832.908630371,-19491539.001464844,-17087049.48425293,-36158126.83105469,-41274265.28930664,-51667610.16845703,16247558.59375,24322954.177856445,7439726.35269165,-3034972.1908569336,-173649.23655986786,-21462543.487548828,-23742876.052856445,-37502517.70019531,-19265729.904174805,17150194.16809082,16770555.49621582,17156173.706054688,15893292.427062988,273480.1471233368,913346.3501930237,-15134126.663208008,-3829861.879348755,-33587619.78149414,15070959.091186523,30627393.72253418,26228918.075561523,45017669.677734375,31652883.529663086,11350030.899047852,8700169.563293457,9693450.927734375,10413455.00946045,27456315.994262695,30647172.927856445,32237297.05810547,31579145.431518555,9497685.432434082,11187322.616577148,11255596.160888672,18125091.552734375,32452140.80810547,14767412.185668945,9403097.152709961,7963754.177093506
0.195,-15817733.764648438,-38365856.1706543,8310534.477233887,-7195097.44644165,-63101276.39770508,36986766.81518555,4992569.446563721,5553426.265716553,-7259115.219116211,-22249166.48864746,-31669847.48840332,-48576927.185058594,-49110443.115234375,-48333671.56982422,11086556.434631348,7834301.471710205,-4161921.0243225098,-5010312.080383301,-17880756.378173828,-14047472.00012207,-32042182.92236328,-40070213.317871094,-50123939.514160156,11460069.65637207,20911825.18005371,6997842.311859131,-2091967.8211212158,41973.333805799484,-19296314.239501953,-20736570.358276367,-36539150.23803711,-21616817.474365234,12433326.721191406,12277856.826782227,16033260.345458984,14846479.415893555,567793.071269989,86542.39028692245,-16564260.482788086,-6064749.240875244,-38642559.05151367,10502624.51171875,26822797.775268555,24844944.00024414,41458038.330078125,26613176.345825195,5175618.1716918945,2622533.7982177734,3494200.7064819336,4480012.893676758,23567026.138305664,27033767.700195312,28662361.14501953,26377973.556518555,2975860.118865967,2413020.8492279053,2573460.817337036,13648610.11505127,28824926.376342773,8794321.060180664,3025820.016860962,1646509.051322937
0.2,-14046794.891357422,-36889919.28100586,10167550.086975098,-9202123.641967773,-62104907.98950195,33442729.949951172,1562652.1110534668,2103772.6402282715,-9170564.651489258,-23427707.67211914,-31059501.64794922,-47518306.732177734,-48005493.1640625,-47313831.3293457,3743392.9443359375,2426752.5672912598,-7115421.295166016,-7820671.081542969,-19228347.778320312,-13582539.558410645,-30932083.129882812,-39504734.03930664,-49143104.553222656,4006425.380706787,14117915.153503418,2186692.714691162,-3951382.875442505,7892.735302448273,-17833095.55053711,-17863445.281982422,-35581111.907958984,-23134197.235107422,4931960.582733154,4718429.088592529,10563093.185424805,11031159.400939941,659129.9176216125,-86892.57502555847,-17857213.973999023,-7780454.158782959,-42553436.279296875,3137468.8148498535,19611314.77355957,18129621.505737305,34962024.6887207,19158334.732055664,-1382438.4212493896,-3920622.3487854004,-3301907.777786255,-2082192.4209594727,15935497.283935547,19439039.23034668,21233041.763305664,18738037.109375,-3176268.3391571045,-6211170.196533203,-6029769.420623779,9184399.604797363,21151332.85522461,3666776.418685913,-2786803.4839630127,-4080409.049987793
0.205,-14826881.408691406,-36281566.61987305,11307391.166687012,-11872018.814086914,-61477607.72705078,35744964.599609375,319467.12732315063,744623.6610412598,-11350312.232971191,-24835742.950439453,-31716442.108154297,-45537021.63696289,-43792903.900146484,-42994781.494140625,4761141.777038574,2279849.7676849365,-9468402.862548828,-10179471.015930176,-21357995.986938477,-14583868.980407715,-31835330.963134766,-35973613.73901367,-44727725.982666016,5088983.535766602,13432880.401611328,-586683.8693618774,-6273095.13092041,-183973.92332553864,-18124097.82409668,-17171432.495117188,-32922557.830810547,-17840164.184570312,5823203.563690186,5402981.758117676,8049563.407897949,9015770.91217041,431441.69449806213,260916.68009757996,-16899835.58654785,-4945925.712585449,-38217929.84008789,4169866.5618896484,20432601.928710938,16537229.537963867,34492500.30517578,19603523.25439453,-975889.2059326172,-2729570.8656311035,-2149927.3777008057,-903580.6059837341,17914304.733276367,21312589.645385742,23170404.4342041,19324913.024902344,2073150.1579284668,-2085272.7890014648,-1903571.1288452148,13807062.149047852,22883298.873901367,9316844.940185547,2695367.8131103516,1438267.5886154175
0.21,-13029019.355773926,-33403099.060058594,13937370.300292969,-9767786.979675293,-58836219.787597656,42028995.513916016,3709755.8975219727,4035799.503326416,-9438601.49383545,-22631286.62109375,-30339859.008789062,-41582530.9753418,-37213817.59643555,-36280200.95825195,12737035.751342773,8503537.17803955,-7578387.260437012,-8345030.784606934,-20224773.406982422,-13704386.711120605,-31441957.473754883,-30620443.34411621,-38016765.59448242,13237941.74194336,19115606.3079834,2051491.0221099854,-5837625.026702881,-183315.11318683624,-18536386.489868164,-18475448.608398438,-30676811.21826172,-10211774.826049805,13719962.120056152,13293755.531311035,11143089.294433594,10547740.936279297,252818.5248374939,-475610.49461364746,-15855447.769165039,-1672565.8178329468,-31341648.10180664,12190153.121948242,27722124.099731445,21942296.981811523,39391372.68066406,25573474.884033203,2369170.4273223877,1815681.6959381104,2482295.513153076,3717192.4114227295,27251808.166503906,30680011.749267578,32378589.630126953,25580541.610717773,11774435.043334961,7413823.127746582,7556272.506713867,22174196.243286133,32111774.444580078,18096763.610839844,12344372.749328613,11069411.277770996
0.215,-7794010.639190674,-29642234.802246094,17623876.571655273,-4334902.763366699,-57201911.92626953,46640151.97753906,8708166.122436523,9098110.19897461,-4934164.047241211,-18544406.89086914,-27590982.43713379,-38593112.94555664,-33643440.24658203,-32735290.52734375,17029560.089111328,14492790.222167969,-2919934.034347534,-3653214.693069458,-15980895.99609375,-10555235.862731934,-28751512.52746582,-27898515.701293945,-34586086.27319336,17515213.012695312,23622032.165527344,7068539.619445801,-3044855.833053589,178712.94915676117,-17376579.28466797,-19443778.99169922,-31449373.245239258,-8417379.379272461,17846038.818359375,17681467.056274414,15279250.144958496,12988850.593566895,495250.940322876,-2617366.5523529053,-17386730.194091797,-2804781.913757324,-30605924.606323242,16322547.912597656,30745206.832885742,26473957.061767578,42013595.58105469,27375226.974487305,1481315.1359558105,1830440.4020309448,2367898.2257843018,3812420.129776001,31187507.62939453,34743984.22241211,36227588.65356445,27452114.10522461,13382768.630981445,8973942.756652832,9030565.26184082,23660654.067993164,36129341.12548828,17765035.62927246,13720068.93157959,12437538.146972656
0.22,-4779083.251953125,-29281297.68371582,18862546.920776367,-1447673.3207702637,-59560466.76635742,46703205.10864258,11334187.507629395,11880228.996276855,-2338664.770126343,-16519104.00390625,-25971105.575561523,-38292594.90966797,-35018985.748291016,-34241374.96948242,13451866.149902344,15451953.887939453,252736.3896369934,-392371.7737197876,-12559384.3460083,-7904231.548309326,-25643331.52770996,-28921665.19165039,-36129623.41308594,13720369.338989258,22639400.482177734,9868018.15032959,-1259872.9133605957,600413.0244255066,-15336924.55291748,-18706487.65563965,-34140106.201171875,-12897417.068481445,14080532.07397461,14144835.472106934,15605401.992797852,13471492.767333984,959941.6851997375,-4516584.873199463,-20587308.883666992,-6536426.067352295,-35055488.58642578,12436700.820922852,26388860.70251465,24886976.24206543,39300846.099853516,22668119.430541992,-3021441.93649292,-2310090.3034210205,-2087751.865386963,-286067.6646232605,25856098.175048828,29265308.380126953,30702175.14038086,22593677.520751953,7245725.631713867,2680728.6739349365,2718514.6808624268,18411630.630493164,30735527.03857422,9894505.500793457,7381844.520568848,6164195.0607299805
0.225,-6292434.6923828125,-31427728.6529541,17307146.072387695,-2526184.320449829,-63002517.70019531,44870983.1237793,11728074.073791504,12304793.357849121,-2365797.281265259,-16292982.10144043,-25180458.068847656,-38174797.05810547,-36691585.540771484,-35943984.98535156,9445301.055908203,14064899.444580078,500224.9479293823,-175416.4844751358,-12069967.269897461,-7352052.211761475,-23997993.46923828,-30018833.16040039,-37746891.021728516,9595061.302185059,19754470.825195312,9741137.504577637,-2137840.986251831,641717.0763015747,-14461398.124694824,-17577770.233154297,-35300907.135009766,-16305984.497070312,10096136.093139648,10073868.751525879,13306182.861328125,12596624.374389648,1101110.339164734,-4820989.608764648,-22266880.03540039,-7499087.333679199,-36484439.849853516,8311276.435852051,23470127.10571289,21861766.815185547,36465133.66699219,18962284.088134766,-4848587.989807129,-4006011.962890625,-3825383.9015960693,-1912373.0659484863,21344396.591186523,24222045.8984375,25771005.630493164,18770790.100097656,4632796.287536621,-785572.0520019531,-585805.0584793091,17029121.39892578,25856815.338134766,7255701.541900635,4686214.923858643,3614035.3679656982
0.23,-7310753.82232666,-30765201.568603516,17289588.928222656,-3317969.0837860107,-63229984.283447266,45256267.54760742,12522394.180297852,12967141.151428223,-2039009.5710754395,-14684622.764587402,-23316787.719726562,-35903663.635253906,-34418865.20385742,-33539699.55444336,12093164.443969727,14940366.744995117,-150142.20774173737,-1030716.6576385498,-12803909.301757812,-7687393.665313721,-24155574.798583984,-28522157.669067383,-35280311.584472656,12359961.50970459,19878734.588623047,9090948.104858398,-3812634.4680786133,274787.7836227417,-15521421.432495117,-17928249.35913086,-33789260.86425781,-13759983.06274414,13015616.416931152,12652152.061462402,13078109.741210938,12872355.461120605,767781.3172340393,-4218978.8818359375,-21085372.924804688,-4185118.1983947754,-31496692.657470703,11108627.319335938,28909257.888793945,24382122.039794922,38895877.838134766,22196737.28942871,-1677047.9679107666,-407762.8254890442,228917.56892204285,1756657.0043563843,26438875.198364258,28869848.251342773,30523164.749145508,22006774.90234375,11082983.016967773,3660262.5846862793,4112484.4551086426,24821531.295776367,30640510.55908203,15721883.773803711,11133879.661560059,10227347.373962402
0.235,-4675142.288208008,-26779460.906982422,20692462.921142578,-1267593.9798355103,-61593883.5144043,47679367.06542969,13965086.936950684,14333408.35571289,-279351.681470871,-11466097.831726074,-20904941.55883789,-33144744.873046875,-30255004.8828125,-29245506.286621094,17934413.90991211,17420318.603515625,-238801.36013031006,-1316938.9963150024,-12769720.077514648,-7632142.543792725,-25370971.6796875,-26297922.134399414,-31000764.846801758,18347110.748291016,22483261.108398438,9380125.045776367,-4013029.5753479004,-103705.11561632156,-17305562.97302246,-19254930.49621582,-31623561.85913086,-8565423.011779785,19142889.02282715,18483268.73779297,16369649.887084961,14892868.995666504,378947.07918167114,-4035155.773162842,-18485332.489013672,334394.0079212189,-25156641.006469727,17082498.55041504,37036090.85083008,31590797.424316406,44939308.166503906,29214103.69873047,2895630.359649658,5130678.653717041,6311094.760894775,7187748.908996582,36479480.7434082,39023056.03027344,40718196.868896484,29023824.69177246,20054958.34350586,10950483.322143555,11514788.627624512,33694614.41040039,40825317.3828125,26741292.95349121,20136697.76916504,19302267.07458496
0.24,-2504152.297973633,-25008644.104003906,23406566.619873047,989184.6179962158,-62441383.361816406,48303379.05883789,13931237.22076416,14424764.633178711,830031.0373306274,-9521573.066711426,-20043443.67980957,-32351024.627685547,-28508295.0592041,-27535982.131958008,19208026.885986328,17657524.10888672,-538428.9026260376,-1610090.732574463,-12274497.985839844,-7595078.468322754,-26080547.332763672,-25868267.059326172,-29251091.00341797,19594276.428222656,23731325.149536133,10088245.391845703,-2994597.1965789795,-182351.29117965698,-18134321.212768555,-19092023.849487305,-30393224.716186523,-6549763.6795043945,20506958.0078125,19784980.77392578,19857786.178588867,16784578.323364258,313090.0263786316,-4003945.3506469727,-16024755.477905273,3379122.9724884033,-22777610.778808594,18298021.31652832,38056095.123291016,36448299.407958984,48871070.861816406,33240413.665771484,5700403.213500977,8994671.821594238,10271912.574768066,10729940.414428711,40783351.89819336,43792846.6796875,45547115.325927734,33009002.685546875,23227134.704589844,15080877.304077148,15528293.60961914,33387393.951416016,45543109.89379883,29377262.115478516,23338439.94140625,22409936.904907227
0.245,-3771748.5427856445,-27133178.7109375,22799676.8951416,983473.1817245483,-65326522.82714844,45909851.07421875,12368534.088134766,13042110.443115234,414160.43043136597,-9656582.832336426,-20357862.47253418,-32391952.514648438,-28933530.807495117,-28139844.89440918,15309023.8571167,15483392.715454102,-1485889.0771865845,-2387863.6360168457,-12201344.49005127,-7803490.63873291,-24327974.319458008,-25983009.338378906,-29690065.383911133,15565493.5836792,22531845.092773438,10725690.841674805,-2389230.966567993,-40345.30743956566,-17381605.14831543,-16066753.387451172,-29159448.623657227,-8240212.440490723,16517782.211303711,15891761.779785156,20241613.388061523,16984491.3482666,439702.98767089844,-2874105.69190979,-13764476.776123047,4961522.102355957,-23369779.586791992,14290761.947631836,32046890.258789062,35272415.16113281,48274459.83886719,32240489.959716797,7078074.4552612305,10789640.426635742,11761465.072631836,12269676.208496094,36743175.5065918,39956539.154052734,41798370.361328125,32005161.28540039,20237087.24975586,15188352.584838867,15444362.64038086,25293041.229248047,41649467.46826172,23504245.75805664,20335161.209106445,19213068.00842285
0.25,-4053023.338317871,-27483493.80493164,23239284.51538086,359070.68848609924,-65879554.748535156,43800624.84741211,11871045.112609863,12581662.17803955,251505.10668754578,-9636504.173278809,-19601047.51586914,-30794754.028320312,-27995164.87121582,-27360397.338867188,11814711.570739746,14412490.844726562,-1849942.2073364258,-2628541.4695739746,-12146481.51397705,-7031586.647033691,-19772998.809814453,-23840808.868408203,-28755897.521972656,12009729.385375977,20981159.210205078,11510437.965393066,-2630717.7543640137,79082.1984410286,-15680291.175842285,-11592834.47265625,-26843105.31616211,-9611140.251159668,12883747.100830078,12341491.69921875,17869190.216064453,15870500.564575195,415979.68339920044,-972989.559173584,-11689556.121826172,5544032.573699951,-23260261.53564453,10762715.339660645,27679965.97290039,30994058.60900879,45541751.861572266,29031261.444091797,7411476.135253906,10905786.514282227,11672039.031982422,12458229.064941406,30718955.993652344,33725727.08129883,35584362.0300293,28821186.065673828,15876273.155212402,12549420.356750488,12709340.09552002,19188497.54333496,35400493.62182617,17077995.30029297,15927509.307861328,14675914.764404297
0.255,177492.70796775818,-22825016.021728516,28739410.400390625,1206091.4039611816,-63748649.59716797,44031543.73168945,13196927.070617676,13856949.806213379,1010958.0755233765,-8684266.090393066,-18051683.42590332,-28532617.568969727,-25167346.954345703,-24561540.603637695,10838883.399963379,15437641.143798828,-1023504.4956207275,-1832244.873046875,-11524990.08178711,-4692941.665649414,-15085038.185119629,-20021329.879760742,-25955600.73852539,11085737.228393555,20119739.532470703,12111538.887023926,-2962316.0362243652,70705.3393125534,-14229803.085327148,-8446441.650390625,-24882431.030273438,-8710665.702819824,11810157.775878906,11296259.880065918,15102231.0256958,14480627.059936523,196512.72892951965,-430274.21832084656,-10935683.250427246,4666238.784790039,-22193525.314331055,9763199.806213379,28583580.017089844,27508020.401000977,43276260.37597656,26022134.78088379,5238996.0289001465,8778861.999511719,9645792.961120605,10570607.18536377,27601457.595825195,30486307.14416504,32259258.270263672,25783863.067626953,12779934.883117676,7923101.425170898,8066545.486450195,19033897.399902344,32164817.810058594,14563944.816589355,12836790.084838867,11605675.69732666
0.26,4082167.148590088,-18167303.08532715,35041492.4621582,2459877.4909973145,-63516391.75415039,43902072.90649414,13819464.683532715,14525948.524475098,834018.886089325,-8793025.016784668,-18474403.381347656,-28868927.001953125,-23712417.602539062,-23013608.932495117,9129851.341247559,15571028.709411621,-393918.1864261627,-1298135.0421905518,-10831965.446472168,-2515103.816986084,-13617799.758911133,-18079502.10571289,-24518695.831298828,9468324.661254883,18813098.907470703,11621242.52319336,-3212072.6108551025,-31597.77820110321,-13921621.322631836,-8310246.467590332,-25752552.032470703,-8033902.168273926,10057082.176208496,9587273.597717285,13146929.740905762,13076521.873474121,31476.344913244247,-2210935.592651367,-12359130.859375,2337206.1252593994,-22541730.880737305,8002409.934997559,28817911.14807129,25075325.01220703,41297801.97143555,23233337.40234375,608767.2710418701,4961508.274078369,5896615.028381348,6778148.651123047,25656118.392944336,28844156.26525879,30531133.6517334,22945142.74597168,10455728.530883789,3140984.058380127,3254792.9286956787,19322572.708129883,30528984.06982422,13475479.125976562,10610692.977905273,9477799.415588379
0.265,3030031.91947937,-17757684.7076416,35880241.39404297,2822296.8578338623,-66484275.817871094,40988891.6015625,12382164.95513916,13223208.4274292,-767408.8478088379,-10352630.615234375,-21008905.4107666,-31970046.997070312,-25299734.115600586,-24452478.408813477,5415593.147277832,13295438.766479492,-1053837.2993469238,-1984365.3440475464,-10530271.530151367,-2348352.4322509766,-15480731.010437012,-19523653.030395508,-26048015.594482422,5778311.252593994,16786504.7454834,10172056.198120117,-3922799.1104125977,-171065.554022789,-14665179.252624512,-10668754.577636719,-29383363.723754883,-10145277.02331543,6281673.908233643,5880591.39251709,11762046.813964844,11596821.784973145,80827.45224237442,-4385760.78414917,-14743144.035339355,-304475.45647621155,-24384824.752807617,4256774.90234375,23464515.686035156,22431625.366210938,38584239.9597168,20389709.47265625,-3130141.7350769043,2032864.8090362549,2719432.1155548096,3616587.8772735596,21969793.31970215,25518121.71936035,27198644.638061523,20130807.876586914,8695272.445678711,780362.2484207153,886743.3071136475,15673778.533935547,27228723.526000977,11082752.227783203,8929531.09741211,7858148.574829102
0.27,2452584.2666625977,-17062108.993530273,33237548.828125,4015738.4872436523,-67634704.58984375,38150417.32788086,11456317.901611328,12334621.42944336,-956516.5042877197,-10292817.115783691,-21865213.39416504,-34174251.556396484,-27629627.227783203,-26669981.002807617,3274410.2478027344,11482786.178588867,-1778943.5386657715,-2617822.4086761475,-9894639.015197754,-3368877.88772583,-17304014.205932617,-21818490.982055664,-28279012.68005371,3509588.0031585693,15795687.675476074,9264284.133911133,-4823622.226715088,-258366.76359176636,-15427342.414855957,-13428682.327270508,-32643611.907958984,-13896716.117858887,3959935.6651306152,3582095.146179199,10839163.780212402,10510214.805603027,246886.86430454254,-4594163.417816162,-15687981.605529785,-2293483.257293701,-24896221.160888672,2039321.6609954834,16879695.892333984,20128339.767456055,35763404.846191406,18158897.399902344,-3254869.6994781494,1744396.2097167969,2108418.2262420654,3151134.729385376,17742006.301879883,21162372.589111328,22847095.489501953,17955041.885375977,8160119.05670166,809809.8039627075,1040627.4795532227,11581612.586975098,22911401.748657227,8740291.595458984,8303711.891174316,7238943.576812744
0.275,9956050.872802734,-10311183.92944336,33902935.02807617,7838904.38079834,-63315357.20825195,39589733.1237793,13624131.202697754,14381099.700927734,2214861.8698120117,-6753868.103027344,-18797472.00012207,-33043174.743652344,-28222938.537597656,-27292186.737060547,4977781.772613525,12948235.511779785,-815483.3912849426,-1485642.671585083,-8163496.971130371,-3292524.0993499756,-16376216.888427734,-21956130.981445312,-28858888.626098633,4976799.011230469,16703413.009643555,9857255.935668945,-4716240.882873535,-183657.4226617813,-15275972.366333008,-14685714.721679688,-32868240.356445312,-16494239.807128906,5381824.970245361,4995777.606964111,10534510.612487793,10248243.33190918,353139.81771469116,-3292347.9080200195,-14367295.265197754,-3602754.3544769287,-22769029.61730957,3511572.1225738525,16070518.493652344,19464702.606201172,34219829.55932617,17081668.853759766,-1440837.5024795532,2631886.7206573486,2984428.644180298,4033657.0739746094,15920768.737792969,18821933.74633789,20411350.25024414,16807691.57409668,8214349.746704102,442218.48249435425,882738.5306358337,11373886.108398438,20548608.779907227,7994213.581085205,8101537.704467773,7039220.333099365
0.28,21342039.108276367,-1328044.7721481323,37818630.21850586,12078611.373901367,-57360988.61694336,43979549.407958984,17023263.931274414,17645166.397094727,6066896.438598633,-2837886.5718841553,-14939291.000366211,-30515459.060668945,-27956026.077270508,-27233959.197998047,7010246.753692627,15861863.136291504,1252509.1171264648,722240.149974823,-6128682.1365356445,-1913833.737373352,-13874922.752380371,-20331228.256225586,-28730880.737304688,6861021.041870117,17382905.960083008,10814079.284667969,-3526078.224182129,25760.388001799583,-14502788.543701172,-14526651.382446289,-31231723.78540039,-17850406.646728516,7222847.461700439,6920920.372009277,9911612.510681152,10162504.196166992,329031.5270423889,-2933615.6845092773,-12677745.819091797,-4747399.33013916,-21003850.93688965,5305804.252624512,19522157.669067383,19395311.35559082,33581394.19555664,16606441.497802734,-1433336.615562439,1655694.2462921143,2224751.9493103027,2932555.4370880127,16033761.978149414,18633222.579956055,20059095.38269043,16168375.015258789,6745177.745819092,-1985367.0597076416,-1478256.7024230957,12017703.05633545,20235221.86279297,6556429.862976074,6369533.538818359,5318066.120147705
0.285,24261398.315429688,800346.6129302979,38183845.52001953,12505339.622497559,-55822643.2800293,45425395.96557617,17271278.381347656,17868654.251098633,6384848.594665527,-2953071.5942382812,-14708704.948425293,-29989847.18322754,-29352621.07849121,-28902645.111083984,4515009.40322876,15832366.943359375,1891174.554824829,1347819.0898895264,-5502401.351928711,-1505066.990852356,-13143568.03894043,-19938608.169555664,-30350751.876831055,4436533.9279174805,14891350.746154785,9865714.073181152,-3208932.1613311768,147744.283080101,-14314057.350158691,-14901411.056518555,-31639631.271362305,-20786651.611328125,4777377.605438232,4660604.000091553,7128215.312957764,9012257.57598877,208258.7480545044,-4197990.894317627,-13157225.608825684,-6789565.563201904,-23937593.460083008,2863471.746444702,18774517.059326172,17027811.05041504,31814994.81201172,15600124.35913086,-4089376.926422119,-2467717.409133911,-1868883.3713531494,-1612961.1730575562,14344397.54486084,17098684.310913086,18455213.54675293,15088477.13470459,2570162.296295166,-5688053.607940674,-5401440.620422363,7512799.263000488,18570617.67578125,1646258.3541870117,2075922.2507476807,1013171.3151931763
0.29,15191674.23248291,-5378353.118896484,32818332.67211914,8188008.3084106445,-58455677.0324707,40451156.61621094,12752531.051635742,13400418.281555176,2854906.5589904785,-7002054.214477539,-17712427.139282227,-31966281.89086914,-32923355.102539062,-32617889.404296875,-2740224.838256836,11066494.941711426,-367773.3838558197,-1079100.0127792358,-6947045.32623291,-3350181.1027526855,-15361684.799194336,-22447425.842285156,-34120769.50073242,-2662529.706954956,8793312.072753906,6049839.973449707,-5351194.381713867,-3978.375345468521,-15144273.75793457,-16898973.46496582,-36039554.595947266,-26772119.522094727,-2279503.82232666,-2311132.1926116943,1858218.5506820679,6586253.1661987305,51908.76126289368,-4880549.907684326,-15862384.796142578,-10856279.373168945,-31883968.353271484,-4084949.016571045,10274324.417114258,11356291.770935059,27950759.887695312,13316151.61895752,-6736226.0818481445,-8165452.003479004,-7830277.919769287,-7719579.696655273,8459412.574768066,11396802.90222168,12861417.770385742,12819336.891174316,-3182300.806045532,-10027551.651000977,-10096755.981445312,-1676110.029220581,12864495.277404785,-5021363.735198975,-3610210.180282593,-4709519.863128662
0.295,3530887.3653411865,-12585009.574890137,27519914.627075195,2353586.6737365723,-59805637.35961914,30811172.485351562,5951389.789581299,6647683.143615723,-966472.864151001,-10754067.420959473,-19508842.46826172,-33984252.9296875,-36702468.87207031,-36336254.11987305,-11115792.274475098,3748594.5224761963,-4240848.064422607,-5066698.5511779785,-9296043.395996094,-5564132.6904296875,-18091379.165649414,-26118976.593017578,-38023300.17089844,-10998341.56036377,1520478.9638519287,1070301.6519546509,-8521830.558776855,-347065.0613307953,-15776596.069335938,-18612367.630004883,-41611431.12182617,-33087966.918945312,-10506714.820861816,-10676935.195922852,-3264217.8535461426,4210255.146026611,-88494.23378705978,-3107405.662536621,-17773651.123046875,-15907020.568847656,-39666366.57714844,-12279227.256774902,182671.4724302292,5128480.434417725,23618164.0625,10184044.83795166,-6867833.137512207,-12356959.342956543,-12255441.665649414,-11954865.455627441,345902.80055999756,3127104.0439605713,4743043.422698975,9572800.636291504,-8091007.232666016,-14948779.106140137,-15201625.82397461,-9000762.939453125,4667531.967163086,-9004983.901977539,-8313004.493713379,-9454946.517944336
0.3,-1522730.827331543,-15133961.67755127,26948165.893554688,-995089.2329216003,-56758518.21899414,20933113.09814453,722486.0787391663,1448552.2508621216,-1892269.7305679321,-10817093.849182129,-17331495.28503418,-33700992.584228516,-38373947.14355469,-37838665.00854492,-17142280.57861328,-2182330.1315307617,-6771770.000457764,-7445588.111877441,-10413850.784301758,-5255700.11138916,-18137504.57763672,-27509376.525878906,-39729747.7722168,-17045743.942260742,-3421691.1792755127,-1720737.099647522,-9486748.695373535,-617869.9731826782,-14775849.342346191,-17109148.025512695,-43461860.65673828,-35138320.92285156,-16445629.119873047,-16781972.885131836,-4739854.335784912,3374660.4919433594,-169876.23274326324,-158169.4334745407,-15712697.02911377,-17800271.98791504,-41122169.494628906,-18378747.940063477,-3633274.3167877197,2381477.3559570312,21392835.61706543,8152500.152587891,-4639789.10446167,-12358730.31616211,-12238161.087036133,-11789847.373962402,-4969502.4490356445,-2382172.3461151123,-784520.9836959839,7271773.815155029,-9884581.565856934,-18027151.107788086,-18149959.564208984,-10466217.994689941,-894093.7519073486,-8742376.327514648,-9866649.627685547,-11075036.04888916
0.305,40896.378457546234,-13768245.697021484,29101619.720458984,486628.86023521423,-51071086.88354492,15643506.050109863,-4180.900286883116,718728.7211418152,828881.9789886475,-6993688.583374023,-12436591.148376465,-30768533.70666504,-36745922.08862305,-36065635.681152344,-18644163.131713867,-3310461.0443115234,-5652088.642120361,-6012989.9978637695,-8679609.298706055,-1988979.5780181885,-14994183.540344238,-24797431.94580078,-38013076.78222656,-18432077.407836914,-3325913.906097412,-109677.34456062317,-7081018.924713135,-643672.1682548523,-12628094.673156738,-12683762.550354004,-40030246.73461914,-30990535.736083984,-17764364.24255371,-18046590.80505371,-1881640.1958465576,4198222.1603393555,-158252.70116329193,998572.2303390503,-10076433.181762695,-13430578.231811523,-34934043.884277344,-19882194.51904297,-85352.3537516594,4417300.701141357,22013755.798339844,9279719.352722168,-1859347.939491272,-7632744.312286377,-7409883.499145508,-7042516.231536865,-3537721.872329712,-735723.4358787537,660734.236240387,8279316.9021606445,-7295581.817626953,-15084781.646728516,-14927495.002746582,-7600437.641143799,518852.3530960083,-6169635.29586792,-7136121.74987793,-8468067.169189453
0.31,4334143.161773682,-10796104.431152344,30806928.634643555,6516639.709472656,-45736373.90136719,18405033.111572266,4543860.912322998,5196204.18548584,6151217.460632324,-1108679.7714233398,-7584709.644317627,-26646169.662475586,-32267452.239990234,-31507051.467895508,-14451934.814453125,1344937.2053146362,-1186647.5343704224,-1443492.4125671387,-4527928.829193115,1702121.4962005615,-11154107.093811035,-19677379.608154297,-33296894.073486328,-14043369.29321289,2047330.379486084,4737328.52935791,-3565762.519836426,-462457.7462673187,-11585870.742797852,-9445913.314819336,-34824180.603027344,-23234329.223632812,-13271581.649780273,-13378632.545471191,2408818.244934082,5561850.070953369,-43779.57805991173,-802404.3440818787,-5139689.4454956055,-5851025.104522705,-25835884.09423828,-15398196.22039795,6706559.658050537,8711688.995361328,23877498.626708984,13058928.489685059,-97426.09411478043,-856589.6153450012,-648116.8866157532,-282754.510641098,3880940.1988983154,7038848.876953125,8286113.739013672,12278750.4196167,-1024038.0764007568,-6234208.583831787,-5934904.5753479,-2409662.4851226807,8109807.968139648,-2394866.2281036377,-867069.9000358582,-2337892.532348633
0.315,9196396.827697754,-7526199.3408203125,32066886.90185547,12969181.060791016,-42830829.62036133,27237604.14123535,11248091.697692871,11797861.099243164,11081398.963928223,3671149.0154266357,-4900152.206420898,-23795249.938964844,-27494863.510131836,-26696350.09765625,-6406572.341918945,8379346.84753418,3225016.8323516846,2695413.112640381,-975711.1072540283,2909945.7263946533,-9505351.066589355,-16150930.404663086,-28231210.708618164,-5981465.816497803,9266973.495483398,8900906.562805176,-1853744.1492080688,-239270.58279514313,-13031531.33392334,-10646129.608154297,-32443141.93725586,-16679222.106933594,-4991384.983062744,-5090396.404266357,4796878.814697266,6486376.762390137,119169.1905260086,-3899428.129196167,-4834157.943725586,-2049050.5695343018,-19871452.33154297,-7014928.817749023,13334544.18182373,11853334.426879883,25136100.76904297,16068893.432617188,-25392.78008043766,3482303.6193847656,3663694.143295288,4402585.029602051,11757224.082946777,14713777.542114258,16048444.747924805,15587210.655212402,5686896.800994873,1661712.2888565063,1848657.8464508057,4639873.98147583,15879942.893981934,3226815.700531006,5793508.052825928,4280093.193054199
0.32,12000907.897949219,-6548546.314239502,32968173.98071289,13614419.937133789,-43958286.28540039,33439430.236816406,13875810.623168945,14390583.038330078,11178989.41040039,3524463.891983032,-5782526.969909668,-24148981.09436035,-25766942.977905273,-24955770.49255371,-338897.10903167725,11342709.5413208,3452647.2091674805,2549980.1635742188,-1405255.913734436,1057222.9623794556,-10675353.050231934,-16686248.779296875,-26360378.26538086,-86490.4373884201,12918869.972229004,9079190.254211426,-2619458.4369659424,-137261.37578487396,-15623213.768005371,-14572634.69696045,-33597064.97192383,-14349222.183227539,1130009.7703933716,900280.4756164551,4710453.033447266,6904479.026794434,218205.66058158875,-5816279.888153076,-8253825.1876831055,-4348039.150238037,-18705570.220947266,-837032.9737663269,18127897.262573242,13031510.353088379,25611371.994018555,15706548.690795898,-1325691.9384002686,2992731.0943603516,3306720.25680542,4495377.063751221,14373412.132263184,16603353.500366211,18141099.92980957,15257653.23638916,8686112.403869629,2011734.7240447998,1989787.6977920532,10559124.946594238,18037139.892578125,8998941.421508789,8779473.304748535,7372970.104217529
0.325,9353446.960449219,-9916094.779968262,32119834.899902344,6865171.432495117,-48283737.18261719,29477134.704589844,9095822.33428955,9652094.841003418,5004124.641418457,-2224555.730819702,-9798769.9508667,-26827417.373657227,-27507467.26989746,-26690155.029296875,-1189284.4438552856,6956281.1851501465,-1115045.189857483,-2130139.5893096924,-5686448.097229004,-1722427.1297454834,-12696210.861206055,-19186840.057373047,-28209423.065185547,-997880.2800178528,10471109.390258789,5629938.125610352,-4533029.079437256,-211088.21034431458,-16808021.545410156,-16645906.448364258,-34935863.49487305,-15167952.537536621,260071.84386253357,93740.03112316132,3977817.7738189697,7190443.03894043,186137.22920417786,-5463709.831237793,-10515857.696533203,-7239993.095397949,-18964570.999145508,-1655929.0885925293,19189065.93322754,13998139.381408691,26345432.28149414,13642532.348632812,-2660340.3091430664,31154.64560687542,550649.8217582703,1661683.7978363037,11396154.403686523,13328621.864318848,14926590.919494629,13057706.832885742,6561691.761016846,-3337965.965270996,-3437625.1697540283,10033282.279968262,14880475.997924805,10295531.272888184,6599944.591522217,5373297.214508057
0.33,3101607.7995300293,-14017624.855041504,30839002.60925293,-375859.6479892731,-50618080.139160156,18644226.07421875,1547720.7899093628,2101419.21043396,-2091382.9803466797,-8125308.990478516,-13417157.173156738,-28201873.779296875,-28947231.29272461,-28094816.207885742,-7093917.369842529,-414403.85580062866,-6105156.898498535,-6986673.831939697,-9516098.022460938,-2789685.010910034,-13262077.331542969,-19039157.86743164,-29834632.873535156,-6738285.064697266,5118371.00982666,2120973.825454712,-6052594.184875488,-360823.78029823303,-15982015.609741211,-15131568.908691406,-33549331.665039062,-15442309.379577637,-5614190.101623535,-5451918.601989746,4167939.6629333496,7541686.534881592,73676.10931396484,-3728653.907775879,-8640479.08782959,-4989034.175872803,-17014263.153076172,-7363273.620605469,16174787.521362305,15993331.909179688,27952503.204345703,13878730.773925781,-2583626.0318756104,-782366.5142059326,-183499.41074848175,262903.45191955566,8094832.420349121,10752792.358398438,12241340.637207031,13366625.785827637,2336299.8962402344,-6367566.5855407715,-6379786.968231201,3100741.386413574,12163949.966430664,5518212.31842041,2164976.119995117,1071256.9952011108
0.335,501755.65481185913,-12783578.872680664,33040657.04345703,-130937.06965446472,-46143741.607666016,11479649.543762207,-831196.8445777893,-406070.61982154846,-2656515.8367156982,-7294347.286224365,-12736337.661743164,-25832214.35546875,-26609191.89453125,-25688390.731811523,-11601205.825805664,-3431697.130203247,-6550342.082977295,-7345321.6552734375,-8931282.043457031,-1634860.0387573242,-12158271.789550781,-14915231.704711914,-27484994.888305664,-11134298.324584961,1995748.0430603027,1601279.2587280273,-6232997.417449951,-433348.6557006836,-15139439.582824707,-12966983.795166016,-30492635.72692871,-13221929.550170898,-10098643.30291748,-9701069.831848145,4989509.105682373,7895539.7605896,-37602.77479887009,-2749395.6089019775,-5360619.54498291,147316.00880622864,-13631206.512451172,-11644384.384155273,12363553.047180176,17528636.932373047,29645547.86682129,17017807.006835938,-1329686.6416931152,1805123.4483718872,2368271.1124420166,2236980.438232422,8659261.703491211,12348170.280456543,13770095.825195312,16830867.767333984,226248.93486499786,-3423359.8709106445,-3355957.9849243164,-2269048.2139587402,13576072.692871094,-454432.8451156616,-206358.9096069336,-1251346.230506897
0.34,4256698.6083984375,-7048637.866973877,38504291.53442383,6140390.396118164,-37593914.03198242,11985438.346862793,3185873.031616211,3415334.701538086,3613038.5398864746,4212.037194520235,-8380311.012268066,-21767959.594726562,-22182905.197143555,-21220527.64892578,-12025737.762451172,-741216.6595458984,-2594782.590866089,-3459239.721298218,-4784990.7875061035,-103761.48670911789,-11122119.903564453,-10946828.842163086,-22851333.618164062,-11694911.95678711,2045358.1809997559,3562822.5803375244,-4883123.874664307,-405060.2614879608,-16054382.32421875,-13516799.926757812,-29197404.861450195,-10665373.802185059,-10609300.61340332,-10289939.880371094,5089563.369750977,8038949.012756348,-145394.66798305511,-4258176.326751709,-5512553.691864014,1191347.360610962,-12801921.844482422,-12100237.846374512,11013111.114501953,16032327.651977539,29763193.130493164,18641479.4921875,-1076597.2137451172,3897047.519683838,4444418.430328369,4406311.511993408,10541721.34399414,14422527.313232422,15903439.52178955,18625787.73498535,695837.9149436951,66052.01214551926,86306.89233541489,-112651.37791633606,15620430.946350098,-2108269.214630127,200710.4605436325,-828665.6737327576
0.345,7993579.864501953,-4442472.457885742,41618267.05932617,9252466.201782227,-33073493.95751953,13208725.929260254,6610118.389129639,6656612.873077393,8937575.340270996,5801134.5863342285,-5364786.624908447,-20015363.693237305,-20191059.112548828,-19273820.877075195,-12099886.894226074,1887535.572052002,778220.9515571594,-137499.3473291397,-1438286.4236831665,8606.56425356865,-11328314.781188965,-11229047.775268555,-20772027.96936035,-11909391.403198242,1811023.9505767822,4915143.4898376465,-3023310.422897339,-386612.26630210876,-17812677.38342285,-16078969.955444336,-30893672.943115234,-10948228.83605957,-10806936.264038086,-10605359.077453613,3824905.3955078125,7721715.450286865,-254218.6677455902,-7710728.168487549,-9367794.036865234,-3220347.6428985596,-16062442.779541016,-12389001.846313477,10400324.821472168,11450504.302978516,27339900.970458984,14892505.645751953,-3441600.3227233887,1595471.2629318237,2111771.34513855,2596303.2245635986,7980225.563049316,11155172.348022461,12639693.260192871,14616265.296936035,310598.61183166504,-2671157.121658325,-2718694.2100524902,4628174.781799316,12396468.162536621,-539550.8408546448,-2262.922003865242,-1000497.3411560059
0.35,5804680.824279785,-8010691.6427612305,39840145.111083984,4950277.805328369,-35756782.53173828,8660076.141357422,4067019.462585449,3928473.472595215,7273930.549621582,3856413.1259918213,-7155288.219451904,-21277061.462402344,-21456356.048583984,-20661046.981811523,-15234504.699707031,43073.52378964424,-71345.36653757095,-916936.5763664246,-1687864.1843795776,-1183919.4297790527,-11973539.352416992,-13843618.392944336,-22267536.163330078,-14891341.209411621,-653412.401676178,3778783.7982177734,-2429166.555404663,-417734.65275764465,-18166873.931884766,-17069629.669189453,-33068393.70727539,-13402559.280395508,-13925214.767456055,-13602089.881896973,2087204.933166504,7012168.884277344,-265020.57909965515,-10332201.957702637,-12101075.172424316,-6589086.532592773,-19856119.15588379,-15592208.862304688,6904538.631439209,7106226.921081543,23401456.832885742,8072615.623474121,-7135202.884674072,-3449913.263320923,-3128057.0030212402,-2401644.9451446533,649004.6381950378,3208220.958709717,4530144.214630127,7361407.279968262,-3125299.2153167725,-10325016.021728516,-10305788.040161133,2979577.3029327393,4412506.103515625,-1128667.4737930298,-3255552.291870117,-4219255.9242248535
0.355,803172.1115112305,-11910519.59991455,37719829.55932617,-937366.7240142822,-40262359.619140625,1802344.3222045898,-1219799.0417480469,-1573775.8874893188,1330193.5195922852,-3439928.7700653076,-11981401.443481445,-22539806.365966797,-22267721.17614746,-21610462.188720703,-18866918.563842773,-3520662.0693206787,-3508551.3591766357,-4298345.08895874,-4596506.595611572,-2590118.408203125,-11825119.972229004,-13446930.885314941,-23383228.302001953,-18201652.52685547,-2660473.108291626,1500279.3073654175,-3715200.662612915,-391915.08293151855,-16774400.71105957,-14925173.75946045,-32907489.776611328,-13924477.577209473,-17365713.119506836,-16899950.02746582,1452681.8990707397,6515092.849731445,-106760.68067550659,-9950311.660766602,-10397588.729858398,-3696583.9862823486,-19848375.32043457,-19073926.92565918,2232413.7687683105,6367642.402648926,20521425.247192383,4411143.779754639,-9115137.100219727,-5794681.072235107,-5772214.412689209,-5329161.167144775,-4615384.578704834,-1963122.7254867554,-761654.4961929321,3553683.280944824,-7000833.988189697,-15011130.332946777,-14832785.606384277,-4451893.8064575195,-815158.486366272,-5026408.1954956055,-7137222.2900390625,-8112339.019775391
0.36,-736459.3744277954,-11095784.187316895,39194984.436035156,-1970436.453819275,-40920265.197753906,-327149.48058128357,-3023860.9313964844,-3553951.0250091553,-2448615.550994873,-9264055.252075195,-15821787.83416748,-21729965.209960938,-20285255.432128906,-19719081.87866211,-18515790.939331055,-3778811.9316101074,-5664347.6486206055,-6512395.858764648,-7750502.109527588,-3742516.9944763184,-11077926.635742188,-9061483.383178711,-21391754.150390625,-17688901.901245117,-1110367.774963379,500446.7964172363,-5493978.500366211,-270649.0755081177,-15611444.473266602,-12015396.118164062,-30932561.87438965,-10589131.355285645,-16803594.5892334,-16502935.409545898,2393276.9298553467,6700531.482696533,52488.576620817184,-7590272.903442383,-6970171.4515686035,2154522.8958129883,-16552005.767822266,-18586585.998535156,2360993.1468963623,9012651.443481445,20477281.57043457,6588490.009307861,-8109636.306762695,-3202381.8492889404,-3312507.6293945312,-3226599.69329834,-2197068.691253662,826695.3825950623,2184498.3100891113,5986190.7958984375,-7054111.480712891,-12331125.259399414,-12080630.3024292,-7607712.745666504,2070643.9018249512,-7289865.970611572,-7261618.137359619,-8327314.376831055
0.365,1184455.8715820312,-8452432.632446289,41664382.93457031,254087.06068992615,-38681282.04345703,2195950.0312805176,-841257.8105926514,-1391635.1795196533,-2140366.315841675,-10160507.202148438,-16585746.765136719,-20071872.71118164,-17700231.552124023,-17123632.431030273,-14765124.320983887,-862825.9301185608,-5310309.886932373,-6200074.672698975,-9471292.495727539,-4327636.71875,-10645833.015441895,-5467535.495758057,-18493068.69506836,-13979568.481445312,2710435.152053833,1030372.2620010376,-6259908.676147461,-216914.47496414185,-16005281.448364258,-11308011.054992676,-29883266.44897461,-6308981.418609619,-12982117.652893066,-12960461.616516113,3527487.9932403564,7013276.57699585,-52240.412682294846,-6218285.56060791,-6539327.621459961,4134455.680847168,-14267941.47491455,-14846425.05645752,8280262.9470825195,11738913.536071777,22365058.89892578,10918043.13659668,-5964704.0367126465,709392.9648399353,756106.436252594,855958.2233428955,5012013.912200928,8044370.651245117,9704436.302185059,10682150.840759277,-3022760.8680725098,-6199368.000030518,-6004192.82913208,-1397858.1428527832,9510637.283325195,-4261736.869812012,-3168007.6122283936,-4380105.495452881
0.37,2926443.099975586,-7805677.890777588,42165485.38208008,1214280.0092697144,-36688915.25268555,4068274.0211486816,1341889.6198272705,980722.5465774536,88880.29307126999,-6966394.424438477,-14064997.673034668,-18934289.932250977,-16891698.837280273,-16180870.056152344,-12253618.240356445,1138529.658317566,-3826800.82321167,-4624663.352966309,-8642138.481140137,-3146441.4596557617,-10332755.088806152,-5893865.10848999,-17471450.805664062,-11515248.29864502,5048798.084259033,1354077.935218811,-6191818.2373046875,-353858.61992836,-16753955.841064453,-12609904.289245605,-30591087.341308594,-4461952.209472656,-10546592.712402344,-10448580.741882324,3243545.7706451416,6428645.133972168,-390717.8044319153,-7141319.751739502,-9327423.095703125,1239694.1184997559,-14736116.409301758,-12379641.53289795,13309476.852416992,12150776.863098145,23599197.387695312,12430223.46496582,-5273014.068603516,1521725.4161834717,1817056.2982559204,2185211.181640625,9385375.9765625,12070920.944213867,13820333.480834961,12367356.300354004,986032.1879386902,-2968324.1844177246,-2817545.8908081055,6942075.729370117,13667720.794677734,1076144.814491272,983649.5518684387,-355611.5925312042
0.375,4867784.50012207,-6595952.51083374,43566730.49926758,1885528.2068252563,-34012340.5456543,3822512.38822937,2182408.094406128,2190369.8444366455,3325628.5190582275,-1416878.7002563477,-8873465.538024902,-17396211.624145508,-16526813.507080078,-15620962.142944336,-12905146.598815918,741419.0173149109,-2080639.362335205,-2783971.5480804443,-5024029.25491333,296042.7701473236,-9372284.889221191,-7435704.231262207,-17227983.474731445,-12184804.916381836,4820330.619812012,702747.5237846375,-6146658.420562744,-525213.4203910828,-16198892.593383789,-13398305.892944336,-31026956.55822754,-4345846.176147461,-11306459.426879883,-10801737.785339355,1912742.9723739624,5130203.723907471,-630508.6612701416,-8933863.639831543,-11476427.07824707,-1493539.810180664,-15003124.237060547,-12997277.25982666,12113187.789916992,11178651.809692383,22927947.998046875,10611826.89666748,-6583893.299102783,-756991.8036460876,-371470.74937820435,138113.78180980682,8007231.712341309,10381994.247436523,11907764.434814453,10469520.568847656,1655096.7693328857,-3994044.065475464,-3817043.3044433594,8096200.942993164,11921664.237976074,3358579.397201538,1680565.357208252,307427.5553226471
0.38,9139926.91040039,-1834157.109260559,48575439.453125,5438846.588134766,-29016113.28125,3990813.4937286377,3333470.8213806152,3787776.231765747,7506109.714508057,3875291.347503662,-3900111.436843872,-14865682.601928711,-14560983.657836914,-13514179.229736328,-14269681.930541992,-13851.48148983717,-193011.71600818634,-960385.9186172485,-1015197.8731155396,3446627.8553009033,-8467550.277709961,-6107757.091522217,-15446372.032165527,-13665353.775024414,3828871.011734009,141682.78872966766,-5999748.229980469,-499809.98039245605,-14982218.742370605,-12523124.694824219,-29735782.623291016,-3137887.2394561768,-12699361.801147461,-11993748.664855957,1406424.0455627441,4642153.263092041,-600689.2323493958,-9826210.975646973,-10886435.508728027,-906812.7274513245,-12504669.189453125,-14250149.726867676,8110805.511474609,11052911.758422852,21682504.653930664,8798757.553100586,-8263723.373413086,-2825911.045074463,-2503729.5818328857,-2059153.5568237305,5063720.226287842,7318050.384521484,8586751.937866211,8444872.856140137,75807.34044313431,-5805576.801300049,-5670432.090759277,3152841.567993164,8762200.355529785,1918502.5691986084,3746.912581846118,-1306121.587753296
0.385,12533542.63305664,2068311.6912841797,52689777.37426758,8681364.059448242,-25419755.935668945,3965365.6482696533,3958148.47946167,4747020.244598389,9393132.209777832,4376887.798309326,-3994413.8526916504,-13538938.522338867,-12239016.53289795,-11144961.3571167,-14341260.91003418,-356852.4718284607,361481.9049835205,-513463.49716186523,-795486.8674278259,2545877.9335021973,-9278387.069702148,-2931291.5802001953,-12967117.309570312,-13908813.4765625,2916528.7017822266,261119.5147037506,-5364222.049713135,-327185.33277511597,-15089570.999145508,-11279438.972473145,-27896299.362182617,-327611.11855506897,-12693478.58428955,-12244853.019714355,2391964.4355773926,5755981.4453125,-504185.9745979309,-9557630.53894043,-9144408.226013184,1047348.8569259644,-8826157.569885254,-14128547.668457031,8092867.851257324,12153679.847717285,21765424.728393555,9542931.55670166,-8240771.293640137,-2360284.8052978516,-2049761.5337371826,-1664363.145828247,5366586.208343506,7626320.838928223,8871081.352233887,9001194.953918457,-134895.1905965805,-5136286.735534668,-5199309.825897217,976804.6140670776,9072152.137756348,961104.5718193054,-251621.18673324585,-1479668.0212020874
0.39,9714388.847351074,-798334.7773551941,50222396.85058594,5278667.449951172,-28212831.497192383,496701.1511325836,1217142.3435211182,2051575.1838684082,5299718.856811523,-1902428.5078048706,-10388068.199157715,-15347353.9352417,-11876324.653625488,-10769599.914550781,-13998836.517333984,-1697945.8332061768,-2116905.927658081,-2927590.6085968018,-5434341.907501221,-2261006.3552856445,-11494575.500488281,-1601557.6124191284,-12126715.660095215,-13599039.077758789,1381771.6836929321,43849.71037507057,-5007055.282592773,-254718.8401222229,-16568883.895874023,-10864687.9196167,-27018724.44152832,2368762.731552124,-12242134.094238281,-12119379.043579102,3487910.747528076,7231593.608856201,-526070.6543922424,-8583994.86541748,-7653985.023498535,2347949.504852295,-6441442.012786865,-13527124.404907227,12563244.819641113,13139061.92779541,23199724.197387695,12355662.34588623,-5668126.106262207,455403.1491279602,928931.8919181824,1344321.1317062378,8788223.266601562,11175985.336303711,12577801.704406738,11763548.851013184,2963937.759399414,-1578738.4510040283,-1821306.824684143,5789619.922637939,12640158.653259277,3639805.793762207,2919124.8416900635,1721775.770187378
0.395,2760884.7618103027,-7565268.993377686,44055500.03051758,-3174984.6935272217,-34880931.85424805,-4942655.563354492,-3545439.0048980713,-2904636.3830566406,-1913841.3667678833,-9370021.82006836,-17076784.133911133,-18245759.963989258,-12832935.333251953,-11736493.110656738,-14230994.22454834,-3754626.2741088867,-6007164.95513916,-6649337.7685546875,-10285353.660583496,-5983904.3617248535,-12477296.829223633,-2577549.934387207,-12722176.551818848,-13724465.370178223,-232940.95695018768,-1123280.0483703613,-5852587.699890137,-335752.33817100525,-17127126.693725586,-10730330.467224121,-26650007.247924805,3794797.18208313,-12439900.398254395,-12278940.200805664,3371203.1841278076,7309728.622436523,-512963.7122154236,-7155226.230621338,-5649619.579315186,4131756.7825317383,-4974818.706512451,-13605838.775634766,15349123.95477295,13171117.782592773,24018224.716186523,14863953.590393066,-1974955.2011489868,3847228.765487671,4546195.030212402,4950915.813446045,11443695.068359375,14012866.020202637,15529166.221618652,14355151.176452637,7582704.544067383,2815401.315689087,2644847.869873047,12295232.772827148,15384351.73034668,7966569.423675537,7591133.594512939,6406583.309173584
0.4,-161165.37153720856,-9961777.687072754,42370601.654052734,-7430667.400360107,-37213085.17456055,-6901125.907897949,-5271566.390991211,-4769179.344177246,-4615631.580352783,-9722987.174987793,-16933368.682861328,-18633802.41394043,-12936937.33215332,-11972589.492797852,-14794431.686401367,-4584576.12991333,-7310816.764831543,-7946822.166442871,-9966361.999511719,-4667936.8019104,-10873155.59387207,-3394158.6017608643,-12904977.798461914,-14252244.94934082,-435306.3702583313,-2284138.2026672363,-7267750.7400512695,-375400.8710384369,-15437788.009643555,-10259980.201721191,-26062000.274658203,3518600.2254486084,-13067378.044128418,-12596497.535705566,2168944.3588256836,5816775.798797607,-279838.3831977844,-5920222.759246826,-3288303.3752441406,6675839.424133301,-3531111.001968384,-14298379.898071289,12016568.183898926,12345314.979553223,22368654.251098633,14753672.59979248,-323491.00708961487,5216587.066650391,5975013.732910156,6291535.377502441,10165966.987609863,12699102.401733398,14201410.293579102,14318761.825561523,9658877.3727417,4504988.193511963,4613279.342651367,13074515.342712402,13943465.232849121,9047308.921813965,9613245.964050293,8511696.815490723
0.405,3273272.2759246826,-6642940.998077393,47080253.60107422,-4171372.890472412,-32507114.41040039,-5982006.072998047,-3863838.6726379395,-3229115.0093078613,-1215655.0884246826,-2991119.623184204,-10933013.916015625,-16356864.929199219,-12075849.533081055,-11384191.513061523,-16666839.599609375,-5586669.921875,-5487283.706665039,-6300686.359405518,-5354754.447937012,-447925.8060455322,-8659585.952758789,-3036546.468734741,-12407165.52734375,-16203191.757202148,-347158.40220451355,-3054631.233215332,-8074790.954589844,-280973.1364250183,-13141455.65032959,-10247545.24230957,-26031070.709228516,1097381.4725875854,-14996170.997619629,-14300925.254821777,287989.7654056549,3946946.620941162,-4973.04555028677,-5880660.057067871,-2977367.639541626,6904081.344604492,-3519075.632095337,-16441368.103027344,5168578.624725342,10593076.705932617,18615190.505981445,11596837.043762207,-2423992.63381958,2956528.425216675,3516991.61529541,3815386.5337371826,5365423.679351807,7539526.93939209,8998796.463012695,11112324.714660645,6891408.920288086,1246584.0578079224,1567119.5983886719,7383514.881134033,8810667.991638184,4796127.796173096,6779629.230499268,5829443.93157959
0.41,5874666.690826416,-4294867.515563965,52267795.56274414,-1481122.2553253174,-26906162.26196289,-10343287.467956543,-6119774.341583252,-5210418.224334717,554238.9750480652,1459669.1131591797,-6978169.918060303,-13961417.198181152,-10804760.932922363,-10307873.725891113,-21638553.619384766,-11139053.344726562,-5087070.465087891,-5983087.539672852,-2700705.051422119,1479443.4309005737,-8034712.791442871,-1904525.1607894897,-11352149.00970459,-21139362.335205078,-2897233.724594116,-4844471.9314575195,-8700892.448425293,-217365.100979805,-12516978.26385498,-11238345.1461792,-26643831.253051758,-1768424.9877929688,-19871759.41467285,-19122510.91003418,-2124325.2754211426,2696702.003479004,2295.0342390686274,-6704858.779907227,-5268894.195556641,3719831.943511963,-5365535.736083984,-21427614.212036133,1493492.9609298706,8468477.249145508,15818481.4453125,8483330.726623535,-5432241.439819336,-504955.530166626,-224614.36688899994,173492.72966384888,1543543.2195663452,3423806.667327881,4911735.057830811,7931754.112243652,2284038.0668640137,-3725858.9267730713,-3387629.0321350098,1757206.7975997925,4876551.628112793,-775137.3648643494,2193492.650985718,1325325.7274627686
0.415,1532493.3528900146,-6339448.928833008,53607986.45019531,-6586331.844329834,-25745685.577392578,-23513904.571533203,-15408791.542053223,-14365647.315979004,-5273684.024810791,-2673037.528991699,-9163462.63885498,-11692218.780517578,-7051376.819610596,-6429398.059844971,-27771074.295043945,-20947881.6986084,-9246866.226196289,-9999977.111816406,-5520381.450653076,-357741.0876750946,-8023100.852966309,1296564.5790100098,-7443558.692932129,-26982622.146606445,-7316214.561462402,-7996867.1798706055,-10311348.915100098,-332484.99035835266,-13455832.481384277,-11827475.547790527,-25310569.763183594,-322606.4741611481,-25698913.57421875,-24900964.736938477,-3674861.6695404053,2466284.990310669,-223182.3056936264,-6538817.405700684,-6543419.361114502,2019835.4721069336,-5351121.90246582,-27117321.014404297,5220572.471618652,8527029.037475586,17473228.454589844,10302032.470703125,-4320707.79800415,140396.47579193115,331172.97291755676,796495.3184127808,4418309.211730957,6493382.453918457,8054548.263549805,9868981.36138916,2475584.7454071045,-3069132.5664520264,-2746097.3262786865,3359661.102294922,8057196.617126465,-675439.4769668579,2455950.0217437744,1490106.1058044434
0.42,-6209938.049316406,-8035213.470458984,53087989.807128906,-14621093.75,-25993066.787719727,-37494075.775146484,-24898817.06237793,-23916646.95739746,-13490998.268127441,-9951329.231262207,-12668237.686157227,-7127566.814422607,1270275.1159667969,2247535.9439849854,-29689865.112304688,-27951227.18811035,-14410666.465759277,-15014632.225036621,-10338851.928710938,-2646576.166152954,-6337622.165679932,7897747.993469238,1198963.2844924927,-28531848.907470703,-8596385.955810547,-9657812.118530273,-12154762.268066406,-537447.8101730347,-14137905.12084961,-10541749.954223633,-20270803.451538086,7877780.914306641,-27164459.228515625,-26284067.153930664,-2017770.2903747559,3459840.0592803955,-382614.6423816681,-4751642.227172852,-3980331.8977355957,6231572.151184082,-843244.9698448181,-28356510.162353516,13852203.369140625,12839326.858520508,23491359.71069336,17834383.010864258,1356474.1611480713,6069303.035736084,6412569.046020508,6844548.70223999,14401072.50213623,16954143.524169922,18533184.051513672,17670797.34802246,10046087.265014648,5341057.777404785,5790228.366851807,12641589.164733887,18409057.6171875,7227966.30859375,10094004.63104248,8942760.467529297
0.425,-10088676.452636719,-5063096.523284912,54041549.68261719,-16260293.960571289,-22335554.122924805,-43612079.62036133,-26702619.552612305,-25769479.751586914,-14961330.41381836,-11128723.14453125,-11450348.854064941,-538472.1755981445,10723814.010620117,11916576.385498047,-26567718.505859375,-27930437.088012695,-15144432.067871094,-15778393.745422363,-11973152.160644531,-2650580.406188965,-3532083.034515381,14621800.422668457,10761643.409729004,-25220933.91418457,-5147586.822509766,-7533478.736877441,-12199987.411499023,-662376.1653900146,-13905895.233154297,-8565899.848937988,-14933632.850646973,17451875.686645508,-23579137.802124023,-22712871.551513672,2370270.252227783,5189850.807189941,-380044.01326179504,-3367484.0927124023,-466921.44870758057,12243103.981018066,3140441.417694092,-24702257.15637207,19291450.50048828,18480417.251586914,28846937.17956543,24761667.251586914,5676038.74206543,10807211.875915527,11306008.338928223,11754472.732543945,23051891.326904297,25749948.501586914,27258403.778076172,24717901.2298584,18406766.891479492,12982403.755187988,13619174.003601074,21748767.852783203,27014352.798461914,16045475.006103516,18565412.521362305,17352010.72692871
0.43,-8880453.109741211,-587697.8039741516,56738719.94018555,-11958059.310913086,-16611267.08984375,-44464046.478271484,-23504550.93383789,-22468774.795532227,-10013705.253601074,-6219330.310821533,-7099317.0738220215,3271826.0288238525,14264875.411987305,15347074.508666992,-25655097.96142578,-26558578.491210938,-12282064.437866211,-12965680.122375488,-10423643.112182617,-1642166.4953231812,-2636647.7012634277,15643984.7946167,14088886.260986328,-24391736.98425293,-2966425.657272339,-4516527.17590332,-10664942.741394043,-647840.9767150879,-13785426.139831543,-8316120.147705078,-14624057.76977539,19742677.688598633,-22375024.795532227,-21634031.295776367,4746853.351593018,6077696.323394775,-351580.05356788635,-4016763.687133789,-642930.1500320435,12120817.184448242,-965646.2669372559,-23629732.131958008,15078198.432922363,18905145.6451416,28275024.4140625,24081464.767456055,3944710.0162506104,7871511.459350586,8324613.571166992,8895803.451538086,20433633.80432129,22784845.35217285,24227334.97619629,23838085.174560547,17963378.90625,10081366.539001465,10748347.282409668,21502307.891845703,24030805.587768555,16128652.572631836,18286489.486694336,17180025.100708008
0.435,-7101260.662078857,-232915.83359241486,59529487.60986328,-10718719.482421875,-15847810.745239258,-48177574.157714844,-24358026.5045166,-23176540.37475586,-7896736.621856689,-3967185.9741210938,-6344755.172729492,719647.1691131592,9956255.912780762,10850934.028625488,-33023265.838623047,-31321271.896362305,-11872101.783752441,-12409298.89678955,-9924588.203430176,-2206782.579421997,-4803911.209106445,10615977.28729248,9536880.493164062,-32058147.430419922,-7978659.152984619,-5821319.103240967,-10408485.412597656,-500077.486038208,-14436985.969543457,-9703862.190246582,-18986375.80871582,13613348.007202148,-29763021.46911621,-29083240.509033203,1395349.9794006348,5004617.214202881,-297122.0910549164,-4864158.630371094,-3689383.9836120605,6079719.543457031,-11453158.378601074,-31194437.02697754,3882426.2619018555,11990800.857543945,22619100.57067871,17154291.1529541,-323353.26075553894,301139.5335197449,613079.309463501,1167565.107345581,7472621.440887451,9506021.499633789,10983406.066894531,16608972.549438477,8004369.735717773,-918844.997882843,-423899.0843296051,11373444.557189941,10944757.461547852,6380604.267120361,8405590.057373047,7382144.927978516
0.44,-7658517.360687256,-4217018.127441406,60536342.62084961,-16205310.821533203,-21877677.91748047,-54821365.35644531,-30971576.690673828,-29769500.732421875,-13380236.625671387,-9177038.192749023,-11508607.864379883,-5217747.211456299,4140655.040740967,5117151.260375977,-43560405.73120117,-39671592.712402344,-16259294.509887695,-16583646.774291992,-12510452.270507812,-4412484.645843506,-7520190.715789795,6461637.496948242,3800805.09185791,-42954624.17602539,-16687585.830688477,-11464296.340942383,-12811185.836791992,-230941.2658214569,-15165345.191955566,-10120790.481567383,-21565809.24987793,7381580.829620361,-40557838.439941406,-39768627.16674805,-4687857.151031494,3146744.728088379,-70348.47140312195,-3007467.50831604,-4441684.246063232,3053362.6079559326,-17372255.325317383,-42051261.90185547,-4233515.739440918,4093124.3896484375,18336765.28930664,12559553.146362305,97695.4847574234,-2535490.2744293213,-2225114.8223876953,-2022031.7840576172,-3252476.453781128,-1045319.7956085205,491504.2817592621,11924846.649169922,-1353634.7150802612,-7485650.062561035,-7158515.453338623,746920.2876091003,559109.8666191101,-3494606.7333221436,-1081247.2105026245,-2197971.3439941406
0.445,-9119521.141052246,-8059486.389160156,58239616.39404297,-21940649.032592773,-27970415.115356445,-57021450.04272461,-35709857.94067383,-34615413.665771484,-20426218.032836914,-16302576.065063477,-17409833.908081055,-8104479.789733887,3881582.260131836,5183165.073394775,-46463813.78173828,-42322666.16821289,-20761014.938354492,-21112344.74182129,-15576110.83984375,-6178070.545196533,-7780960.0830078125,8824419.021606445,3912635.564804077,-46011177.06298828,-19966957.092285156,-15510872.840881348,-15480393.409729004,46094.8646068573,-15234974.86114502,-8436266.899108887,-18253433.227539062,8384385.108947754,-43652637.48168945,-42715934.75341797,-6898981.094360352,2783684.9689483643,239060.26780605316,723342.2994613647,-1282063.2457733154,7802956.104278564,-12653737.06817627,-45056201.93481445,-2918699.264526367,2802818.0599212646,19610870.361328125,15137821.197509766,5760708.332061768,2320838.9282226562,2753940.5822753906,2530007.1239471436,-2140135.0498199463,539568.4242248535,1967475.175857544,14627176.284790039,-1294246.6735839844,-3479669.0940856934,-3105379.343032837,-1580694.7946548462,2042376.2798309326,-4241907.596588135,-1243737.3399734497,-2499450.445175171
0.45,-9478213.3102417,-8794521.33178711,53687183.38012695,-21592887.87841797,-27202976.22680664,-52714672.08862305,-33509426.11694336,-32525554.656982422,-21199010.848999023,-17406082.153320312,-18046195.98388672,-5554552.5550842285,8798163.414001465,10303436.279296875,-39889522.552490234,-37129108.42895508,-20586334.228515625,-21220354.080200195,-15956287.384033203,-6137498.378753662,-5424759.864807129,15001218.795776367,9080864.906311035,-39183826.4465332,-15426826.477050781,-14039393.424987793,-15605385.780334473,131426.72181129456,-14849060.05859375,-6626554.9659729,-12546198.844909668,14181234.359741211,-36976604.46166992,-36054584.50317383,-3604890.1081085205,4192576.4083862305,307010.8890533447,2216962.5759124756,1749736.3090515137,13948987.007141113,-4401040.554046631,-38223640.44189453,3272607.0880889893,7434879.779815674,23260375.9765625,20116472.244262695,9513887.405395508,7467471.599578857,7887073.040008545,7618009.567260742,5775631.904602051,8707519.53125,9842005.729675293,19693325.04272461,4951206.684112549,3177564.3825531006,3768603.3248901367,2729902.505874634,9874601.364135742,1839277.744293213,4912201.881408691,3695462.465286255
0.455,-8939649.58190918,-7287889.48059082,51240745.544433594,-17448646.545410156,-20939666.748046875,-48863086.70043945,-28817060.470581055,-27852972.03063965,-16300668.716430664,-12284906.387329102,-13479684.829711914,-1350907.802581787,12689458.847045898,14047806.739807129,-33846672.05810547,-32248981.475830078,-17276535.034179688,-18155458.450317383,-13867930.41229248,-4646897.792816162,-2653955.4595947266,18215723.037719727,12803611.755371094,-32661304.473876953,-10603348.731994629,-10396236.419677734,-13912781.715393066,-18949.905410408974,-14362683.296203613,-6584466.934204102,-10352282.524108887,16598634.719848633,-30703346.252441406,-29953596.115112305,-196485.60881614685,5195143.222808838,80295.1380610466,-413737.29705810547,1484017.8489685059,13335459.70916748,-3213580.1315307617,-31847471.237182617,5251975.536346436,10365674.018859863,23444080.352783203,20210071.563720703,6426977.634429932,5523822.30758667,5668423.175811768,5786339.75982666,8074800.491333008,10866874.694824219,11791613.578796387,19725978.85131836,7026809.6923828125,2197455.406188965,2908600.8071899414,5072138.30947876,11729832.649230957,4475857.734680176,7060532.093048096,6025535.583496094
0.46,-8798776.626586914,-5897972.106933594,53400890.3503418,-15624577.522277832,-16444437.026977539,-51204475.40283203,-28215270.99609375,-27175626.754760742,-12440449.714660645,-7466318.130493164,-8780245.780944824,-148288.59269618988,11622929.573059082,12658523.559570312,-37005325.31738281,-34285434.72290039,-15674321.174621582,-16586193.084716797,-11739254.95147705,-2687360.0482940674,-1402295.470237732,16572038.650512695,11330030.44128418,-35555213.928222656,-12493909.83581543,-10105802.536010742,-13309580.80291748,-188716.53079986572,-13569888.1149292,-7357743.263244629,-12448438.64440918,11985277.17590332,-33868667.60253906,-33217697.143554688,-1622200.7274627686,4267372.608184814,-75868.42030286789,-4301054.000854492,-65299.294888973236,7153464.317321777,-9713238.716125488,-34997547.1496582,502429.3065071106,7192546.844482422,19404981.61315918,15008668.899536133,114955.45506477356,-1468797.3260879517,-1654885.8880996704,-1150640.9645080566,925952.1961212158,3450981.855392456,4473945.140838623,14441084.861755371,884302.3777008057,-5607013.22555542,-5054807.186126709,1167616.9633865356,4243022.918701172,-1275390.0289535522,953492.8798675537,-8772.124536335468
0.465,-9633570.671081543,-6009512.424468994,56317157.74536133,-17254436.492919922,-17446857.452392578,-56938194.274902344,-31326307.29675293,-30179483.41369629,-12798371.315002441,-7183835.983276367,-7642654.895782471,-1955869.9131011963,8077342.0333862305,8937001.22833252,-45905452.728271484,-39686660.76660156,-16916145.32470703,-17774324.417114258,-10756740.57006836,-1036589.7417068481,-1836997.151374817,14436614.036560059,7585276.126861572,-44552303.314208984,-18527484.893798828,-13045555.114746094,-14536690.711975098,-160757.914185524,-12418352.127075195,-7014296.054840088,-14945454.597473145,4583651.542663574,-43049442.291259766,-42238185.88256836,-5919577.598571777,2741971.969604492,90036.99570894241,-5826937.198638916,116780.14695644379,2707658.7677001953,-15611435.890197754,-44169212.341308594,-5450709.342956543,1746578.6933898926,15653336.524963379,10021823.88305664,-3029736.9956970215,-6171639.442443848,-6458192.348480225,-5925625.801086426,-7618741.989135742,-5239611.1488342285,-3965176.1054992676,9454178.810119629,-7137785.4347229,-11466900.825500488,-11224731.4453125,-5054050.445556641,-4342411.041259766,-9440237.045288086,-7220455.169677734,-8277150.1541137695
0.47,-10518737.79296875,-6743685.245513916,55488143.92089844,-18068843.841552734,-19890466.690063477,-59608760.833740234,-32468391.41845703,-31289127.349853516,-13853930.473327637,-8978240.013122559,-8785905.838012695,-2818619.4896698,7222374.439239502,8131958.961486816,-50340206.146240234,-40822753.90625,-17586624.145507812,-18430362.701416016,-10099253.65447998,-175322.2793340683,-2727974.1764068604,15827481.269836426,6910899.1622924805,-49125656.12792969,-20654174.8046875,-13909316.062927246,-15271734.237670898,36176.63308978081,-11672580.71899414,-5776431.560516357,-15262909.889221191,757770.4787254333,-47665691.37573242,-46544010.162353516,-7161655.902862549,3095479.2499542236,352530.24101257324,-5147605.895996094,1131507.158279419,2690189.1231536865,-15463175.773620605,-48720550.537109375,-7183548.927307129,283646.70276641846,15514130.592346191,8841537.475585938,-2104829.5497894287,-5822775.363922119,-5925966.739654541,-5637577.056884766,-9435972.213745117,-7115482.807159424,-5766305.446624756,8316222.190856934,-9532556.533813477,-11190215.110778809,-11108977.317810059,-8186623.573303223,-6116668.701171875,-11762279.510498047,-9883286.476135254,-10948890.686035156
0.475,-9341671.94366455,-5592536.449432373,53508407.59277344,-14912974.35760498,-18263134.002685547,-56426692.962646484,-28438364.028930664,-27372968.673706055,-11411594.39086914,-8434633.255004883,-8796669.006347656,-473519.86169815063,10376204.490661621,11376864.433288574,-45920303.34472656,-35905910.49194336,-15089064.598083496,-15863369.941711426,-8932065.0100708,-131111.5324497223,-2965684.652328491,19396320.343017578,10358314.514160156,-44640117.64526367,-15718089.10369873,-9669543.266296387,-13528205.871582031,243506.37197494507,-12165932.655334473,-5692286.491394043,-14622325.897216797,2082928.8959503174,-43113132.47680664,-41846199.03564453,-3092223.1674194336,5827402.114868164,395407.110452652,-5128418.445587158,272250.11587142944,3249767.541885376,-12142020.225524902,-44112468.71948242,-4790931.701660156,3767704.2484283447,17609561.920166016,10171313.285827637,-846038.9971733093,-3811434.030532837,-3628754.3773651123,-3572484.7316741943,-5573814.868927002,-3363977.1938323975,-2146535.873413086,9705563.54522705,-6492035.388946533,-8517795.56274414,-8333338.737487793,-7558198.45199585,-2323118.4482574463,-8016632.080078125,-7051433.086395264,-7884336.948394775
0.48,-4922085.762023926,-1545755.9823989868,55963302.61230469,-9473217.964172363,-13615249.633789062,-48808315.27709961,-21529134.75036621,-20658754.348754883,-6459421.634674072,-5357085.704803467,-7058470.726013184,2333253.860473633,13322636.604309082,14310676.574707031,-37603500.36621094,-29343194.96154785,-11096332.550048828,-11655705.451965332,-7726565.837860107,-531685.1735115051,-2944568.634033203,20722133.63647461,13383859.634399414,-36293525.69580078,-8551860.809326172,-3552629.232406616,-10303219.79522705,389366.4479255676,-13762595.176696777,-7836767.196655273,-15076953.887939453,4700252.056121826,-34676795.959472656,-33587398.529052734,2442308.9027404785,8937506.675720215,275139.83845710754,-7087782.859802246,-2262037.0388031006,1505437.970161438,-10958707.809448242,-35715660.095214844,-1579494.2378997803,7608932.971954346,18799144.744873047,11519042.96875,-1118638.7538909912,-3359207.86857605,-3002223.491668701,-3032321.2146759033,-2404977.798461914,-380536.43703460693,793996.7513084412,11182907.104492188,-3689376.11579895,-7618972.7783203125,-7262413.501739502,-5766957.2830200195,716638.1478309631,-4874049.186706543,-4291224.956512451,-4884112.358093262
0.485,408499.0322589874,2279638.7672424316,60872142.79174805,-6014237.880706787,-11944966.316223145,-40613727.56958008,-16602722.16796875,-15844907.760620117,-3677897.4533081055,-3347752.332687378,-6206475.734710693,1721862.554550171,12136915.20690918,13074574.47052002,-32780811.309814453,-25797035.217285156,-9289052.00958252,-9647068.02368164,-7362355.709075928,-1056339.8599624634,-3875288.248062134,18338777.542114258,12061021.80480957,-31775295.25756836,-6012379.6463012695,-1190231.8000793457,-8377249.717712402,462863.9221191406,-15383129.119873047,-10974855.422973633,-16349969.863891602,4824787.139892578,-30139402.389526367,-29359714.50805664,4035097.122192383,10005771.63696289,232434.67509746552,-9413579.940795898,-3703149.7955322266,-401489.1982078552,-12555922.508239746,-31274444.580078125,-309074.13363456726,7204748.630523682,17753728.86657715,12017713.54675293,-1243423.342704773,-3863082.8857421875,-3543958.4255218506,-3521308.8989257812,-3197579.3838500977,-1368114.5906448364,-8510.760962963104,11821918.487548828,-4313961.029052734,-8119352.340698242,-7750071.048736572,-4720081.806182861,-199746.2660074234,-6562935.352325439,-4790312.767028809,-5426703.453063965
0.49,2168049.8123168945,2247341.1560058594,61180690.76538086,-6887223.243713379,-14629237.174987793,-37695621.490478516,-17073205.947875977,-16271280.288696289,-5336510.181427002,-4174247.2648620605,-7434051.990509033,-516236.90128326416,10386848.449707031,11351697.92175293,-34139713.287353516,-27069606.78100586,-11093483.924865723,-11484345.436096191,-7575142.860412598,-1226928.8301467896,-5034500.1220703125,16685190.200805664,10196263.313293457,-33543354.034423828,-10184847.831726074,-4480805.87387085,-9262435.913085938,423789.0839576721,-15698614.120483398,-12547729.4921875,-15710251.808166504,4363599.77722168,-31968456.268310547,-31338262.5579834,258853.64413261414,8276916.50390625,270702.2428512573,-10024000.16784668,-2474680.9005737305,802443.8619613647,-12731438.636779785,-33164161.682128906,-1880317.5687789917,2339072.2274780273,15023031.234741211,11595296.859741211,150236.20426654816,-3162525.6538391113,-3041041.612625122,-2826742.649078369,-6007175.445556641,-4350444.793701172,-2825814.0087127686,11346233.367919922,-5962933.06350708,-7733063.697814941,-7474822.521209717,-4556562.900543213,-3218549.0131378174,-9859707.832336426,-6241252.422332764,-7078983.306884766
0.495,-676244.9145317078,632062.3159408569,58428890.228271484,-10229243.278503418,-14692891.120910645,-44336505.88989258,-22397077.560424805,-21485960.006713867,-8439162.254333496,-5042548.656463623,-7519985.675811768,2885406.017303467,17222675.323486328,18250503.540039062,-38995937.34741211,-32349803.924560547,-14340314.865112305,-14927718.162536621,-6937486.64855957,216082.99016952515,-3105795.8602905273,22187713.623046875,17050853.729248047,-38408519.74487305,-17339130.401611328,-10130359.649658203,-11758385.65826416,295416.59355163574,-13811870.574951172,-10504001.61743164,-10345787.048339844,9272525.787353516,-36862625.12207031,-36171249.38964844,-5356168.270111084,5075090.408325195,235376.87957286835,-8751606.941223145,705487.4897003174,5249532.699584961,-7656282.424926758,-38078407.287597656,-4729112.62512207,-3093508.9588165283,11856136.322021484,10387845.993041992,2027086.7347717285,-508170.7835197449,-587160.4681015015,-54613.057523965836,-7374019.622802734,-5848936.557769775,-4442992.687225342,9841361.999511719,-4726056.098937988,-5647076.606750488,-5422086.238861084,-4315752.5062561035,-4896501.064300537,-9007837.295532227,-4902406.692504883,-5711910.724639893
0.5,-3705005.407333374,3880247.8313446045,63359958.64868164,-11987564.086914062,-5676997.184753418,-57396965.02685547,-28296382.904052734,-27307264.32800293,-8558488.845825195,-2605628.01361084,-2790374.755859375,15470738.410949707,35646522.521972656,36643871.30737305,-43091789.24560547,-38502632.14111328,-15693280.220031738,-16336822.509765625,-4555830.955505371,4279970.169067383,3677168.846130371,35596263.88549805,35495368.95751953,-42067962.646484375,-22013311.3861084,-13448298.454284668,-13218754.768371582,221375.37598609924,-10060803.413391113,-5097287.178039551,-636168.4203147888,21167043.685913086,-40403278.35083008,-39594661.712646484,-8010884.2849731445,2674654.960632324,158177.83772945404,-7081419.467926025,4512969.970703125,10616056.442260742,1504722.237586975,-41618236.54174805,-5356352.32925415,-4847986.698150635,10006896.018981934,9550931.930541992,2927137.613296509,3037556.4098358154,2874804.4967651367,3742831.7070007324,-5655282.497406006,-4136553.7643432617,-3028636.2171173096,8739099.502563477,-320365.13090133667,-2468192.3389434814,-2156189.6800994873,-2756770.8492279053,-3336433.4106445312,-3457276.5827178955,-582391.2620544434,-1071801.781654358
