time,Fp1,Fpz,Fp2,AF3,AF4,F7,F5,F3,F1,Fz,F2,F4,F6,F8,FT7,FC5,FC3,FC1,FCz,FC2,FC4,FC6,FT8,T7,C5,C3,C1,Cz,C2,C4,C6,T8,TP7,CP5,CP3,CP1,CPz,CP2,CP4,CP6,TP8,P7,P5,P3,P1,Pz,P2,P4,P6,P8,PO7,PO5,PO3,POz,PO4,PO6,PO8,CB1,O1,Oz,O2,CB2
0.0,-2742990.255355835,-2463088.9892578125,-2324481.964111328,-1045708.179473877,-1677690.863609314,56528.545916080475,120454.78075742722,82564.52530622482,-860324.4423866272,-814552.5455474854,-993169.367313385,-985810.9951019287,-1015165.6866073608,-1217511.534690857,54266.62787795067,-665296.4949607849,-419909.9540710449,-421914.9947166443,-621210.1578712463,-625198.0662345886,-624415.2784347534,-583537.4593734741,-994219.3627357483,1474203.7057876587,24620.631709694862,-213508.91888141632,-84683.19475650787,-310413.4500026703,-119681.43284320831,-198492.31839179993,-323918.1935787201,-346166.9087409973,679711.4014625549,31318.549066781998,49080.390483140945,-297314.19682502747,-11246.131733059883,-78539.08836841583,-106025.78520774841,109512.74633407593,135752.48420238495,637232.7208518982,660128.9510726929,668640.3155326843,95825.15060901642,575579.2260169983,235294.4016456604,128896.84736728668,126752.74908542633,135422.7513074875,645793.080329895,659093.4991836548,757637.8583908081,570510.4470252991,241486.51957511902,115164.1458272934,126051.48553848267,1009664.6547317505,750425.1003265381,531421.7805862427,253150.3438949585,256109.5356941223
0.005,-3269001.007080078,14047453.880310059,23145027.16064453,19753038.40637207,8785086.631774902,16434154.510498047,22514839.17236328,21596511.840820312,-2164824.2473602295,5467383.38470459,4276395.320892334,4523744.583129883,3496005.7735443115,8884314.53704834,16751791.000366211,-1900695.80078125,-163853.27279567719,-2525426.149368286,-1245746.8509674072,-2121344.0895080566,-2694313.5261535645,32466.977834701538,-1608808.6366653442,37356712.341308594,3091976.8810272217,-794743.1802749634,2598664.5221710205,-2550890.2072906494,-3076961.2789154053,-2931495.189666748,-4329573.154449463,-8125088.691711426,5420476.913452148,3329511.1656188965,-885685.920715332,-766348.123550415,-280778.34844589233,-2279283.046722412,-4005101.203918457,-7826735.019683838,-7288588.047027588,4494064.3310546875,4937836.170196533,4994546.413421631,3679057.1212768555,3373727.321624756,-1091679.9306869507,-6914457.79800415,-7428628.921508789,-6952255.725860596,4644905.567169189,4900135.040283203,1413352.608680725,3019850.015640259,-685960.2332115173,-7796408.176422119,-7386250.4959106445,-1562392.1155929565,1110936.164855957,2489662.6472473145,-85811.51813268661,-527130.6037902832
0.01,-5922306.060791016,18683633.80432129,30618284.225463867,25412822.723388672,10187355.041503906,19212638.85498047,28261013.03100586,26905969.619750977,-4219196.796417236,6980430.603027344,4396220.684051514,4679355.621337891,3144547.939300537,8963111.877441406,19450777.053833008,-4515249.252319336,-2057923.7937927246,-4657856.9412231445,-2015381.5746307373,-3945097.2080230713,-4675233.364105225,-2349672.555923462,-5822089.195251465,48382888.79394531,1249597.5494384766,-2735586.8816375732,2546015.739440918,-4235841.751098633,-4520524.501800537,-4980499.744415283,-7948041.4390563965,-14205395.698547363,7033903.5987854,1720231.6522598267,-3376487.0166778564,-2719730.1387786865,-577327.0130157471,-3358291.6259765625,-6080301.284790039,-12677411.079406738,-11955239.295959473,5454005.718231201,6303900.241851807,6325064.659118652,3315000.295639038,5355899.333953857,-1138950.3479003906,-11022043.228149414,-11694422.721862793,-11411125.183105469,5879581.451416016,6225556.373596191,2666537.7616882324,4706351.280212402,-766981.7805290222,-12296273.231506348,-11751558.303833008,-3091897.487640381,2190338.134765625,4010601.52053833,153700.3070116043,-392778.99265289307
0.015,-8955109.596252441,14046108.24584961,23346437.454223633,18434421.53930664,4499869.346618652,10554217.338562012,20167728.424072266,18795339.584350586,-5999368.667602539,4647771.835327148,604747.0569610596,712178.5879135132,-794487.7743721008,1967943.1915283203,10453772.54486084,-7705728.530883789,-4825640.2015686035,-5524302.4826049805,-2229217.529296875,-5552897.930145264,-6097457.8857421875,-6409783.840179443,-11491408.348083496,37768486.02294922,-3887307.643890381,-4767432.689666748,991565.8831596375,-4586061.954498291,-4665585.994720459,-6249436.378479004,-10552984.237670898,-17429227.828979492,6137729.167938232,-3346774.8165130615,-6253330.230712891,-5113873.9585876465,-809369.9216842651,-3541314.6018981934,-6573920.249938965,-13838410.377502441,-13183583.25958252,4242741.107940674,5436152.458190918,5346812.2482299805,185123.39890003204,6454762.935638428,-353475.6898880005,-11934707.641601562,-12442353.248596191,-12685896.873474121,4956780.910491943,5274959.087371826,4309793.949127197,5619532.585144043,-265425.3542423248,-13064156.532287598,-12629103.660583496,-2825022.6974487305,3822554.82673645,5043894.7677612305,645617.5446510315,253540.09866714478
0.02,-8947225.570678711,11543740.272521973,18409578.323364258,12882097.244262695,700630.3668022156,3366683.4831237793,13717164.039611816,12399267.196655273,-5895688.533782959,2921474.2183685303,-1965502.142906189,-2099046.468734741,-3381303.071975708,-1644351.840019226,3144995.68939209,-9893858.909606934,-5718732.833862305,-4319877.624511719,-1424868.2260513306,-6293759.346008301,-6682218.551635742,-8667797.088623047,-13633752.822875977,27577367.782592773,-7312413.215637207,-5042010.78414917,791551.3515472412,-3589139.938354492,-4698922.634124756,-7133776.664733887,-11869674.682617188,-18004070.281982422,5308251.857757568,-6954650.402069092,-7420064.926147461,-6085914.134979248,-847322.7620124817,-3740601.7780303955,-6948100.566864014,-13052241.325378418,-12434032.440185547,3402397.394180298,4795228.958129883,4608050.346374512,-1162428.2598495483,7366844.177246094,189919.54624652863,-11445734.024047852,-11797169.68536377,-12192753.791809082,4179886.817932129,4471031.188964844,5321887.969970703,6484260.559082031,198027.98330783844,-12269701.00402832,-11960035.32409668,-1206598.0434417725,4931573.390960693,6026867.389678955,919057.6672554016,619145.4529762268
0.025,-5921448.707580566,15424331.665039062,23429935.455322266,15321347.2366333,2717076.301574707,4247011.661529541,16028308.868408203,14651345.252990723,-4073399.543762207,3698289.394378662,-1185117.9599761963,-1503895.5211639404,-2680513.381958008,1595127.820968628,4285073.280334473,-11069724.082946777,-4591522.693634033,-2678161.382675171,-443341.6724205017,-6341193.675994873,-6750910.28213501,-8191394.805908203,-11412913.32244873,28987743.377685547,-7675165.65322876,-4317758.560180664,1912894.4873809814,-2478604.555130005,-4914912.700653076,-7739324.569702148,-12221390.724182129,-17593461.990356445,5284313.201904297,-7503466.1293029785,-6975228.309631348,-5870899.677276611,-701125.8602142334,-4046265.125274658,-7585813.522338867,-12114068.984985352,-11435290.336608887,3550797.939300537,4942905.902862549,4736486.911773682,1010013.8187408447,8437499.046325684,505513.66806030273,-10823654.174804688,-11228681.564331055,-11388401.03149414,4132249.355316162,4420206.069946289,5028750.419616699,7609675.884246826,654275.5365371704,-11581499.099731445,-11263446.807861328,-19164.09656405449,4734899.997711182,7096977.710723877,1210738.3012771606,848622.0240592957
0.03,-3788372.9934692383,19573427.200317383,30332178.115844727,19678907.39440918,6297849.178314209,7955571.174621582,20402965.545654297,18966960.906982422,-2486356.735229492,5068163.3949279785,619405.5080413818,198215.70813655853,-1040106.0581207275,5584530.830383301,8300234.794616699,-12131104.469299316,-3792586.5650177,-2875270.6050872803,-302992.045879364,-6162228.584289551,-6603894.233703613,-6795475.006103516,-8923573.49395752,34032085.41870117,-7482112.884521484,-4708570.0035095215,2107192.039489746,-2244471.0731506348,-4633440.971374512,-7517004.96673584,-11774947.166442871,-17937442.779541016,5009984.970092773,-7170587.062835693,-6528209.209442139,-6059523.105621338,-527805.9244155884,-3758524.6562957764,-7516785.621643066,-11318647.384643555,-10614402.770996094,3478574.514389038,4718141.555786133,4552615.165710449,3405680.4180145264,8730656.623840332,1042605.6385040283,-9961807.250976562,-10483097.076416016,-10483922.004699707,3832267.0459747314,4094922.5425720215,4035965.919494629,7981776.237487793,1192282.6766967773,-10899245.262145996,-10474526.405334473,-840155.303478241,3756702.8999328613,7285511.9705200195,1728529.930114746,1351318.120956421
0.035,-5430912.971496582,18594089.50805664,30402002.334594727,19376804.35180664,6792985.916137695,7618608.9515686035,19867694.854736328,18492650.985717773,-2531242.847442627,5256312.847137451,1105013.0128860474,651741.6834831238,-679996.0136413574,5048009.395599365,7992867.469787598,-12922926.902770996,-4529693.603515625,-4651728.630065918,-616098.3443260193,-5723813.056945801,-6085832.595825195,-5863455.772399902,-9424600.601196289,33600284.576416016,-8032217.025756836,-6035223.484039307,1095867.1569824219,-2260330.4386138916,-3740203.857421875,-6156775.951385498,-10462871.551513672,-19460327.1484375,4161863.327026367,-7325927.257537842,-6366155.14755249,-6758488.655090332,-434342.4439430237,-2795136.2133026123,-6374965.667724609,-10332530.975341797,-9658604.621887207,2742425.9185791016,3818638.0863189697,3696790.4567718506,2301348.2093811035,7126577.377319336,1239837.2888565063,-8855946.54083252,-9324048.99597168,-9282323.837280273,3052423.2387542725,3281751.871109009,3387470.9606170654,6431396.484375,1173255.5627822876,-9910331.726074219,-9374573.707580566,-3485581.159591675,3071250.9155273438,5528248.7869262695,1815912.9619598389,1589893.6986923218
0.04,-9363047.59979248,14636016.845703125,25428037.643432617,15993819.236755371,4748259.544372559,3518545.8660125732,16525077.819824219,15257255.554199219,-3741271.495819092,4793377.39944458,503703.773021698,75976.61018371582,-1246861.457824707,1597157.597541809,3756165.5044555664,-12867360.11505127,-5661000.2517700195,-5761176.109313965,-344380.9151649475,-5093108.177185059,-5359159.469604492,-5592912.197113037,-11945989.608764648,30042139.053344727,-8372268.6767578125,-6100784.3017578125,921578.6457061768,-1454387.5455856323,-3143147.4685668945,-4643598.0796813965,-9154655.456542969,-21521413.803100586,3246294.2600250244,-7450714.588165283,-5655364.990234375,-6651174.545288086,-362803.8763999939,-2106287.717819214,-5370272.159576416,-9720899.58190918,-9030567.169189453,1841323.1372833252,2843457.6988220215,2756504.774093628,-1377173.4237670898,4562533.378601074,381538.450717926,-8484450.340270996,-8771475.791931152,-8519550.323486328,2263032.1979522705,2492935.4190826416,2994696.1402893066,3892189.5027160645,230556.2198162079,-9449510.57434082,-8845250.129699707,-6537308.692932129,2710291.3856506348,2841319.799423218,983255.922794342,908907.949924469
0.045,-12183455.467224121,12051171.30279541,21546089.17236328,14023183.822631836,2872684.955596924,-101535.20107269287,15296040.534973145,14063110.3515625,-5069530.010223389,4376128.673553467,-391593.90330314636,-752590.5966758728,-1951471.5671539307,-1326120.8534240723,115084.34265851974,-12892196.655273438,-6259086.608886719,-5583299.63684082,219426.42331123352,-5197547.912597656,-5456255.4359436035,-6565394.878387451,-14180429.458618164,28845371.24633789,-8672107.696533203,-4644669.532775879,2107942.1043395996,-345731.61602020264,-3378692.388534546,-4551959.51461792,-9549324.035644531,-23585865.020751953,2082806.5872192383,-7958369.255065918,-4992726.802825928,-5632704.257965088,-225195.37806510925,-2331948.99559021,-5654155.731201172,-10399635.314941406,-9677753.448486328,689350.8434295654,1670792.1028137207,1644266.2477493286,-3285267.114639282,3957629.442214966,-533515.7513618469,-9384469.032287598,-9623569.48852539,-9181257.247924805,1181784.3914031982,1407389.760017395,2067267.656326294,3268483.1619262695,-438155.4126739502,-10297263.145446777,-9685876.846313477,-9092646.598815918,1915740.728378296,2211289.167404175,303821.77233695984,186366.2600517273
0.05,-13154872.89428711,10698375.701904297,19346063.6138916,13255252.838134766,1400149.1069793701,-1842985.5108261108,15599449.157714844,14358547.21069336,-6515927.791595459,3118822.5746154785,-2075105.4286956787,-2347066.4024353027,-3426076.4122009277,-3945811.2716674805,-1561330.9144973755,-14613581.657409668,-7205086.708068848,-6102858.543395996,-411289.7515296936,-6832430.362701416,-7138010.9786987305,-9362895.011901855,-15826899.528503418,28771036.14807129,-10395291.328430176,-4233689.785003662,2457179.069519043,-504440.18840789795,-3742676.019668579,-6110143.184661865,-11915241.241455078,-25461301.803588867,427310.2581501007,-10073156.356811523,-6131325.721740723,-5207732.200622559,-65363.23577165604,-2831838.369369507,-6592338.085174561,-11788562.774658203,-11183879.852294922,-897329.9860954285,34248.702228069305,84976.4496088028,-1483079.5526504517,6730312.347412109,358216.64333343506,-10308066.368103027,-10718170.166015625,-10646380.424499512,-486726.8204689026,-329913.4075641632,1017963.7670516968,5945367.336273193,748098.9694595337,-11466356.27746582,-10906517.028808594,-10880768.775939941,948237.4787330627,5033493.995666504,1349260.4494094849,1063068.3898925781
0.055,-14409502.983093262,8064334.869384766,15581331.253051758,10895201.683044434,-1044526.9346237183,-3196186.065673828,14069066.047668457,12882633.209228516,-8537855.14831543,369058.60900878906,-4956075.668334961,-5158112.049102783,-6236270.904541016,-7824905.872344971,-3024915.4567718506,-17561204.91027832,-9188074.111938477,-8662425.994873047,-2626407.3848724365,-9215600.967407227,-9595108.985900879,-12749243.73626709,-17596393.585205078,26212690.353393555,-12858242.03491211,-6344029.903411865,656428.0390739441,-2067975.5210876465,-3426269.054412842,-7816491.603851318,-14219155.311584473,-26776741.02783203,-691197.5741386414,-12725616.455078125,-8951153.755187988,-6059012.889862061,21010.305732488632,-2664564.1326904297,-6677461.14730835,-12044732.093811035,-11695317.268371582,-1963771.2240219116,-1077775.1207351685,-1023284.5544815063,925904.8104286194,10242836.952209473,2931209.5642089844,-9620738.983154297,-10175350.189208984,-10994417.190551758,-1679521.5606689453,-1610674.1428375244,1094228.1484603882,9334058.76159668,3329651.355743408,-11155278.205871582,-10646018.981933594,-11268395.42388916,929139.9717330933,8568939.208984375,3772225.6183624268,3423608.3030700684
0.06,-17168489.456176758,4347567.081451416,10358633.041381836,7317095.756530762,-4351886.27243042,-4849443.435668945,10977790.832519531,9898018.836975098,-10617510.795593262,-2405699.9683380127,-7936415.195465088,-8169413.5665893555,-9313533.782958984,-11882275.581359863,-4958766.460418701,-19578233.71887207,-11036156.65435791,-11634946.823120117,-4791354.179382324,-10661315.91796875,-11217081.069946289,-14649485.58807373,-19067623.138427734,22556131.36291504,-13643627.166748047,-9084360.122680664,-1465941.071510315,-3217002.8686523438,-2810266.0179138184,-8380756.378173828,-14824558.25805664,-27186456.68029785,-634455.8000564575,-13411612.510681152,-11223160.743713379,-7148223.400115967,71008.8461637497,-2006339.0731811523,-5757157.325744629,-10747886.657714844,-10529368.40057373,-1981538.17653656,-1026390.552520752,-1105687.4990463257,-295036.256313324,10418425.559997559,4769773.006439209,-7813011.169433594,-8240777.015686035,-9762729.64477539,-1679507.851600647,-1620599.627494812,1666051.1493682861,9513014.793395996,4997129.917144775,-9420094.49005127,-8901676.177978516,-9852318.76373291,1380101.6807556152,8729644.775390625,5360415.935516357,5128691.673278809
0.065,-19823362.350463867,1904762.2680664062,7226208.209991455,5268699.645996094,-7005741.119384766,-6557132.244110107,8985618.591308594,7931812.286376953,-11649049.758911133,-3177328.109741211,-9561852.45513916,-9973179.817199707,-11088927.268981934,-13805129.051208496,-6770975.589752197,-20477436.065673828,-11551223.754882812,-12610088.348388672,-5121341.228485107,-10589522.361755371,-11424386.024475098,-15006961.822509766,-19481302.26135254,20867790.22216797,-13337747.573852539,-10373972.89276123,-1802129.3878555298,-2498555.4218292236,-2815366.9834136963,-8139447.212219238,-14812968.254089355,-27231554.03137207,-1476458.0726623535,-12925357.818603516,-12114807.12890625,-7790564.060211182,213034.65962409973,-1802891.1352157593,-5202778.339385986,-10057499.885559082,-9655725.479125977,-2992267.847061157,-1886030.3163528442,-2144802.8087615967,-5146100.5210876465,6750446.319580078,4244011.878967285,-7327714.443206787,-7460838.794708252,-9091862.678527832,-2513769.8650360107,-2396593.5707092285,23278.03336083889,6042680.740356445,4482168.674468994,-8573358.535766602,-8044620.513916016,-8371591.567993164,-146169.85619068146,5126005.64956665,4820537.567138672,4714762.210845947
0.07,-20759670.25756836,1239236.831665039,7376775.26473999,4901908.874511719,-8218702.31628418,-9272713.661193848,7654253.959655762,6469776.153564453,-11771366.119384766,-2103342.294692993,-9589588.165283203,-10216978.073120117,-11192355.155944824,-13467266.082763672,-9236403.465270996,-23025325.775146484,-11823358.535766602,-11751338.005065918,-3697960.138320923,-9810285.568237305,-10831010.818481445,-15491921.424865723,-19491003.036499023,19328296.661376953,-16041976.928710938,-11308106.422424316,-1164127.7074813843,-522381.0076713562,-3383695.8408355713,-7871257.781982422,-15947026.252746582,-28141038.89465332,-5840647.220611572,-15550865.173339844,-13576466.56036377,-8815144.538879395,444784.13462638855,-2249865.0550842285,-5804970.264434814,-12073669.43359375,-11316878.318786621,-7452023.983001709,-6322137.832641602,-6618645.668029785,-9317441.940307617,2851628.065109253,2407798.7670898438,-9605575.561523438,-9587169.647216797,-11047670.364379883,-6849275.588989258,-6698205.947875977,-4699647.426605225,2346876.382827759,2918930.0537109375,-10407524.108886719,-9994886.39831543,-10154603.958129883,-4570049.76272583,1388071.6562271118,3223276.6151428223,3071506.5002441406
0.075,-21344629.287719727,428338.28926086426,7943789.958953857,3450100.4219055176,-8473224.639892578,-13837483.406066895,4127477.1690368652,2760940.7901763916,-12612326.622009277,-1386107.5639724731,-8762280.464172363,-9431350.708007812,-10340768.814086914,-12592262.268066406,-13481950.759887695,-28566095.35217285,-13747988.7008667,-11418444.633483887,-2159353.494644165,-9027877.807617188,-9958134.651184082,-16334306.716918945,-20159664.154052734,14402729.034423828,-22865724.563598633,-13864860.534667969,-1634706.735610962,1143175.3635406494,-3584062.099456787,-7274902.34375,-17434139.251708984,-30192644.119262695,-12090185.165405273,-22385585.78491211,-16616415.023803711,-10633508.682250977,601689.7559165955,-2538714.1704559326,-6640330.791473389,-15788236.618041992,-14813136.100769043,-13618587.493896484,-12698836.326599121,-12833286.28540039,-9095435.14251709,1695017.695426941,1097622.7521896362,-13215426.445007324,-13283349.990844727,-14610407.829284668,-13117758.750915527,-12969344.139099121,-9011021.614074707,1147857.1891784668,1843701.720237732,-13868577.003479004,-13693179.1305542,-15818361.282348633,-8776597.97668457,300282.7763557434,2140450.0007629395,1799701.3330459595
0.08,-23696739.196777344,-1614241.9576644897,6556467.533111572,10547.170415520668,-8325057.9833984375,-17853214.263916016,-1009574.6517181396,-2418224.573135376,-14986726.760864258,-2409575.2239227295,-7769992.351531982,-8230686.187744141,-9274168.968200684,-11882942.199707031,-17464899.06311035,-33486110.68725586,-16637491.226196289,-12829169.273376465,-1826299.548149109,-8234041.213989258,-8879320.14465332,-15753752.708435059,-20748445.510864258,8418998.718261719,-28340175.62866211,-16656829.833984375,-2963813.7817382812,1821052.3128509521,-3117189.884185791,-5789426.803588867,-16937494.2779541,-31761274.337768555,-14673344.612121582,-27854764.938354492,-18498395.919799805,-11763913.15460205,572206.3779830933,-2198269.6056365967,-6531254.291534424,-17995914.459228516,-17069009.78088379,-16011590.957641602,-15344895.362854004,-15285400.390625,-5023501.873016357,2254980.3256988525,520486.7720603943,-15436566.352844238,-15617883.682250977,-16658058.166503906,-15727084.159851074,-15537151.336669922,-8686902.99987793,1472885.4894638062,1203050.7326126099,-16199947.357177734,-16201229.095458984,-20643989.56298828,-8702475.547790527,717534.2440605164,1609843.6117172241,1117867.5889968872
0.085,-25983476.638793945,-2989697.4563598633,5183963.775634766,-2042016.0293579102,-7545689.105987549,-16997228.622436523,-2611401.319503784,-3866586.685180664,-17046928.40576172,-3875580.5492401123,-6850205.898284912,-7024146.08001709,-8275242.805480957,-10208703.04107666,-16809148.78845215,-32629360.19897461,-17206838.607788086,-14458564.758300781,-2453739.4046783447,-7585999.011993408,-7998208.522796631,-13031683.921813965,-19340620.040893555,7933905.601501465,-26777856.826782227,-16110282.897949219,-2830991.744995117,1884794.3544387817,-2784025.6690979004,-4218687.057495117,-14343769.073486328,-30694244.384765625,-10790431.022644043,-26220022.201538086,-16264467.239379883,-10808269.500732422,421415.8356189728,-1852158.4272384644,-5797781.944274902,-17031682.96813965,-16269311.904907227,-11978601.455688477,-11348991.394042969,-11261178.970336914,-557257.8310966492,1924804.6875,-180742.11478233337,-15098813.0569458,-15251038.551330566,-15653087.615966797,-11766333.58001709,-11471653.938293457,-4354706.287384033,1052758.3360671997,245549.18706417084,-15922447.204589844,-15909684.181213379,-19113910.675048828,-4639065.742492676,232487.94674873352,848162.2338294983,356359.3327999115
0.09,-23356254.57763672,-888662.6362800598,7627488.613128662,950297.5940704346,-5391933.917999268,-10788101.196289062,2451527.5955200195,1376127.004623413,-15954320.907592773,-3145380.973815918,-5667344.570159912,-5690227.508544922,-7037503.719329834,-6494232.177734375,-10728678.703308105,-26074670.791625977,-13631244.659423828,-14012578.010559082,-2531948.5664367676,-7412621.974945068,-7754798.889160156,-9916464.805603027,-15725866.317749023,14143203.735351562,-20324060.440063477,-11884159.088134766,-413738.6977672577,1948687.0765686035,-3143743.2765960693,-3875303.5068511963,-12114646.911621094,-26791391.372680664,-4696776.390075684,-19672863.006591797,-11894600.868225098,-8949335.098266602,257061.2132549286,-2149470.329284668,-5590048.789978027,-14410655.02166748,-13695629.119873047,-5856874.465942383,-5062229.633331299,-5100145.33996582,1386869.192123413,269231.8260669708,-1051020.1454162598,-13315889.358520508,-13418236.73248291,-13127437.591552734,-5521795.272827148,-5142753.601074219,-1305462.9564285278,-381995.88656425476,-767263.4720802307,-14001999.855041504,-13888879.776000977,-12337917.32788086,-1513768.5537338257,-1315023.7798690796,-61611.998826265335,-447108.656167984
0.095,-14703667.640686035,5071476.936340332,14630758.285522461,8087293.62487793,-1316330.7905197144,-4523531.913757324,10397226.333618164,9318199.157714844,-11304873.4664917,880217.432975769,-3289055.347442627,-3303823.232650757,-4644509.315490723,-1189410.3288650513,-4447337.1505737305,-19792507.17163086,-8176393.508911133,-11068915.367126465,-657132.3275566101,-7013784.408569336,-7373115.062713623,-7871400.356292725,-11943968.772888184,20158327.102661133,-16637165.069580078,-8087730.407714844,2402187.5858306885,2592863.3213043213,-3578397.512435913,-4285550.594329834,-11582206.726074219,-22271270.751953125,-3101829.767227173,-15968612.670898438,-10671175.956726074,-8755201.33972168,96341.11076593399,-2642951.250076294,-6034103.870391846,-12659543.991088867,-11803152.084350586,-4353613.85345459,-3415266.752243042,-3553948.8792419434,74215.8591747284,-1410365.8199310303,-1486437.439918518,-11920402.526855469,-12163692.474365234,-11482242.584228516,-3907650.947570801,-3515456.6764831543,-3301390.1710510254,-1779448.15158844,-1108301.1627197266,-12399240.493774414,-12281955.71899414,-8049839.973449707,-3244241.952896118,-2685253.858566284,-504955.58977127075,-768669.7840690613
0.1,-5529787.540435791,12001966.47644043,22613147.735595703,14422541.618347168,4097226.142883301,-3318695.7836151123,14539526.93939209,13283927.917480469,-6067420.959472656,6256704.330444336,728277.6832580566,719397.7236747742,-616957.6644897461,4079384.8037719727,-3268588.3045196533,-18629636.764526367,-4787950.9925842285,-7485481.262207031,2872059.5836639404,-5039316.177368164,-5454745.769500732,-5901218.891143799,-9520491.600036621,20066120.147705078,-18906427.38342285,-7962412.8341674805,3660604.0000915527,4113832.950592041,-3315535.306930542,-3529980.182647705,-11163267.135620117,-19376300.811767578,-7110161.304473877,-18345508.575439453,-14121095.657348633,-10756201.74407959,-73277.2946357727,-2503862.142562866,-6161941.051483154,-12557369.232177734,-11533960.342407227,-8520553.588867188,-7545548.439025879,-7660443.305969238,-3402366.876602173,-2818894.863128662,-1691894.8888778687,-11803857.803344727,-12349262.237548828,-11406566.619873047,-8110965.728759766,-7733358.860015869,-8128639.221191406,-3159622.6692199707,-1154629.3497085571,-12156109.809875488,-12128722.190856934,-11239212.036132812,-8073543.548583984,-3910070.1808929443,-747116.1484718323,-894152.5220870972
0.105,-1250930.905342102,16742198.944091797,27854000.091552734,16565284.729003906,8974573.135375977,-5413068.2945251465,13515712.73803711,12134337.425231934,-3525095.7012176514,9498600.959777832,4943938.732147217,4982266.902923584,3679895.4010009766,7952911.376953125,-5486728.668212891,-20568128.58581543,-4601107.597351074,-5600575.923919678,5751289.844512939,-1943173.7661361694,-2524199.962615967,-2616732.120513916,-7610180.377960205,16961839.67590332,-22037971.49658203,-9670276.641845703,3615009.307861328,5740186.69128418,-2756840.705871582,-1305796.8616485596,-9141162.872314453,-17950696.94519043,-10945862.770080566,-21628597.259521484,-17498584.747314453,-12718820.571899414,-222536.6085767746,-1956315.9942626953,-5611546.516418457,-12908065.795898438,-11921890.258789062,-12482650.756835938,-11463900.566101074,-11507981.300354004,-6772401.809692383,-4433844.089508057,-2381842.851638794,-12467144.012451172,-13225214.004516602,-11785060.88256836,-12142535.209655762,-11774212.837219238,-10217191.696166992,-4952421.188354492,-1842387.6762390137,-12772061.347961426,-12769169.807434082,-17236572.265625,-10525156.97479248,-5594665.050506592,-1521920.084953308,-1561635.3750228882
0.11,-112079.09882068634,19043365.478515625,30405366.897583008,16273096.084594727,11571740.15045166,-4372369.289398193,12575889.587402344,11265923.500061035,-3892298.2215881348,8856961.250305176,6879686.35559082,6902175.9033203125,5764788.627624512,10433588.981628418,-4466076.374053955,-19933006.286621094,-5088839.530944824,-6177662.8494262695,5666531.085968018,-490226.5965938568,-1368838.6678695679,1066068.0532455444,-4704002.857208252,18398841.857910156,-20014907.836914062,-9273410.79711914,3648141.860961914,5859198.093414307,-2885070.562362671,113658.24937820435,-6275124.073028564,-16005884.170532227,-9074165.344238281,-19651992.797851562,-15759885.787963867,-12566862.106323242,-336815.80424308777,-2026535.2725982666,-5186228.7521362305,-12189344.40612793,-11483668.327331543,-10604733.46710205,-9502512.93182373,-9534091.94946289,-7758193.492889404,-5236192.226409912,-3118391.752243042,-12554435.729980469,-13271639.823913574,-11225995.063781738,-10247840.881347656,-9913923.263549805,-6938749.313354492,-5856733.322143555,-2751053.810119629,-12819014.549255371,-12723795.890808105,-17429838.180541992,-7577882.289886475,-6502843.856811523,-2355141.4012908936,-2380260.705947876
0.115,2839806.079864502,20258090.97290039,31928520.20263672,16866344.451904297,11408436.77520752,1717000.3652572632,15666658.401489258,14509493.827819824,-4965947.62802124,5835466.384887695,5513629.43649292,5406994.342803955,4486823.081970215,11945205.688476562,1810467.8392410278,-15421683.311462402,-3927766.3230895996,-7980016.708374023,2846120.3575134277,-2517787.456512451,-3669529.1996002197,2675652.9808044434,-1521860.8379364014,25533063.888549805,-13950497.6272583,-6407153.606414795,4037569.999694824,4036750.316619873,-3675376.6536712646,-1145937.9196166992,-4705501.556396484,-12889766.693115234,-2845427.989959717,-13491355.895996094,-10028477.668762207,-10847573.280334473,-448072.7016925812,-2933436.393737793,-5467966.556549072,-10121761.322021484,-9719052.3147583,-4241356.372833252,-3164109.468460083,-3233633.9950561523,-6125944.6144104,-3539783.239364624,-2517002.1057128906,-11121660.232543945,-11635928.1539917,-9410093.307495117,-3888642.0726776123,-3604658.603668213,-1190808.4154129028,-4115082.263946533,-2341156.482696533,-11339381.217956543,-11173042.297363281,-10653285.026550293,-1795225.1434326172,-4748236.656188965,-1820811.39087677,-2013398.6473083496
0.12,6846468.448638916,19974231.719970703,31533744.81201172,17768310.546875,8835622.787475586,6818116.664886475,19321638.107299805,18198450.088500977,-5464421.74911499,3343882.0838928223,2249905.586242676,2026942.9683685303,1153284.3112945557,11698318.481445312,7088926.792144775,-11993640.899658203,-2211281.2995910645,-9171587.944030762,136670.35102844238,-6141513.824462891,-7334926.128387451,1186350.703239441,-727802.9322624207,30810161.590576172,-10261034.01184082,-4517821.788787842,3931608.4384918213,2244246.7212677,-4029250.6217956543,-3832192.6593780518,-5374558.925628662,-10695142.74597168,1316349.1487503052,-9689848.899841309,-6026540.279388428,-9817205.429077148,-532866.1203384399,-3618460.6552124023,-5882563.11416626,-7997996.3302612305,-7670635.70022583,61531.249433755875,953346.6696739197,861370.4442977905,-4262850.761413574,-302251.07073783875,-475615.41199684143,-8853827.476501465,-9221148.490905762,-7419632.911682129,251014.8286819458,551524.1026878357,2100041.8663024902,-880956.23254776,-397651.7915725708,-9053544.044494629,-8950380.325317383,-4660446.643829346,1781961.0834121704,-1393336.4152908325,204790.1451587677,-256353.9445400238
0.125,6342722.8927612305,16680526.733398438,27214805.603027344,15713943.481445312,4462784.767150879,4960323.333740234,17656852.72216797,16433223.724365234,-6117387.294769287,2770187.8547668457,-803323.0900764465,-977531.0158729553,-2036634.2067718506,8535324.096679688,5153137.20703125,-14014718.055725098,-2643433.3324432373,-9172029.495239258,40093.36978197098,-7880757.3318481445,-8831135.749816895,-1849010.4675292969,-3499334.5737457275,27833223.342895508,-12346721.649169922,-5863412.380218506,3006415.605545044,2738962.411880493,-3382243.1564331055,-5132908.344268799,-7474843.978881836,-11579889.297485352,-375068.66455078125,-11773232.460021973,-7148035.049438477,-10856643.676757812,-500704.5865058899,-3192621.4694976807,-5725234.508514404,-7525965.690612793,-7042109.489440918,-1583292.3650741577,-834860.2652549744,-920981.1091423035,-4413414.001464844,1146097.7792739868,1223116.159439087,-7649330.615997314,-8052586.555480957,-6838618.755340576,-1592609.8823547363,-1195317.9836273193,1062806.248664856,422154.9332141876,1282291.293144226,-7874195.575714111,-7890230.655670166,-5534779.071807861,958729.3267250061,14610.855840146542,1946398.4966278076,1346955.8954238892
0.13,1109761.357307434,12119021.41571045,21342048.64501953,11477202.415466309,142887.47310638428,-1058800.5781173706,11904154.777526855,10587362.289428711,-7190319.061279297,3477100.133895874,-2450114.7270202637,-2445871.114730835,-3725575.4470825195,4033048.152923584,-1113400.8169174194,-19138183.59375,-5230597.496032715,-8916723.251342773,2121926.0692596436,-6965820.789337158,-7523652.076721191,-3853775.2628326416,-7468841.552734375,20105173.110961914,-17093973.15979004,-8689689.636230469,2059674.2630004883,4946883.678436279,-2496601.104736328,-4147860.527038574,-9502700.805664062,-14473718.643188477,-5025273.79989624,-16602533.340454102,-11281280.517578125,-13317663.192749023,-363918.0064201355,-2121443.9868927,-5302130.699157715,-8955878.257751465,-8300502.777099609,-6276655.197143555,-5433228.492736816,-5534432.411193848,-5683133.602142334,-297268.3310508728,1281166.7919158936,-8477618.217468262,-9039385.795593262,-8068928.7185668945,-6260798.454284668,-5812830.448150635,-2064554.214477539,-1136942.3866271973,1362144.8278427124,-8738138.198852539,-8787471.771240234,-10083313.941955566,-2154108.762741089,-1624153.1372070312,2086075.782775879,1599172.592163086
0.135,-925137.996673584,11494436.264038086,20317354.202270508,11320516.586303711,-739743.8883781433,-3024609.5657348633,10258624.076843262,8926501.274108887,-6741502.285003662,4677997.589111328,-2142763.137817383,-2025669.5747375488,-3361180.067062378,2439304.1133880615,-3195982.2177886963,-21151916.50390625,-6543944.835662842,-9179992.67578125,3939567.3274993896,-5708928.58505249,-5922920.703887939,-3369144.6781158447,-9161272.048950195,16616394.04296875,-19428302.764892578,-9897702.21710205,1998534.3217849731,5980382.442474365,-2290609.59815979,-2429591.8941497803,-10133960.723876953,-16054491.04309082,-7071163.177490234,-19008502.960205078,-14174373.626708984,-15371639.251708984,-289834.8569869995,-1475628.2567977905,-5290817.737579346,-10542182.922363281,-9859197.616577148,-8423599.243164062,-7328553.676605225,-7518187.046051025,-5228844.64263916,-1642460.7038497925,665480.4944992065,-10078892.707824707,-10733143.80645752,-9633876.80053711,-8146042.823791504,-7792151.45111084,-4133250.7133483887,-2418275.5947113037,810298.1448173523,-10330045.700073242,-10312271.118164062,-11421179.77142334,-4299362.659454346,-3106771.70753479,1521021.4853286743,1263087.9878997803
0.14,5366364.002227783,16915760.040283203,26289646.14868164,18778816.22314453,3500730.514526367,1551877.498626709,16819255.828857422,15486494.064331055,-3056892.8718566895,6404370.7847595215,229549.378156662,272596.24004364014,-964996.5763092041,5178156.852722168,1500061.5119934082,-17804653.16772461,-3984401.9412994385,-9256438.255310059,4118095.874786377,-5786253.452301025,-5851775.646209717,-1287626.9817352295,-8347711.563110352,20228086.471557617,-17799724.578857422,-8714762.687683105,2953787.8036499023,4530805.1109313965,-2668073.6541748047,-1584147.572517395,-9199996.948242188,-15253528.594970703,-4689524.6505737305,-17421070.098876953,-13834706.30645752,-15484866.14227295,-363902.12178230286,-1616852.4026870728,-5657542.2286987305,-10692873.001098633,-10068964.958190918,-6207645.416259766,-4917017.459869385,-5283345.2224731445,-2257344.7227478027,-284752.4881362915,867261.8269920349,-10700860.977172852,-11239553.451538086,-9977791.786193848,-5696900.844573975,-5491856.098175049,-4044974.8039245605,-915250.3609657288,1085612.416267395,-10885498.046875,-10775563.24005127,-8622506.141662598,-4254377.841949463,-1690800.0707626343,1657594.3231582642,1554964.303970337
0.145,13787100.791931152,23173101.4251709,32797744.750976562,27685150.146484375,9429961.204528809,6176229.953765869,24914173.126220703,23551483.154296875,1780530.8103561401,8132462.501525879,3204745.054244995,3088531.017303467,1970966.5775299072,7456319.332122803,6289904.1175842285,-13288206.100463867,440093.7259197235,-8179309.844970703,3371231.3175201416,-6388150.215148926,-6529804.229736328,-419003.09920310974,-8590860.366821289,24676956.176757812,-14357204.43725586,-6751997.470855713,4367286.205291748,2591244.697570801,-3115586.996078491,-1884674.072265625,-8541746.139526367,-14927433.967590332,-820175.3497123718,-14009430.885314941,-11179896.354675293,-13472533.226013184,-421524.0776538849,-2257934.331893921,-6078332.424163818,-10269317.626953125,-9662940.979003906,-2526588.4399414062,-1158504.3668746948,-1721009.612083435,1016493.2012557983,1915720.3435897827,1381312.8471374512,-10616653.442382812,-10904910.08758545,-9691993.713378906,-1987142.9204940796,-1834375.6198883057,-2433079.481124878,1352091.1931991577,1600205.1830291748,-10764116.287231445,-10552378.65447998,-6528955.459594727,-2639691.114425659,677046.9546318054,1996170.997619629,1979259.6101760864
0.15,14736074.447631836,23896389.00756836,32817264.556884766,28229459.762573242,11259614.944458008,4521755.695343018,25033651.35192871,23652395.248413086,3026621.103286743,7980123.996734619,3979315.2809143066,3811848.8788604736,2766488.552093506,4123917.1028137207,4663781.16607666,-12886960.983276367,2069315.6719207764,-6905786.514282227,2498021.6026306152,-6539030.5519104,-6860669.6128845215,-2711194.7536468506,-12390504.837036133,23636198.043823242,-11881449.699401855,-5772754.669189453,5317775.726318359,2412159.9197387695,-3671082.7350616455,-2984364.0327453613,-10341706.275939941,-17641256.33239746,1092105.8654785156,-11501202.583312988,-8357975.959777832,-10784619.331359863,-277684.15212631226,-3195054.054260254,-6716561.794281006,-11275044.441223145,-10643519.401550293,-687625.4677772522,684367.835521698,76358.48224163055,2589571.475982666,1612512.707710266,678755.3429603577,-11403151.512145996,-11549938.201904297,-10562024.116516113,-217895.58231830597,-32771.69540524483,-144860.72957515717,1059222.5790023804,824065.9832954407,-11664501.190185547,-11311163.902282715,-7772131.91986084,-369542.4795150757,472291.61858558655,1150387.167930603,1256787.896156311
0.155,8233445.167541504,19763065.338134766,27959352.493286133,19037286.75842285,7605878.829956055,-1683905.4822921753,16591445.922851562,15214746.475219727,-1475460.5293273926,4612602.710723877,1323537.1112823486,1259224.0571975708,250701.57647132874,-2337026.596069336,-1598444.3426132202,-17515466.690063477,-1189780.1160812378,-7922814.36920166,755258.6197853088,-7138952.255249023,-7525864.601135254,-6543522.834777832,-17148391.723632812,18301448.822021484,-12119287.490844727,-6677273.273468018,4685383.7966918945,3180303.3351898193,-4464416.980743408,-4490846.157073975,-13836200.714111328,-21405212.40234375,75012.48270273209,-11580850.601196289,-7594126.7013549805,-9649265.28930664,-38804.903626441956,-4169669.6281433105,-7577825.06942749,-13383256.912231445,-12781470.29876709,-1581614.375114441,-326830.50632476807,-692554.3546676636,2913920.1641082764,-483460.06870269775,-712760.2696418762,-12894388.198852539,-13147233.963012695,-12420073.509216309,-1130006.3133239746,-956889.0333175659,1716826.4389038086,-970823.4071731567,-583587.8849029541,-13413701.057434082,-12931711.196899414,-10024848.937988281,1393102.1690368652,-1656156.5399169922,-198262.2891664505,12342.46976673603
0.16,2814002.9907226562,16854345.321655273,25399873.733520508,8945421.21887207,3153574.9435424805,-6577534.198760986,7521948.81439209,6117150.30670166,-8451419.830322266,-355355.5905818939,-2412524.700164795,-2355625.867843628,-3353843.927383423,-4366942.882537842,-6494796.7529296875,-24103656.768798828,-6805627.822875977,-11960917.472839355,-2550791.9788360596,-9182861.328125,-9388758.659362793,-8132949.8291015625,-18172689.43786621,13576270.10345459,-15691916.465759277,-9701809.883117676,1963388.204574585,2453192.4724578857,-4838205.814361572,-5589766.025543213,-15480488.777160645,-22025211.334228516,-3340831.756591797,-14955060.005187988,-10318121.910095215,-11307563.781738281,3650.66179074347,-4419621.94442749,-7739054.203033447,-13884170.532226562,-13383291.244506836,-4790880.20324707,-3833843.946456909,-3771795.0344085693,3038536.310195923,-365084.4991207123,-246811.181306839,-12896822.929382324,-13366141.319274902,-12876359.939575195,-4351212.978363037,-4235669.136047363,1291393.6376571655,-749600.6488800049,-10402.826592326164,-13651422.500610352,-13169478.416442871,-11347352.027893066,829487.0853424072,-1609076.6191482544,470243.09635162354,578163.5642051697
0.165,3074260.2348327637,18016853.33251953,27740919.11315918,6262336.254119873,2587423.801422119,-8369509.696960449,3851090.908050537,2398247.718811035,-12460231.78100586,-3167925.5962371826,-3679914.2360687256,-3612228.1551361084,-4636501.789093018,111765.7870054245,-8247535.705566406,-29165855.407714844,-10646719.932556152,-16120004.653930664,-5615859.9853515625,-11339853.286743164,-11222718.238830566,-6199962.139129639,-15050299.644470215,10818758.010864258,-21313041.68701172,-13927269.93560791,-1512886.5242004395,207673.62415790558,-4003514.289855957,-5391837.596893311,-13618736.267089844,-18976795.196533203,-8104802.131652832,-20515508.6517334,-15629346.84753418,-14786671.63848877,-225422.81448841095,-3368633.270263672,-6503650.188446045,-11712246.894836426,-11279743.194580078,-9442872.047424316,-8807029.724121094,-8445250.511169434,2564561.128616333,3230625.3910064697,2907694.5781707764,-10587293.62487793,-11157479.286193848,-10860732.078552246,-9114957.809448242,-8959494.590759277,-2234825.849533081,2886039.2570495605,3220387.9356384277,-11417342.185974121,-11078648.567199707,-13150135.99395752,-2723608.7322235107,1985089.0636444092,3787553.071975708,3588231.325149536
0.17,5456242.561340332,20651380.53894043,31358793.258666992,10483910.56060791,5413594.722747803,-9332518.577575684,4618172.645568848,3237626.075744629,-11059184.074401855,-1470890.6412124634,-1639742.4936294556,-1660135.9844207764,-2717453.0029296875,5023007.869720459,-9254746.437072754,-30542739.868164062,-10614153.861999512,-16530265.808105469,-5126276.49307251,-11248045.921325684,-10908526.420593262,-3490469.217300415,-12091329.574584961,8447231.29272461,-25494680.404663086,-16840513.229370117,-2879122.018814087,-668190.8965110779,-2446949.243545532,-4149382.1144104004,-11046833.038330078,-15995861.053466797,-11798771.858215332,-24811927.795410156,-20079257.96508789,-17645145.416259766,-474787.98031806946,-1720798.4924316406,-4972228.050231934,-9367177.00958252,-8899709.701538086,-13147185.325622559,-12580839.157104492,-12256701.469421387,996240.9138679504,6706717.967987061,5995837.211608887,-8273552.894592285,-8796462.059020996,-8541894.912719727,-12962368.965148926,-12656890.869140625,-6601686.954498291,6363690.376281738,6178730.487823486,-9057444.57244873,-8883895.874023438,-16125261.306762695,-6924692.630767822,5529707.908630371,6853652.9541015625,6414458.274841309
0.175,7226869.106292725,23419540.405273438,34525516.510009766,16619371.41418457,8765670.776367188,-9455065.727233887,7310565.948486328,6194354.53414917,-5936351.776123047,3612107.515335083,1790532.2313308716,1640123.724937439,614712.2383117676,5934292.316436768,-9523409.843444824,-27500785.82763672,-7060172.557830811,-12690662.384033203,-306422.9488372803,-8771530.151367188,-8437791.82434082,-2497499.942779541,-11855573.654174805,7509972.57232666,-25222614.288330078,-16141826.629638672,-367190.4504299164,1594234.1089248657,-1607971.5490341187,-3119938.1351470947,-10958872.79510498,-15461740.493774414,-11389884.948730469,-24671754.837036133,-20556949.615478516,-18186904.907226562,-505731.7018508911,-917897.4032402039,-4982385.635375977,-9434348.106384277,-8894558.906555176,-12786137.580871582,-11997005.462646484,-11919734.954833984,-265524.685382843,6586656.093597412,5935939.311981201,-8399246.215820312,-8868914.604187012,-8380843.162536621,-12603020.668029785,-12261222.839355469,-8147690.773010254,6319850.444793701,5878602.027893066,-9124439.239501953,-9031889.915466309,-17439931.869506836,-8276870.7275390625,5461501.598358154,6657965.183258057,6235191.345214844
0.18,11920713.424682617,29084264.755249023,40224079.13208008,22945201.873779297,12355792.045593262,-5774686.336517334,12492995.262145996,11651643.753051758,-152727.1270751953,8973099.708557129,5048928.737640381,4718330.860137939,3813527.3456573486,6616677.284240723,-5965615.272521973,-21594198.22692871,-1477527.0223617554,-8023367.881774902,5382953.643798828,-6245736.598968506,-6055732.727050781,-1870313.048362732,-11742738.723754883,10961559.295654297,-21459312.438964844,-12517711.639404297,4440714.8361206055,4939805.507659912,-2034723.7586975098,-2811709.6424102783,-12236227.035522461,-15377693.176269531,-7005004.405975342,-20922685.623168945,-17577991.485595703,-16883945.46508789,-385997.5039958954,-1375988.1258010864,-6507330.417633057,-11091983.795166016,-10539892.196655273,-8472603.797912598,-7429147.243499756,-7509228.706359863,441461.86113357544,3911774.6353149414,3213873.6248016357,-10318191.528320312,-10801394.46258545,-9878668.785095215,-8135944.366455078,-8032349.586486816,-6070482.7308654785,3769689.0830993652,3077232.599258423,-10990812.301635742,-10894865.036010742,-15134016.990661621,-6234960.556030273,2761251.449584961,3858842.611312866,3556149.72114563
0.185,21453275.680541992,37653301.23901367,48424133.30078125,29965538.024902344,16981134.41467285,1207476.7351150513,20003616.333007812,19168062.210083008,4133532.5241088867,12249214.172363281,7873313.426971436,7325975.8949279785,6532519.817352295,11351040.840148926,993373.8112449646,-16744216.918945312,3922600.507736206,-5935018.539428711,7811403.751373291,-5471585.273742676,-5416647.434234619,568719.5062637329,-9199524.879455566,17100679.397583008,-18336622.23815918,-9344955.444335938,7947260.856628418,6139195.442199707,-2838113.307952881,-2448813.4384155273,-11686363.220214844,-13570405.960083008,-3193003.6544799805,-17764154.4342041,-14556498.527526855,-15511094.093322754,-349891.3049697876,-2121562.0040893555,-7635937.690734863,-12026121.139526367,-11505525.588989258,-4783563.613891602,-3681137.5617980957,-3712200.880050659,1977093.4581756592,1900113.1057739258,857453.6442756653,-11779546.737670898,-12274223.327636719,-11011302.947998047,-4316012.859344482,-4549241.065979004,-3466851.9496917725,1749594.5692062378,861126.8401145935,-12376899.719238281,-12221731.185913086,-12277665.138244629,-3880430.221557617,664270.8778381348,1525607.3474884033,1217211.0080718994
0.19,28660175.323486328,41888366.69921875,51820472.717285156,34733940.12451172,19946849.822998047,5418313.980102539,25100498.19946289,23962938.30871582,5691347.599029541,12831742.286682129,9300848.960876465,8640131.950378418,7803358.07800293,15759627.342224121,5211359.977722168,-16094459.533691406,6502964.019775391,-6442175.388336182,6696431.636810303,-5934934.616088867,-5972920.4177856445,3089888.81111145,-6970442.771911621,19693887.71057129,-18189714.431762695,-8986355.781555176,8320889.472961426,4997123.718261719,-3155020.9522247314,-1627167.820930481,-9648167.610168457,-11945287.704467773,-3714776.7543792725,-17697509.765625,-13697402.954101562,-15128287.315368652,-459583.6102962494,-2310961.0080718994,-7339771.270751953,-12137059.211730957,-11598506.927490234,-5393151.28326416,-4375280.857086182,-4305889.129638672,1352435.58883667,1322493.076324463,348045.2597141266,-12310089.111328125,-12760778.427124023,-11465573.31085205,-4928594.589233398,-5283766.269683838,-3174715.757369995,959500.1935958862,480479.6874523163,-12851419.448852539,-12584677.696228027,-12859747.886657715,-3727717.161178589,-3085.2414201945066,1034002.9001235962,665672.6002693176
0.195,24863059.997558594,35424392.70019531,44667606.353759766,32349548.33984375,16889944.076538086,2609841.3467407227,23111225.128173828,21649291.9921875,4045020.580291748,11190860.748291016,7499730.110168457,6948032.855987549,5910829.544067383,12526426.315307617,2371448.9936828613,-18530548.095703125,4982728.481292725,-7328794.002532959,5153097.629547119,-6322148.323059082,-6448386.192321777,1953591.7043685913,-9108335.494995117,16607818.603515625,-19164522.171020508,-10480459.213256836,7020333.290100098,4176035.4042053223,-3098432.5408935547,-1271168.2319641113,-9582922.93548584,-13367929.458618164,-6377548.694610596,-18906019.21081543,-14023313.522338867,-15380332.946777344,-541268.2294845581,-2130455.97076416,-6635750.293731689,-12675603.866577148,-12047596.93145752,-7981334.209442139,-7010170.936584473,-6978081.703186035,-2055865.0493621826,645581.841468811,607240.2000427246,-12816510.200500488,-13198894.500732422,-12067983.627319336,-7551348.2093811035,-7768887.042999268,-4313927.173614502,36361.66825890541,708148.8370895386,-13364792.823791504,-12990931.510925293,-15422994.613647461,-4688797.473907471,-725048.6016273499,1248930.0966262817,1007490.0388717651
0.2,13028237.342834473,23346635.818481445,32698001.861572266,23786325.454711914,9021544.456481934,-3250416.040420532,16428398.132324219,14917378.425598145,296997.0107078552,8406467.43774414,3061328.411102295,2722019.672393799,1527596.5929031372,4328979.4921875,-3508318.6626434326,-20027158.737182617,1070542.2163009644,-7519726.753234863,5245202.541351318,-6310178.756713867,-6506995.20111084,-2156320.571899414,-13399011.611938477,13439397.811889648,-18792161.94152832,-11698382.377624512,6244074.821472168,5237248.89755249,-2791946.1727142334,-1945941.44821167,-11934270.858764648,-15855194.091796875,-6107559.680938721,-18756671.905517578,-13947545.051574707,-15735878.944396973,-445032.2091579437,-1779678.7023544312,-6374631.404876709,-12732481.002807617,-12016332.626342773,-7535897.254943848,-6522807.1212768555,-6666987.419128418,-5291272.6402282715,-321282.65500068665,852055.013179779,-12601382.2555542,-12908456.802368164,-11877018.928527832,-7050941.467285156,-7107041.358947754,-4261867.046356201,-1009702.5632858276,935480.0581932068,-13133944.511413574,-12778428.077697754,-14937156.677246094,-4345840.930938721,-1662020.0872421265,1491522.9082107544,1518514.87159729
0.205,5959630.966186523,18249113.082885742,28225242.614746094,16989393.23425293,4042196.750640869,-4997984.886169434,12149375.915527344,10847207.069396973,-3021728.992462158,6045337.200164795,150076.13599300385,-124983.45226049423,-1261252.0456314087,2492000.3414154053,-5207924.842834473,-18891349.79248047,-2010940.7901763916,-8007479.667663574,5816396.713256836,-6217173.5763549805,-6431675.910949707,-3754015.6841278076,-13198287.010192871,15177976.608276367,-18131767.27294922,-12600381.851196289,6016545.295715332,6722210.40725708,-1672747.254371643,-2442471.742630005,-12620174.407958984,-14306897.163391113,-2559999.465942383,-18092344.284057617,-14181483.268737793,-16589641.571044922,-264907.71770477295,-727830.708026886,-5675432.205200195,-9982044.219970703,-9236962.31842041,-3914921.283721924,-2871595.859527588,-3168655.8723449707,-5515465.73638916,188812.55388259888,2062751.293182373,-9762982.368469238,-9984182.357788086,-8911973.95324707,-3372708.797454834,-3383071.184158325,-2790594.8162078857,-413612.0080947876,2342610.8360290527,-10154636.38305664,-9959343.910217285,-10605597.496032715,-2805002.6893615723,-1072683.6919784546,2856425.0469207764,2939031.6009521484
0.21,9922093.391418457,24617950.439453125,35129665.37475586,17314706.802368164,6959315.299987793,-2489145.517349243,12659903.526306152,11552106.857299805,-4300003.528594971,5199223.041534424,1842291.3551330566,1443134.7846984863,473789.2150878906,10986481.666564941,-2643565.4163360596,-17940561.294555664,-3027451.276779175,-9740048.4085083,5020812.98828125,-6113896.369934082,-6330794.811248779,-214273.46765995026,-7389105.319976807,18067276.000976562,-20152730.94177246,-14786763.191223145,4826740.264892578,6640586.853027344,247066.76602363586,-1571413.8746261597,-9462403.297424316,-8384721.755981445,-938727.617263794,-19844676.971435547,-16525953.29284668,-18405908.584594727,-216725.79646110535,1080030.6797027588,-3882764.8162841797,-5231245.040893555,-4519406.795501709,-2356839.418411255,-1381649.8517990112,-1664782.0472717285,-3338515.043258667,2667237.0433807373,4694935.321807861,-5069427.967071533,-5269745.349884033,-4169370.651245117,-1933454.2751312256,-1898615.3602600098,-2123800.51612854,2176212.0723724365,5235223.770141602,-5291818.141937256,-5229184.627532959,-7659399.98626709,-2302704.334259033,1436699.8672485352,5712104.797363281,5495053.291320801
0.215,16430831.909179688,32889755.249023438,44019481.65893555,20721597.67150879,13220356.941223145,-3073667.7646636963,12929121.971130371,11814391.136169434,-4597227.573394775,5385153.770446777,5665370.941162109,5193580.627441406,4233756.542205811,19622150.421142578,-3219562.05368042,-20467184.06677246,-3594255.6858062744,-11940472.602844238,3240145.683288574,-6088001.728057861,-6361243.724822998,3845842.5998687744,-3138626.0986328125,14802158.35571289,-24791862.48779297,-18294313.430786133,2458477.020263672,5315874.099731445,1477488.398551941,-408503.4132003784,-6350499.153137207,-4358107.566833496,-4396003.246307373,-24186397.552490234,-20518888.473510742,-20260925.29296875,-332517.02785491943,2283060.7891082764,-2486389.16015625,-2816641.330718994,-2201930.284500122,-5823832.988739014,-4982065.677642822,-5094868.6599731445,-1314594.3880081177,4834722.04208374,6915280.342102051,-2479134.3212127686,-2820324.182510376,-1835943.9373016357,-5646807.1937561035,-5478738.307952881,-3343356.6093444824,4401817.321777344,7455882.0724487305,-2717252.254486084,-2619170.904159546,-10394099.235534668,-3637450.2182006836,3515928.7452697754,7984789.3714904785,7459696.292877197
0.22,14674181.938171387,32412227.630615234,44485359.19189453,20336709.97619629,14937378.883361816,-10590572.357177734,8873617.172241211,7629204.750061035,-5811259.746551514,5397222.995758057,6785536.289215088,6472840.309143066,5318257.3318481445,18050743.103027344,-10669553.756713867,-25353309.631347656,-5049842.357635498,-12954131.126403809,2363312.4828338623,-6404674.530029297,-6748638.153076172,2979249.7158050537,-5918447.971343994,6100945.949554443,-28076589.584350586,-20666873.931884766,689348.3400344849,4633646.9650268555,820560.4553222656,-775518.1789398193,-7678211.212158203,-6730691.432952881,-9169895.17211914,-27453639.98413086,-23169990.53955078,-20449031.829833984,-395168.274641037,1716886.5203857422,-3138216.733932495,-4859313.488006592,-4396129.131317139,-10458781.242370605,-9700389.862060547,-9629454.612731934,-469927.48975753784,4472656.726837158,6765314.102172852,-4136461.7347717285,-4705022.811889648,-3900390.386581421,-10369583.129882812,-10123427.391052246,-4809039.59274292,4049570.5604553223,7051384.925842285,-4581786.155700684,-4382165.431976318,-16428825.378417969,-5005692.958831787,3021950.7217407227,7618031.978607178,7169915.199279785
0.225,7231316.089630127,25747585.29663086,38249954.22363281,17032079.696655273,11972918.510437012,-18228754.0435791,4435265.064239502,3114983.7970733643,-7331322.66998291,5523251.533508301,5142161.3693237305,5077509.40322876,3785439.968109131,10565311.431884766,-18073440.551757812,-27972721.099853516,-5869037.15133667,-11962714.195251465,3308892.4884796143,-6535969.7341918945,-6840207.576751709,-824464.4403457642,-11148919.105529785,1200643.8970565796,-26839334.48791504,-19785100.93688965,1032550.0965118408,5408893.585205078,-537587.3446464539,-1897213.9358520508,-11221529.960632324,-11445241.928100586,-9732703.20892334,-26501478.19519043,-22430860.51940918,-18839960.0982666,-243580.4009437561,429713.30881118774,-4684494.0185546875,-7803610.324859619,-7445872.3068237305,-10897186.279296875,-10085081.100463867,-9952623.36730957,-51002.19324231148,2202875.852584839,4967293.739318848,-7022569.65637207,-7695379.257202148,-6891849.994659424,-10594327.926635742,-10459984.77935791,-4847166.061401367,1738025.426864624,5133999.347686768,-7605510.711669922,-7425297.260284424,-19717308.044433594,-4865131.855010986,729295.1941490173,5551276.683807373,5455433.368682861
0.23,6450263.500213623,24472017.288208008,36160163.87939453,18093687.057495117,11868373.87084961,-16424325.942993164,6551054.954528809,5246026.992797852,-6280858.993530273,7553347.110748291,5862755.77545166,5860431.19430542,4691436.290740967,9795293.807983398,-16021453.857421875,-25651565.551757812,-3654647.3503112793,-9505820.274353027,5405823.230743408,-5089113.712310791,-5214963.436126709,-572326.1833190918,-10346561.431884766,5790331.3636779785,-22537296.295166016,-16481679.916381836,2932979.5837402344,6741111.755371094,-298127.4425983429,-932492.9714202881,-10871036.529541016,-11176030.158996582,-6158772.945404053,-22451644.897460938,-19598421.096801758,-17493658.0657959,-43227.13240981102,568616.2114143372,-4423119.54498291,-7080109.119415283,-6657169.818878174,-7359997.272491455,-6402615.547180176,-6335802.5550842285,242937.1029138565,391527.35471725464,3903082.1323394775,-6857568.264007568,-7458548.545837402,-6296056.747436523,-6785740.852355957,-6808242.321014404,-4171809.196472168,-157240.77820777893,4325835.704803467,-7324961.6622924805,-7246261.119842529,-17516138.076782227,-4108530.9982299805,-972426.176071167,4469150.543212891,4538672.924041748
0.235,16255016.326904297,32633949.279785156,43582355.49926758,25583295.822143555,18455020.904541016,-6130907.5355529785,14659082.412719727,13376486.778259277,-1858081.579208374,11657891.273498535,11544453.620910645,11359348.29711914,10436030.387878418,18662466.049194336,-5766171.932220459,-20856630.325317383,859221.9352722168,-6969783.782958984,7489789.4859313965,-1879732.9664230347,-1806393.9809799194,5728524.208068848,-3027923.822402954,14342090.606689453,-19353042.602539062,-13607385.635375977,4651929.85534668,7561689.376831055,1731353.759765625,2730282.3066711426,-5539887.90512085,-5528069.496154785,-3246828.079223633,-19181892.39501953,-17539527.893066406,-18162527.084350586,-117496.92261219025,2363044.9771881104,-2080949.5449066162,-3370369.1959381104,-2758735.179901123,-4526922.225952148,-3486456.871032715,-3517506.1225891113,-96602.05245018005,290742.27809906006,4397469.520568848,-3887955.904006958,-4421178.817749023,-2655747.413635254,-3964466.8102264404,-3951792.001724243,-4348264.694213867,-286328.9713859558,5175396.919250488,-4126491.5466308594,-4023606.777191162,-12673661.231994629,-4301414.489746094,-972334.1464996338,5203668.594360352,5061415.672302246
0.24,25589790.34423828,41386058.80737305,53752746.58203125,32112148.28491211,25883096.69494629,1276418.2090759277,20238805.770874023,18956121.44470215,2426464.319229126,14778546.333312988,17722135.543823242,17309513.092041016,16481796.264648438,27188983.917236328,1302955.985069275,-18234115.600585938,3826236.0095977783,-5862603.664398193,8554977.416992188,856007.8740119934,1053996.205329895,12140027.99987793,3087161.064147949,17674987.79296875,-19298269.271850586,-13040513.99230957,5192987.442016602,7662814.617156982,3321116.9242858887,5987464.904785156,-821817.4576759338,-1275278.6874771118,-3528170.585632324,-18807405.471801758,-17374561.309814453,-20000331.87866211,-525215.208530426,3772745.132446289,-300235.1522445679,-1310705.6617736816,-602274.1198539734,-4736719.608306885,-3769319.2958831787,-3867002.7256011963,-619092.7028656006,1316744.2083358765,5148458.957672119,-2102009.5348358154,-2685774.803161621,-511488.25883865356,-4461744.30847168,-4252530.574798584,-5027335.643768311,860301.1965751648,5951652.050018311,-2257314.2051696777,-1984917.2830581665,-9773137.092590332,-5016864.29977417,50922.941416502,6143769.74105835,5702830.3146362305
0.245,23617795.944213867,41801464.08081055,57277553.55834961,30967132.568359375,26828838.348388672,-1380072.4744796753,17747777.938842773,16500308.990478516,2751444.8165893555,14050699.234008789,18738513.946533203,18266323.08959961,17332286.834716797,27683172.22595215,-1622872.1141815186,-19327737.80822754,2967523.3364105225,-6780970.573425293,8069308.280944824,957690.0005340576,1228583.9319229126,13195980.072021484,3345172.40524292,14456118.5836792,-20494495.391845703,-14234540.939331055,4887576.103210449,7345390.319824219,3036365.747451782,6153317.928314209,-860287.9643440247,-2286152.6012420654,-4772975.921630859,-19796022.415161133,-17843801.498413086,-20868728.637695312,-948021.2926864624,3477091.7892456055,-741271.3170051575,-2673359.6324920654,-2051791.4295196533,-5796510.219573975,-4974937.438964844,-5118937.4923706055,45827.362686395645,2317807.197570801,5068089.962005615,-3228959.321975708,-3852245.330810547,-1773020.7443237305,-5752638.816833496,-5430317.401885986,-4555245.399475098,2044575.4528045654,5565714.359283447,-3474607.467651367,-3125461.1015319824,-10532915.115356445,-4615223.8845825195,1024523.9734649658,5972805.023193359,5472873.687744141
0.25,15154230.117797852,36828136.4440918,54115360.260009766,25855182.647705078,22562452.31628418,-7535230.63659668,11993994.71282959,10818323.135375977,331176.37038230896,11077712.059020996,15543373.107910156,15213341.71295166,14124452.590942383,24612304.6875,-7678518.295288086,-21142320.63293457,777316.8683052063,-8443984.031677246,6852393.15032959,-559099.555015564,-253660.85767745972,10947922.706604004,1683231.1153411865,11514497.756958008,-19931858.06274414,-15173258.781433105,4739102.363586426,7091758.728027344,2086327.7912139893,4625045.299530029,-2954431.7722320557,-4326415.061950684,-4372772.216796875,-19262706.756591797,-17418052.673339844,-20314466.47644043,-1041262.2690200806,2616917.848587036,-1902202.844619751,-4254759.311676025,-3716410.1600646973,-5307410.717010498,-4553529.262542725,-4723032.474517822,1547739.6249771118,2457066.059112549,4506652.83203125,-4643343.925476074,-5169627.1896362305,-3401553.153991699,-5224473.476409912,-4966718.1968688965,-3031616.687774658,2215979.57611084,4778974.0562438965,-4949071.884155273,-4741885.662078857,-12865654.945373535,-3233749.1512298584,1211370.348930359,5185993.671417236,4822191.23840332
0.255,13891710.28137207,35697109.22241211,51909446.716308594,25668741.22619629,20327203.75061035,-6225200.176239014,11441086.769104004,10284214.973449707,204176.06830596924,10408252.716064453,13981217.384338379,13863460.540771484,12672794.342041016,25814584.732055664,-6035572.052001953,-20055637.35961914,1515239.4771575928,-8417687.41607666,7053408.622741699,-659452.1999359131,-439092.755317688,10873785.018920898,3290818.214416504,13719763.75579834,-17015531.539916992,-14229667.663574219,5658533.096313477,7617617.130279541,2219556.5700531006,4646381.855010986,-2422589.063644409,-2001743.7934875488,-3004378.7956237793,-16446624.755859375,-16048755.645751953,-19824522.018432617,-774005.1746368408,2805390.8348083496,-1734630.1078796387,-2966752.767562866,-2309036.7317199707,-4034576.892852783,-3242019.6533203125,-3378054.141998291,1121440.8874511719,1334456.443786621,4016516.2086486816,-3724511.6233825684,-4130597.1145629883,-2252236.1278533936,-3771294.8322296143,-3620635.747909546,-2787415.5044555664,907215.416431427,4385388.374328613,-3909363.031387329,-3863492.488861084,-13625909.805297852,-3113420.009613037,161974.2214679718,4635917.186737061,4349755.764007568
0.26,23296037.673950195,40681930.54199219,54832473.75488281,32263114.92919922,23067407.608032227,2657054.4242858887,17054864.88342285,15837287.902832031,4703584.19418335,13848457.336425781,16647958.755493164,16643190.383911133,15400533.676147461,30760585.78491211,3072335.4816436768,-16042392.73071289,5876627.445220947,-5516032.695770264,9979659.080505371,1682934.5226287842,1675689.2204284668,13954674.72076416,7108726.501464844,18288026.809692383,-13894481.658935547,-11309821.128845215,7919884.204864502,9275807.38067627,3248009.68170166,6805022.239685059,626640.5582427979,3382089.138031006,-2448562.8604888916,-13398141.860961914,-14709421.157836914,-20215576.171875,-376122.1170425415,3795735.8360290527,-562932.3124885559,-9607.585147023201,876007.4377059937,-3636766.9105529785,-2798000.5741119385,-2867677.688598633,-2705780.029296875,-575891.9715881348,3442333.459854126,-1489096.760749817,-1916818.4995651245,643815.9346580505,-3283702.611923218,-3196038.9614105225,-5059165.000915527,-1225322.8425979614,3986110.4488372803,-1436704.2779922485,-1357591.0329818726,-11851104.736328125,-5343976.974487305,-1760240.5548095703,4206201.076507568,3866678.237915039
0.265,32557678.22265625,45626369.47631836,59253604.888916016,39008316.04003906,26891309.73815918,8692659.378051758,22160606.384277344,20910423.278808594,10699193.954467773,18583131.790161133,20479486.4654541,20421756.744384766,19203229.904174805,33635181.42700195,9117280.960083008,-12223081.588745117,10464217.185974121,-1201166.9874191284,14141239.166259766,4435481.548309326,4225003.242492676,16716142.654418945,9115138.053894043,20035362.243652344,-12786826.133728027,-7799546.241760254,10762126.922607422,11193280.220031738,3857541.084289551,8914496.421813965,2588796.615600586,6455249.309539795,-2369683.027267456,-12434651.374816895,-14024114.608764648,-20376287.46032715,-82014.59050178528,4309859.752655029,39950.03178715706,1455440.9980773926,2432192.56401062,-3602964.401245117,-2790783.166885376,-2863341.0930633545,-7038885.116577148,-1891067.0280456543,2745832.681655884,-500467.12160110474,-1034498.5723495483,2164487.12348938,-3310604.8107147217,-3311089.7541046143,-7845207.214355469,-2605738.1629943848,3183361.291885376,-278676.8078804016,-80234.5871925354,-9468226.432800293,-7930934.429168701,-3169389.486312866,3605056.047439575,3237036.4665985107
0.27,32471790.313720703,46485725.40283203,61156032.56225586,41080017.08984375,28414091.110229492,5878060.340881348,22548980.712890625,21374872.2076416,14226397.514343262,21361715.31677246,22389051.43737793,22213361.740112305,21137062.072753906,33896663.665771484,6238219.261169434,-10819673.538208008,12406427.383422852,1920113.9211654663,16602199.55444336,5564028.263092041,5346689.701080322,17545471.19140625,9363561.630249023,18460483.55102539,-13576789.855957031,-5471121.311187744,12785840.98815918,11831151.962280273,3759937.047958374,9556586.265563965,2288187.9806518555,5760195.732116699,-1258250.8325576782,-13443259.239196777,-13678060.531616211,-19166641.235351562,-1847.87402395159,4143871.307373047,-170611.6646528244,679342.6871299744,1579453.8259506226,-2348771.572113037,-1635363.9364242554,-1787065.9828186035,-7372683.048248291,-1546495.9144592285,2520442.247390747,-1196001.0528564453,-1753262.5198364258,1471581.4590454102,-2186651.4682769775,-2307554.7218322754,-8216893.196105957,-2196562.0517730713,2597899.1985321045,-999342.679977417,-837496.5190887451,-8864048.957824707,-8138344.764709473,-2909899.7116088867,3249366.521835327,2984393.358230591
0.275,27126262.664794922,46115318.298339844,61861179.35180664,40978630.06591797,28991516.11328125,46518.08738708496,21320600.509643555,20245605.46875,15141609.191894531,21930469.512939453,22976034.16442871,22783523.559570312,21872903.82385254,36181812.28637695,356126.7852783203,-11058361.053466797,12294311.5234375,2544230.9379577637,16091365.814208984,5184190.273284912,5076406.955718994,18403837.203979492,10944095.611572266,17153743.743896484,-14196104.049682617,-5161782.264709473,13143253.326416016,10754605.293273926,3658776.7601013184,9361311.912536621,1818997.2639083862,4691554.546356201,1002422.2135543823,-14127773.28491211,-12874410.629272461,-17280258.178710938,-118549.86101388931,4073187.828063965,-318347.9309082031,-525215.8641815186,319614.38059806824,159575.40273666382,729337.2750282288,587005.615234375,-3059000.9689331055,137621.37293815613,3101510.524749756,-2054248.0945587158,-2555027.484893799,314617.395401001,203638.6877298355,68496.00374698639,-5592766.761779785,-459011.64412498474,2922652.7214050293,-2051309.1087341309,-2056249.1416931152,-9944908.142089844,-5543588.638305664,-1260122.299194336,3598140.9549713135,3478039.9799346924
0.28,25060317.993164062,47016376.49536133,63284988.40332031,41757991.790771484,30007101.05895996,-1359392.523765564,21909574.508666992,20832221.98486328,15125974.655151367,21076581.954956055,23276483.5357666,23198894.500732422,22294223.78540039,40960842.13256836,-1135793.8051223755,-11583055.49621582,11650232.315063477,977447.5693702698,13651381.492614746,4120263.5765075684,4011980.0567626953,20251071.92993164,13838562.965393066,17771354.67529297,-13303174.97253418,-6480943.67980957,12132020.950317383,9111439.70489502,3765754.222869873,8915227.890014648,2372009.27734375,5499814.987182617,3290055.0365448,-13029131.889343262,-11264078.140258789,-16228044.509887695,-289483.4578037262,4299844.741821289,-239173.56133460999,-594160.6760025024,283655.6136608124,2582190.51361084,3016798.496246338,3089147.5677490234,2235319.3759918213,2291826.2481689453,4134322.6432800293,-1984021.782875061,-2473670.721054077,253148.70476722717,2595964.4317626953,2592111.349105835,-1653438.0912780762,1720721.3640213013,4016723.6328125,-2177934.8850250244,-2235191.1067962646,-10266112.327575684,-1773010.7307434082,899451.0769844055,4529950.141906738,4457573.413848877
0.285,25513456.344604492,45787803.649902344,62493682.861328125,40554237.365722656,28994913.10119629,-604650.7954597473,21305267.333984375,20154302.5970459,13462704.6585083,18005586.624145508,21757265.090942383,21780767.4407959,20693563.46130371,42673839.5690918,-493886.3813877106,-13348611.831665039,9695314.407348633,-2290123.93951416,10567816.734313965,2283585.0715637207,2043517.3511505127,20915060.04333496,14588441.848754883,17578586.57836914,-12279965.4006958,-8782983.779907227,10414305.686950684,8012891.76940918,3807802.677154541,7790217.399597168,2765210.1516723633,6514205.9326171875,4748834.133148193,-11772208.213806152,-9807137.489318848,-16388715.744018555,-328918.54643821716,4444184.303283691,-345977.12755203247,592229.2470932007,1423668.5037612915,3885570.526123047,4301195.6214904785,4652356.147766113,5496755.599975586,4871677.398681641,5535305.500030518,-879916.6679382324,-1397252.3212432861,1397973.7758636475,4026285.6483459473,4120491.9815063477,1703903.6750793457,4385662.55569458,5637943.744659424,-1119340.3005599976,-1041463.9711380005,-8480037.689208984,1460662.1265411377,3530290.365219116,6015745.639801025,5881015.300750732
0.29,21035831.451416016,38896781.92138672,56191635.13183594,33502109.52758789,23794187.545776367,-4956014.156341553,14732743.263244629,13562086.10534668,8271604.537963867,12152894.020080566,17173601.150512695,17170520.782470703,15890810.012817383,38397964.47753906,-4879381.6566467285,-18279565.811157227,4964505.672454834,-6949605.464935303,7210876.941680908,-413089.48397636414,-676498.1150627136,18826639.17541504,11759011.268615723,13356791.496276855,-13925773.620605469,-11818252.563476562,8238050.46081543,7219335.079193115,4025884.6282958984,6088452.339172363,2175518.751144409,5603434.085845947,4502313.613891602,-13447273.254394531,-10364801.406860352,-17058790.20690918,-195998.98159503937,4663584.7091674805,-313497.5731372833,2278451.2042999268,2884039.878845215,3299277.3056030273,3869306.5643310547,4323046.684265137,7106736.183166504,8061852.45513916,7736086.845397949,984306.6334724426,514743.6857223511,3003472.8050231934,3671416.759490967,3701799.3927001953,2834317.207336426,7696328.163146973,7940814.018249512,803242.5045967102,1019508.1233978271,-6936385.154724121,2599550.247192383,6803808.212280273,8339953.422546387,8123441.696166992
0.295,10790694.236755371,29565929.412841797,47423816.6809082,23613059.997558594,17179794.311523438,-14274491.310119629,4441069.602966309,3317363.2621765137,1255089.8790359497,6023206.71081543,11839057.922363281,11760916.709899902,10430219.650268555,32326950.073242188,-14145447.731018066,-25488960.26611328,-888628.6616325378,-11727858.543395996,4162039.7567749023,-2937845.230102539,-2972989.559173584,15631052.97088623,7578125.476837158,5911949.634552002,-18943563.46130371,-15062178.611755371,5945443.630218506,6077241.42074585,4681771.278381348,4907549.858093262,1215633.0347061157,2918834.924697876,1171412.706375122,-18683298.110961914,-13673449.516296387,-17758909.225463867,-43266.09522104263,5269685.2684021,301314.8903846741,2895067.6918029785,3268277.406692505,-211710.33382415771,559248.6262321472,912966.3109779358,7892729.759216309,10574055.671691895,10179211.616516113,2341849.8039245605,1973430.2759170532,3568533.182144165,302985.2509498596,238297.52206802368,159015.2084827423,10218257.904052734,10296710.968017578,2102270.8415985107,2344039.4401550293,-9595012.664794922,-33029.67548370361,9362851.1428833,10779408.45489502,10534945.487976074
0.3,3177392.9595947266,24235578.536987305,42546463.01269531,18450334.548950195,13656250.953674316,-20392295.837402344,-1329756.259918213,-2451043.3673858643,-2457054.1381835938,3274519.681930542,9085212.707519531,9022310.256958008,7747097.969055176,29337572.09777832,-20257526.397705078,-30775371.551513672,-3697247.02835083,-14348458.290100098,2720712.423324585,-4314068.31741333,-4073829.174041748,13441271.781921387,4049111.3662719727,-127249.73261356354,-24281047.821044922,-17072797.775268555,4635648.250579834,4952805.519104004,4856410.980224609,4467702.865600586,-41540.9579873085,-346009.3140602112,-4777866.363525391,-24125469.207763672,-17665405.2734375,-18343141.555786133,-7256.099954247475,5447743.892669678,508588.37366104126,669798.4337806702,1019508.6002349854,-5995107.650756836,-5178938.388824463,-4951308.727264404,6846589.5652771,10357071.876525879,10844056.129455566,1009533.2860946655,644547.8200912476,1376029.7298431396,-5550213.813781738,-5573396.2059021,-5728024.959564209,9873945.236206055,10823166.847229004,503806.82945251465,772947.3114013672,-16736255.645751953,-5982345.104217529,9141119.956970215,11279473.304748535,11068675.04119873
0.305,4230862.140655518,24534492.49267578,42846408.84399414,20704540.252685547,13713364.601135254,-18455944.061279297,1648887.038230896,442628.6816596985,-251279.95014190674,4362360.000610352,9029549.598693848,9046985.626220703,7835788.726806641,28934709.548950195,-18413154.60205078,-30785264.96887207,-1780442.476272583,-13633489.608764648,3301352.9777526855,-4955596.446990967,-4699437.618255615,12040589.332580566,1213811.6359710693,-632030.189037323,-25824871.063232422,-16632642.74597168,5228735.446929932,4726872.444152832,3381557.9414367676,3534405.9467315674,-2286109.685897827,-3118825.912475586,-9053205.490112305,-25575027.465820312,-18895181.65588379,-18271371.841430664,-47018.3826982975,4029899.1203308105,-1088779.091835022,-3806951.0459899902,-3320540.428161621,-9968100.547790527,-9272593.49822998,-9105439.186096191,4095811.367034912,7547929.763793945,8643554.6875,-3177548.885345459,-3661595.582962036,-3027384.5195770264,-9706845.2835083,-9620517.73071289,-10235167.503356934,6980375.289916992,8574243.545532227,-3939153.9096832275,-3539525.032043457,-22887027.740478516,-10655290.603637695,6385857.105255127,8883337.020874023,8736490.249633789
0.31,10124979.019165039,27132690.4296875,44311336.517333984,25532241.821289062,14781751.63269043,-12554593.086242676,8880611.419677734,7596077.442169189,4723483.085632324,6418726.921081543,9530524.253845215,9537763.595581055,8402923.583984375,28586158.752441406,-12571949.005126953,-26552694.32067871,1833847.4035263062,-11053030.014038086,4447590.351104736,-5601762.294769287,-5599058.628082275,10714774.131774902,-176276.17716789246,4337531.089782715,-22639791.48864746,-14474634.170532227,6968348.979949951,5249808.311462402,1036980.6289672852,1715500.3547668457,-4531247.138977051,-3721096.5156555176,-6968645.095825195,-22290260.314941406,-16172018.051147461,-17003196.716308594,-78658.61058235168,1718475.4610061646,-3668100.595474243,-6643827.438354492,-6080702.781677246,-7771690.845489502,-7152627.468109131,-7057639.122009277,3211749.792098999,5206990.718841553,5498749.256134033,-6549994.468688965,-7120769.500732422,-5842743.873596191,-7631505.489349365,-7530416.965484619,-8196021.08001709,4737531.1851501465,5497322.559356689,-7280182.361602783,-6756769.65713501,-21734804.153442383,-8748881.340026855,4221657.752990723,5719488.620758057,5618514.060974121
0.315,13879900.932312012,29651216.506958008,44861419.677734375,27487867.35534668,16025543.212890625,-8330256.462097168,13672715.187072754,12406856.536865234,7687145.709991455,7314578.056335449,9983031.272888184,9848312.377929688,8850128.173828125,28857137.68005371,-8293057.441711426,-21781354.904174805,3469776.391983032,-9188046.4553833,4559556.484222412,-5795840.263366699,-6028079.509735107,10627140.045166016,1887257.9336166382,11030880.92803955,-17513549.8046875,-12680574.417114258,7955570.697784424,5452621.936798096,154255.28585910797,697682.4998855591,-4173160.5529785156,-747407.1383476257,795712.1133804321,-17193145.751953125,-11849284.172058105,-15014970.779418945,-136860.13221740723,861010.6706619263,-4540551.18560791,-4563779.830932617,-4051630.973815918,-125820.36852836609,593516.46900177,577226.8176078796,6757946.968078613,6044904.2320251465,4459774.017333984,-5256192.207336426,-5782253.265380859,-3823445.5585479736,2246.4196663349867,52581.384778022766,65577.432513237,5738247.871398926,4585541.248321533,-5690712.451934814,-5204638.957977295,-13080410.957336426,-477228.2540798187,5204867.839813232,4919847.9652404785,4801626.682281494
0.32,14322777.74810791,32096858.978271484,46168132.78198242,26207754.135131836,18184831.619262695,-5877810.955047607,14623992.919921875,13460987.091064453,7518673.896789551,7441382.40814209,11179312.705993652,10931773.18572998,10069697.380065918,31298013.68713379,-5798430.919647217,-18667034.149169922,3286838.2930755615,-9006722.450256348,3799928.1883239746,-4847367.286682129,-5079592.704772949,12871729.850769043,6771778.583526611,15554403.305053711,-13478746.41418457,-12187006.950378418,7398684.501647949,4953172.206878662,1568047.046661377,1840623.378753662,-777866.1251068115,4136980.0567626953,8331109.046936035,-13223839.75982666,-8952418.327331543,-13449641.227722168,-260611.26589775085,2395595.3121185303,-2673813.581466675,630875.4086494446,1110607.385635376,7274483.680725098,8131404.876708984,8088484.764099121,11246784.210205078,9430225.372314453,6095636.84463501,-370091.2296772003,-791339.8742675781,1278930.7832717896,7442438.60244751,7519162.178039551,8414416.313171387,9144904.136657715,6331286.907196045,-529080.0333023071,-230407.16350078583,-3432570.219039917,7998565.673828125,8514040.94696045,6863814.830780029,6669914.245605469
0.325,14246600.151062012,33013668.060302734,47712612.15209961,23948030.471801758,19488739.013671875,-3480177.402496338,14074244.499206543,13045582.77130127,6104501.247406006,7229316.234588623,12063154.220581055,11888837.814331055,11019424.438476562,33690925.59814453,-3496427.059173584,-17070451.736450195,3758514.642715454,-9565466.88079834,3160783.290863037,-3748564.2433166504,-3823564.7678375244,15419979.095458984,9815303.802490234,16569019.317626953,-11387608.528137207,-12086516.380310059,6369294.6434021,4468828.6781311035,3367783.0696105957,3709794.759750366,2303664.207458496,6566851.1390686035,10949792.861938477,-11109573.364257812,-8096205.711364746,-12797086.715698242,-338552.8028011322,4386421.203613281,-248347.38671779633,3739024.4007110596,4303514.9574279785,9877261.1618042,10700421.333312988,10781379.699707031,11097496.98638916,12600254.05883789,8148507.118225098,3102793.6935424805,2754735.231399536,4335194.110870361,10105695.724487305,10265067.100524902,11582142.82989502,12207134.246826172,8410467.147827148,3009846.2104797363,3071755.1708221436,765703.022480011,11321039.199829102,11469873.428344727,8993869.78149414,8739379.8828125
0.33,13353021.621704102,29492378.23486328,45225826.263427734,21270940.78063965,16511774.063110352,-3717640.3999328613,12343982.696533203,11454298.01940918,4329504.96673584,5559175.491333008,10133811.950683594,10155714.03503418,9105578.422546387,32081367.49267578,-3836776.2565612793,-17126708.984375,4968589.782714844,-10103652.954101562,2389202.833175659,-4434864.044189453,-4399887.561798096,14844138.145446777,7339608.669281006,14559635.162353516,-11312256.813049316,-11827858.924865723,5958154.678344727,4378585.8154296875,3455484.15184021,3712079.2865753174,1787499.6662139893,4101258.7547302246,9288162.231445312,-10941249.84741211,-8116353.0349731445,-12680718.421936035,-251697.68929481506,4519482.135772705,168373.62945079803,2242208.242416382,2890575.170516968,8270282.745361328,8921614.646911621,9130926.132202148,7124411.582946777,13967150.688171387,8660547.256469727,2329029.7985076904,2013819.694519043,2867552.5188446045,8560477.256774902,8715573.31085205,10041236.877441406,13547408.103942871,8839721.6796875,2142810.106277466,1971768.3792114258,-1041757.345199585,9933296.203613281,12760744.094848633,9312421.798706055,9074764.251708984
0.335,8792910.5758667,22109399.795532227,37597446.44165039,17737863.540649414,9770881.652832031,-10090860.366821289,7783290.386199951,6993715.763092041,1546970.8442687988,2010360.2409362793,5595489.025115967,5717478.7521362305,4482516.288757324,26827899.932861328,-10093137.741088867,-19975975.036621094,4223774.433135986,-11048612.594604492,476056.2777519226,-7025102.615356445,-6999906.539916992,10959133.14819336,1419617.4144744873,10261626.243591309,-13988537.788391113,-12589409.828186035,5731291.770935059,4036057.949066162,2168555.0212860107,1606945.276260376,-1478076.5771865845,-884006.2618255615,6547350.883483887,-13547000.885009766,-8528243.064880371,-12797100.067138672,-96597.3436832428,2988067.388534546,-1279608.6072921753,-1343738.079071045,-773763.89503479,5578572.2732543945,6167478.084564209,6329052.925109863,5653169.15512085,13992488.861083984,7975281.238555908,-580512.3448371887,-904980.480670929,-630350.1129150391,5869616.508483887,5941803.932189941,7364044.189453125,13712425.231933594,8001646.995544434,-904413.7597084045,-1240487.5755310059,-4906054.0199279785,7416403.293609619,12922430.038452148,8471125.602722168,8277541.160583496
0.34,1974456.3102722168,16222003.936767578,30779310.22644043,14914270.401000977,4795180.320739746,-19339101.791381836,1825043.5590744019,1038556.694984436,-1350734.9491119385,-1070326.2090682983,2347274.7802734375,2354592.5617218018,1134858.250617981,22855319.97680664,-19062274.932861328,-24879314.422607422,708708.4650993347,-12423566.818237305,-1851124.7634887695,-9172738.075256348,-9204818.725585938,7519341.468811035,-2541350.3646850586,5108631.610870361,-19017219.54345703,-15158582.68737793,4876954.078674316,3168655.6339263916,1350655.436515808,-242495.20897865295,-3930583.4770202637,-4065622.329711914,4287334.442138672,-18568437.576293945,-9736426.35345459,-13150593.757629395,-54111.28327250481,1801696.4197158813,-2561248.302459717,-3462160.587310791,-3088228.940963745,3328553.9150238037,4105596.5423583984,4063234.329223633,7748986.721038818,13456849.098205566,7352240.085601807,-2341193.675994873,-2740657.8063964844,-2680152.654647827,3544863.46244812,3609117.9847717285,5274044.513702393,13298099.517822266,7240097.522735596,-2801757.0972442627,-3104501.247406006,-7605199.337005615,5426505.565643311,12504074.096679688,7995234.966278076,7759876.728057861
0.345,-503035.12811660767,16486682.891845703,31240173.33984375,15786945.343017578,5939148.426055908,-23029087.06665039,-327527.13561058044,-1188495.8744049072,-1206613.1830215454,-575618.3862686157,3587046.1463928223,3386725.425720215,2375043.6305999756,23568801.879882812,-22648178.100585938,-27861408.233642578,-2099955.5587768555,-12537287.712097168,-1880488.2764816284,-8627781.867980957,-8710128.784179688,7826806.06842041,-1957783.818244934,1998244.5240020752,-23295507.431030273,-17682527.542114258,4032063.4841918945,2965982.675552368,1774404.0489196777,73921.51653766632,-3674485.683441162,-3658113.2411956787,2201910.4957580566,-22894905.09033203,-11517416.954040527,-13500676.155090332,-75403.3550620079,2056714.0579223633,-2590577.6023864746,-3446051.3591766357,-3169287.919998169,1178253.5314559937,2232319.8318481445,2007958.6505889893,4893684.387207031,12361508.3694458,7043172.359466553,-2426074.266433716,-2923551.559448242,-2671684.0267181396,1337804.913520813,1484528.1839370728,3065142.6315307617,12096014.022827148,6881754.8751831055,-2976819.7536468506,-3028956.651687622,-8944463.729858398,3139003.038406372,11316739.082336426,7994921.2074279785,7623925.20904541
0.35,5011688.709259033,21913318.634033203,37958171.84448242,20948663.71154785,11348047.256469727,-17916961.669921875,4059747.2190856934,3148639.440536499,3457867.8607940674,3493828.058242798,7923496.246337891,7651176.452636719,6807016.372680664,26927347.18322754,-17773159.02709961,-25714776.99279785,-542715.5494689941,-9887434.005737305,1673438.7874603271,-5807310.581207275,-5946219.921112061,10939455.98602295,789110.1241111755,2813157.796859741,-23902324.676513672,-17626607.89489746,4561715.602874756,4493505.001068115,2653597.116470337,1978724.1220474243,-2034874.439239502,-1408136.8446350098,-93377.0090341568,-23584592.819213867,-13039219.856262207,-13509873.390197754,67845.56806087494,3080442.6670074463,-1977297.4252700806,-2829159.97505188,-2445838.451385498,-1247029.185295105,-104366.42915010452,-368587.851524353,-10131908.416748047,10737950.325012207,6626183.986663818,-2238971.710205078,-2770526.885986328,-2111446.8574523926,-1065850.1386642456,-909608.7217330933,199387.23742961884,10195488.929748535,6517624.378204346,-2782376.766204834,-2587743.043899536,-10297703.742980957,38008.63027572632,9508646.965026855,7676167.4880981445,7215504.169464111
0.355,13383404.731750488,27273147.583007812,43714210.510253906,26932456.970214844,15509394.645690918,-10479695.320129395,10840400.695800781,9944165.229797363,9358027.458190918,7451637.744903564,11050062.17956543,10916965.48461914,10007361.41204834,28339359.283447266,-10643329.620361328,-20550508.499145508,4124735.3553771973,-5974143.028259277,6111040.5921936035,-3347615.0035858154,-3544208.04977417,12924052.238464355,1623667.0017242432,5434938.907623291,-21971921.920776367,-15544960.021972656,6254047.393798828,6541772.842407227,3113351.1066436768,3515218.496322632,-1409369.5878982544,-389846.9805717468,-2699584.9609375,-21734634.399414062,-14210062.980651855,-13444623.947143555,401217.0732021332,3780969.3813323975,-1608079.7910690308,-2865110.6357574463,-2326178.789138794,-3928976.7742156982,-2941383.3618164062,-3134178.876876831,-31581989.288330078,9196660.041809082,6143466.949462891,-2586996.555328369,-3099433.422088623,-2202288.6276245117,-3729136.7053985596,-3700288.0573272705,-2706768.51272583,8472796.440124512,6121139.5263671875,-3085574.150085449,-2877751.350402832,-12827256.202697754,-3027276.5159606934,7924392.223358154,6952770.709991455,6557653.903961182
0.36,16131776.809692383,28247980.11779785,43233150.482177734,29142967.224121094,15202424.049377441,-8915812.492370605,13349467.277526855,12453343.391418457,11348249.435424805,7628535.747528076,10382212.63885498,10433544.158935547,9315395.35522461,25867565.155029297,-9079143.524169922,-17813623.428344727,7058838.367462158,-4413100.719451904,7235865.116119385,-3422894.00100708,-3630906.820297241,11208688.735961914,-1075231.1944961548,5681273.937225342,-21194169.998168945,-14718181.610107422,7166659.355163574,6616520.404815674,2959297.4185943604,3413364.6488189697,-2852057.695388794,-2413097.858428955,-5493033.409118652,-20998254.776000977,-15455389.976501465,-13879100.799560547,634718.2393074036,3672780.990600586,-1802891.6120529175,-3990230.5603027344,-3467859.7450256348,-6654872.417449951,-5833100.79574585,-5947541.7137146,-45664340.97290039,8221945.762634277,5868958.950042725,-3550144.1955566406,-4094792.366027832,-3394035.816192627,-6501544.952392578,-6596586.227416992,-4890189.647674561,7563433.1703186035,5869720.935821533,-4109225.273132324,-4051290.988922119,-16585927.963256836,-5097452.640533447,7076738.8343811035,6343409.538269043,6090490.341186523
0.365,11556909.561157227,24972070.693969727,38160617.82836914,26528791.427612305,11848015.785217285,-13816655.158996582,10151546.478271484,9183592.796325684,8314353.942871094,4263975.620269775,7201025.96282959,7271560.192108154,6063877.105712891,21752246.856689453,-13668538.093566895,-19752580.642700195,5902766.227722168,-6644296.169281006,4288701.057434082,-5771046.6384887695,-5960107.803344727,7031217.575073242,-5364381.790161133,2519548.8929748535,-22830268.85986328,-16758699.417114258,6162889.48059082,4207662.582397461,2211616.039276123,1776977.6582717896,-5563521.385192871,-6577439.785003662,-7418443.202972412,-22634475.708007812,-16353906.631469727,-14763637.54272461,517568.2306289673,2732309.341430664,-2700740.337371826,-6205467.700958252,-5871716.9761657715,-8477464.67590332,-7597361.5646362305,-7711516.380310059,-46211235.04638672,7730965.614318848,5546264.171600342,-5312624.454498291,-5964607.238769531,-5702302.932739258,-8324217.796325684,-8429277.420043945,-6029691.219329834,7245325.565338135,5489600.18157959,-6058340.072631836,-6042912.96005249,-20030399.322509766,-5975915.908813477,6693833.351135254,5878485.202789307,5688162.803649902
0.37,5636999.607086182,20858631.134033203,33763584.13696289,22108852.38647461,8744142.532348633,-19666700.36315918,5447111.129760742,4407230.377197266,4200247.764587402,1043132.0667266846,4550752.639770508,4472992.420196533,3394202.709197998,19173072.814941406,-19240987.77770996,-23456747.05505371,3046446.0849761963,-10067169.189453125,809048.2950210571,-8244235.992431641,-8499812.126159668,3532338.1423950195,-8097725.868225098,-914211.5116119385,-24833496.09375,-19622072.219848633,4397398.948669434,1661631.70337677,969086.0509872437,-455488.920211792,-7955126.762390137,-9981587.409973145,-7183481.216430664,-24606380.462646484,-16041675.567626953,-15559399.604797363,151055.9916496277,1294951.9157409668,-4293495.178222656,-8709347.72491455,-8511341.094970703,-8252735.137939453,-7152408.123016357,-7348916.053771973,-40099246.978759766,7613323.68850708,4837580.680847168,-7550196.647644043,-8279812.812805176,-8236603.736877441,-7952704.429626465,-8017520.904541016,-6212133.407592773,7169424.533843994,4733647.346496582,-8463527.67944336,-8298057.556152344,-20923135.75744629,-6084612.3695373535,6518924.713134766,5250058.650970459,5025745.391845703
0.375,3167615.8905029297,18400127.410888672,32441318.51196289,18959520.33996582,7239081.382751465,-22869009.017944336,2515269.5178985596,1479372.501373291,2650482.416152954,611683.3090782166,3756563.186645508,3555112.361907959,2650892.972946167,18333730.697631836,-22431045.532226562,-25634901.04675293,1494054.4366836548,-11545413.01727295,88275.2388715744,-9169434.547424316,-9651970.863342285,2001235.008239746,-8525578.498840332,-2274147.0336914062,-25795368.194580078,-20790010.452270508,3613944.0536499023,1139259.8152160645,-157566.26427173615,-2233994.483947754,-9198595.04699707,-10885885.238647461,-5477530.956268311,-25491491.317749023,-14939438.819885254,-16180667.877197266,-150473.80328178406,213994.8159456253,-5876995.086669922,-10194274.90234375,-9912105.560302734,-6606149.673461914,-5389343.26171875,-5645117.282867432,-36515544.89135742,7999734.401702881,4209540.843963623,-9014905.92956543,-9725109.100341797,-9589422.225952148,-6136433.6013793945,-6192243.0992126465,-6097928.047180176,7447238.922119141,4130256.6528320312,-9983888.626098633,-9676012.03918457,-19167079.92553711,-6204756.736755371,6756310.939788818,4754938.125610352,4512733.459472656
0.38,1874260.9024047852,16085136.413574219,31180965.423583984,16509656.90612793,5570103.168487549,-24435678.482055664,2533.3408266305923,-1014103.2934188843,2396275.9971618652,1283229.3510437012,3235983.8485717773,3070862.054824829,2196214.199066162,16415626.525878906,-24133813.858032227,-26575033.18786621,745173.3946800232,-11553315.162658691,1244376.1825561523,-8950008.392333984,-9715389.251708984,900918.9605712891,-9106832.504272461,-2781160.831451416,-26679548.263549805,-20638454.43725586,3780276.298522949,1930890.7985687256,-292907.5062274933,-2943635.2252960205,-9762827.87322998,-10805716.514587402,-4653534.889221191,-26258214.950561523,-14441547.393798828,-16892299.65209961,-199647.918343544,337513.14878463745,-6280035.972595215,-10399937.629699707,-9896602.630615234,-5732100.009918213,-4608268.260955811,-4761527.061462402,-36334388.732910156,8671087.265014648,4486141.204833984,-8999342.918395996,-9645942.687988281,-9581896.781921387,-5224849.700927734,-5285649.299621582,-6308491.7068481445,8096394.5388793945,4412878.036499023,-9976814.270019531,-9728238.105773926,-17635690.689086914,-6685647.487640381,7405602.931976318,5064113.140106201,4863113.880157471
0.385,-2191637.2776031494,11018896.102905273,26047719.955444336,12449330.32989502,1572982.0728302002,-25465755.462646484,-3937794.6853637695,-5013253.688812256,-186299.80087280273,-512497.3654747009,924881.7563056946,881221.7116355896,-79245.64927816391,11676314.353942871,-25245342.254638672,-27761093.139648438,-1491506.6957473755,-12944984.436035156,1199790.596961975,-9048980.712890625,-9951966.285705566,-1197374.5822906494,-12058683.395385742,-3688241.481781006,-28012908.935546875,-21233510.971069336,3459486.246109009,1952186.8228912354,759909.8682403564,-2600718.4982299805,-10192148.208618164,-12084015.846252441,-5299960.136413574,-27501091.00341797,-14858326.91192627,-17452482.223510742,-43229.639530181885,1601133.3465576172,-5029039.38293457,-10357424.73602295,-9702153.205871582,-6280956.745147705,-5288276.672363281,-5174331.188201904,-34965084.075927734,8841980.934143066,5587519.16885376,-8358549.118041992,-8955587.387084961,-9446945.190429688,-5763102.5314331055,-5846559.524536133,-6352386.951446533,8495417.594909668,5382673.263549805,-9339053.1539917,-9310241.69921875,-18625949.85961914,-6706923.961639404,7801604.270935059,6070641.51763916,5887239.456176758
0.39,-6912210.464477539,4665266.513824463,18507780.075073242,7725013.256072998,-3712394.7143554688,-24156583.786010742,-6850339.412689209,-8016290.664672852,-5035493.850708008,-4878616.809844971,-2609781.7420959473,-2590117.931365967,-3607538.2232666016,6245634.55581665,-23971670.150756836,-28125352.85949707,-4929392.8146362305,-16194358.825683594,-612611.2341880798,-9867976.188659668,-10685469.627380371,-3324298.620223999,-16287429.809570312,-3102392.6734924316,-28361392.974853516,-23020399.09362793,2142102.4799346924,943806.8270683289,2179989.0995025635,-1747865.6768798828,-10161362.648010254,-14253784.1796875,-5287796.497344971,-27835418.701171875,-15313779.830932617,-17393732.07092285,184843.0037498474,3006289.482116699,-3074624.0615844727,-10664072.99041748,-10017883.30078125,-6333639.621734619,-5350009.918212891,-4988760.948181152,-31370706.55822754,8103777.885437012,6489184.856414795,-8214378.356933594,-8770451.545715332,-9829572.677612305,-5649492.263793945,-5836292.743682861,-5472319.602966309,8052384.376525879,6109107.01751709,-9106995.582580566,-9287112.23602295,-20630294.799804688,-5541655.540466309,7381140.232086182,6839597.225189209,6605889.320373535
0.395,-6614897.727966309,2292331.9339752197,14180898.666381836,6395669.460296631,-6769217.014312744,-18870372.772216797,-4703319.072723389,-5867290.019989014,-7956359.386444092,-7875676.155090332,-4786803.245544434,-4774806.976318359,-5791714.191436768,3053593.158721924,-18789220.809936523,-25497632.98034668,-6483688.3544921875,-18292018.89038086,-1771561.2649917603,-10570735.931396484,-11201654.434204102,-4157348.155975342,-19405633.9263916,1005019.1879272461,-26800191.87927246,-24279737.47253418,1079992.7711486816,517998.1589317322,2869622.4689483643,-1264230.6089401245,-9714022.636413574,-15188454.627990723,-3401700.019836426,-26274551.391601562,-15514574.05090332,-16952486.038208008,410234.2426776886,3568823.0991363525,-2094518.4230804443,-10887922.286987305,-10350359.916687012,-4639634.132385254,-3630053.997039795,-3231845.1404571533,-29104461.669921875,7290587.902069092,6592774.868011475,-8622014.999389648,-9156519.889831543,-10140639.305114746,-3777936.2201690674,-4088526.2489318848,-4569921.493530273,7265403.270721436,6258102.4169921875,-9316172.59979248,-9593713.760375977,-20510585.78491211,-4422602.653503418,6677851.20010376,6913809.776306152,6634330.272674561
0.4,-941454.5297622681,5487964.630126953,14894747.734069824,9993832.5881958,-6274905.681610107,-11433380.126953125,2088059.902191162,1018375.039100647,-6452959.060668945,-6984274.387359619,-4656797.409057617,-4637350.082397461,-5667685.508728027,1592696.5475082397,-11474818.229675293,-20407962.799072266,-4141143.321990967,-16893850.326538086,-919804.5134544373,-10821593.284606934,-11336665.153503418,-4760464.668273926,-21488281.25,6995729.923248291,-24258512.496948242,-23292171.478271484,1664618.0152893066,1294811.0103607178,2403661.9663238525,-1912727.4751663208,-10368263.244628906,-15144267.082214355,-1272273.5404968262,-23656068.801879883,-15635660.171508789,-16560342.788696289,628275.0964164734,3092358.5891723633,-2967776.298522949,-11088416.09954834,-10679260.25390625,-2537969.3508148193,-1603239.1786575317,-1376730.0844192505,-29679538.72680664,7969056.129455566,6548402.786254883,-9254018.783569336,-9822414.39819336,-10334280.967712402,-1819065.5708312988,-2066931.0092926025,-5167295.455932617,7669804.573059082,6553988.933563232,-9815134.048461914,-10074193.954467773,-17875211.715698242,-5075377.941131592,7159871.578216553,7017522.33505249,6730028.6293029785
0.405,4069331.645965576,9078610.42022705,15908205.032348633,14899081.230163574,-4972011.566162109,-5323820.114135742,8643227.577209473,7639824.867248535,-3135894.298553467,-4649345.397949219,-4111369.1329956055,-4060443.40133667,-5107552.051544189,-634802.2818565369,-5339045.04776001,-15668592.45300293,741675.1980781555,-13504158.973693848,175287.93215751648,-11325322.151184082,-11847007.751464844,-6880729.198455811,-24099214.553833008,11733098.030090332,-21312446.59423828,-19945331.573486328,3699010.3721618652,1833577.9905319214,1347457.5281143188,-3479301.929473877,-13084337.23449707,-16463991.165161133,-152556.73229694366,-20583688.735961914,-14613782.88269043,-15723615.646362305,827832.6392173767,2168100.595474243,-4831873.893737793,-12181026.458740234,-11893159.866333008,-1197992.205619812,-344320.05882263184,-336725.50320625305,-29834280.014038086,10890212.059020996,7362333.77456665,-10202905.654907227,-10802653.312683105,-11407079.696655273,-897504.2700767517,-849952.5189399719,-6191070.079803467,10370675.086975098,7724694.25201416,-10851553.916931152,-11002733.23059082,-15130269.050598145,-6291690.349578857,9819666.862487793,8062015.533447266,7711668.968200684
0.41,4585571.2890625,8679965.019226074,13730955.123901367,17202672.958374023,-5236033.916473389,-2021922.5883483887,11534104.347229004,10538693.42803955,-1674908.6380004883,-4327866.554260254,-4478504.180908203,-4458492.755889893,-5435986.518859863,-3072869.5392608643,-1865908.145904541,-12750724.792480469,5206447.601318359,-11230506.896972656,-350022.0477581024,-12089616.775512695,-12672896.385192871,-9125185.9664917,-26178733.825683594,14635824.203491211,-17392732.620239258,-15666458.129882812,5645712.852478027,985910.4752540588,859679.9969673157,-4350352.764129639,-15566599.84588623,-18947271.3470459,1442376.8520355225,-16601596.83227539,-11203389.167785645,-13880958.557128906,927720.844745636,1761161.3273620605,-5680519.580841064,-13737339.01977539,-13546277.046203613,555808.7229728699,1509494.662284851,1382382.3928833008,-26564043.045043945,14903908.729553223,9028782.844543457,-10987237.930297852,-11482584.953308105,-13003150.939941406,633172.9292869568,942181.2295913696,-4574541.091918945,14492895.126342773,9466894.149780273,-11839487.075805664,-11853339.195251465,-13772698.402404785,-4763288.0210876465,13767471.313476562,9849705.696105957,9347784.996032715
0.415,3558245.1820373535,7454263.687133789,12418495.178222656,17577938.079833984,-5203975.200653076,-735546.9465255737,11730660.438537598,10783784.866333008,-1803559.5417022705,-5203512.668609619,-4090410.7093811035,-4181676.8646240234,-5023894.309997559,-2449983.596801758,-478467.76247024536,-11173343.658447266,7268461.70425415,-10902739.524841309,-1463981.5092086792,-11727553.367614746,-12349801.063537598,-8151196.479797363,-24805412.29248047,16437749.862670898,-13637020.111083984,-12694890.975952148,6206043.243408203,-210597.9472398758,1659224.3909835815,-2973077.5356292725,-14422419.548034668,-19291555.404663086,4327385.425567627,-12882227.897644043,-7204020.5001831055,-12220478.057861328,830386.9962692261,2476835.250854492,-4369868.278503418,-13477547.645568848,-13326292.991638184,3279995.918273926,4444939.613342285,4290611.267089844,-21509281.158447266,17468275.07019043,10380073.547363281,-10212546.348571777,-10473296.165466309,-12761401.176452637,3575601.577758789,3865269.184112549,-370539.75462913513,17315307.6171875,10676762.580871582,-11157544.136047363,-11104628.562927246,-13318871.49810791,-483377.605676651,16392189.025878906,11126227.378845215,10558643.341064453
0.42,4607210.159301758,10385472.297668457,16795211.791992188,18605201.721191406,-2188390.7318115234,-369068.59278678894,11304021.835327148,10459857.940673828,-992233.93201828,-4038071.632385254,-1206745.5053329468,-1376735.6872558594,-2168141.8418884277,1444508.1949234009,-206940.35291671753,-10999150.276184082,6489131.927490234,-11113951.683044434,-1102075.5767822266,-9597781.18133545,-10202591.896057129,-3893398.2849121094,-20303983.688354492,16170017.24243164,-13202431.678771973,-12721072.19696045,5363069.0574646,-40587.037801742554,3121949.4342803955,-29730.575159192085,-10117095.947265625,-16137926.10168457,5759262.0849609375,-12515215.873718262,-6573217.868804932,-12709771.156311035,575852.7517318726,3812782.7644348145,-2036496.4008331299,-10441506.385803223,-10262345.314025879,4419092.178344727,5621400.833129883,5529384.136199951,-18298347.47314453,16617134.094238281,10237578.392028809,-7602567.195892334,-7699192.047119141,-9659435.272216797,5039281.368255615,5133378.505706787,1940945.5060958862,16510400.772094727,10454166.412353516,-8456871.98638916,-8473992.347717285,-13368872.64251709,1959174.7522354126,15494322.776794434,10811225.891113281,10424595.832824707
0.425,6275305.271148682,15468635.559082031,23307176.58996582,20123029.708862305,2157877.4452209473,62429.945915937424,10667260.16998291,9814596.176147461,804214.0007019043,-942328.5722732544,2440930.6049346924,2305917.739868164,1428040.1468276978,4534400.463104248,79679.9585223198,-12809334.754943848,3771122.694015503,-10998470.306396484,437546.43201828003,-7415469.646453857,-7933368.682861328,-306063.4732246399,-16797414.779663086,12997649.192810059,-16506793.975830078,-15119551.658630371,4186687.469482422,1474159.2407226562,3757769.823074341,1866208.9109420776,-6915620.803833008,-12428928.37524414,3328877.6874542236,-15876411.437988281,-9994215.965270996,-15022184.371948242,360063.8508796692,4434899.33013916,-983817.3389434814,-7098280.906677246,-6843254.089355469,1933924.674987793,2916163.921356201,2954222.9175567627,-17554126.739501953,12793155.670166016,8550276.756286621,-5252715.587615967,-5404521.465301514,-6264029.979705811,2576642.0364379883,2557365.655899048,-577305.6745529175,12514118.194580078,8795785.903930664,-5931863.784790039,-6107351.303100586,-14244787.216186523,-464724.0340709686,11545040.130615234,8999476.432800293,8887915.61126709
0.43,6092245.578765869,17077457.427978516,24693906.784057617,20893842.697143555,3994973.89793396,1964629.5309066772,10448603.630065918,9364643.096923828,1587388.515472412,716268.7182426453,3838829.278945923,3750721.4546203613,2800710.678100586,4561206.340789795,1996015.191078186,-14850761.413574219,1453402.7576446533,-10803140.640258789,1318186.640739441,-7102211.952209473,-7479667.663574219,124935.26935577393,-16539937.973022461,10055758.476257324,-19096750.259399414,-17011922.83630371,3915126.323699951,2901193.141937256,2949434.0419769287,1289451.9567489624,-7197103.500366211,-11221463.203430176,-210426.10704898834,-18531808.853149414,-13123924.255371094,-16439283.37097168,308931.23149871826,3691877.3651123047,-2031455.7552337646,-6522969.722747803,-6168689.727783203,-1374587.7742767334,-613078.5942077637,-445245.1467514038,-16770896.911621094,8594525.337219238,6386540.412902832,-5340583.324432373,-5668614.387512207,-5734140.396118164,-921904.5639038086,-952357.5901985168,-4735403.060913086,8266565.322875977,6552305.698394775,-5873527.526855469,-6163690.567016602,-15364124.298095703,-4590812.683105469,7401436.328887939,6799933.910369873,6739982.128143311
0.435,6039332.866668701,15632256.507873535,21511800.76599121,22460968.017578125,3149449.348449707,5843282.699584961,12801373.481750488,11432984.352111816,1550320.9829330444,-97502.9468536377,3080502.0332336426,2881120.204925537,2009470.2243804932,4040902.614593506,6036223.888397217,-13565685.272216797,2110805.034637451,-10208089.828491211,1482817.0537948608,-8084251.403808594,-8347900.390625,-931197.0472335815,-17621681.213378906,12010492.324829102,-17211410.522460938,-16192991.256713867,4986679.553985596,3434340.000152588,1698986.0534667969,-393768.1317329407,-9065088.272094727,-12339482.307434082,89711.43513917923,-16704435.348510742,-12166097.640991211,-15538321.495056152,298956.39419555664,2444706.2015533447,-3790366.1727905273,-8772111.892700195,-8341958.045959473,-845068.0375099182,-74759.5727443695,118939.13894891739,-14097437.858581543,6589395.999908447,4970671.1769104,-7491184.234619141,-7919526.57699585,-8029485.702514648,-445658.98180007935,-547841.2508964539,-5362957.000732422,6485255.241394043,4886713.027954102,-8002884.864807129,-8257294.654846191,-15170433.99810791,-5279272.079467773,5660014.1525268555,5381576.5380859375,5117353.916168213
0.44,9485498.428344727,16814851.760864258,21254177.09350586,27233776.092529297,2690127.6111602783,10188993.453979492,18596195.220947266,17180757.522583008,3232453.5846710205,-584227.3831367493,2562067.747116089,2104038.4769439697,1368872.2848892212,4940478.801727295,10499926.567077637,-8046438.217163086,6234761.714935303,-8216849.327087402,2551368.7133789062,-8595361.709594727,-8863867.75970459,-1859302.4015426636,-18666234.970092773,18643367.767333984,-12819076.538085938,-13373647.689819336,6785215.377807617,3351399.8985290527,1134299.5166778564,-1427363.5149002075,-10667661.666870117,-14636895.179748535,4686799.049377441,-12312146.186828613,-8558903.694152832,-13937293.05267334,157123.8934993744,1805452.1083831787,-4868611.812591553,-11713483.810424805,-11317176.818847656,3784791.4695739746,4674346.923828125,4773270.130157471,-10078736.305236816,7627883.434295654,4796199.321746826,-9790177.345275879,-10199066.162109375,-10910110.473632812,4284080.028533936,4053522.1099853516,-1959360.2418899536,7728022.575378418,4553171.634674072,-10500963.21105957,-10560713.768005371,-13048983.573913574,-2043971.300125122,6851494.789123535,5187584.400177002,4789075.85144043
0.445,15153357.50579834,21419378.28063965,25717525.482177734,33424407.958984375,3121260.404586792,13436156.272888184,25054908.752441406,23891975.40283203,6888910.293579102,730068.1471824646,2469299.31640625,1836311.2211227417,1107169.508934021,4707775.115966797,13710715.293884277,-1620481.7295074463,11599650.382995605,-5228860.378265381,4375440.1206970215,-8903931.617736816,-9268822.66998291,-4177237.5106811523,-21446575.164794922,24833568.572998047,-9899835.586547852,-10610274.314880371,8305271.148681641,2852086.067199707,902524.7097015381,-2298203.945159912,-13179051.399230957,-18182075.50048828,9564871.788024902,-9371451.377868652,-5740538.120269775,-13255081.176757812,-17055.844888091087,1546213.3884429932,-5665856.838226318,-14077423.095703125,-13859313.011169434,8611419.677734375,9447732.925415039,9472693.44329834,-5902570.2476501465,10940222.74017334,5486407.75680542,-11380576.133728027,-11760780.334472656,-13194932.93762207,9062304.496765137,8827818.870544434,2020063.1618499756,10916986.465454102,5366941.928863525,-12462366.104125977,-12266553.87878418,-9749534.606933594,1764935.1358413696,10006796.836853027,5845847.129821777,5599448.204040527
0.45,18890125.274658203,23834913.25378418,28061597.82409668,36534988.40332031,1890612.4830245972,16044260.025024414,28567514.419555664,27727354.049682617,9258861.541748047,1292546.6299057007,787771.1057662964,248123.57127666473,-615721.6429710388,1331843.7337875366,16203020.095825195,2111602.544784546,15485268.592834473,-3382414.1025543213,4515274.524688721,-10730961.799621582,-11125144.004821777,-8498875.617980957,-26159215.927124023,27034847.259521484,-8668866.157531738,-8648365.020751953,9009157.180786133,1828249.3352890015,25073.539465665817,-4209894.65713501,-17038022.994995117,-21901645.66040039,12084222.793579102,-8194193.8400268555,-4066972.7325439453,-12570710.182189941,39678.458124399185,745356.5001487732,-7043505.1918029785,-15643966.674804688,-15617929.458618164,11182226.181030273,11736140.251159668,11868502.616882324,-2105727.195739746,14873421.669006348,6244571.685791016,-12408183.097839355,-12830432.891845703,-14795043.9453125,11357214.92767334,11262222.290039062,4632907.867431641,14532601.356506348,6331012.725830078,-13751576.42364502,-13391695.976257324,-6337315.082550049,4380440.235137939,13706606.8649292,6596877.098083496,6582895.755767822
0.455,19438922.882080078,21456356.048583984,24420389.17541504,35445533.752441406,-1045520.6632614136,18378496.170043945,28438602.447509766,27760658.264160156,8256365.776062012,-957094.5501327515,-2120851.0398864746,-2406864.1662597656,-3374382.0190429688,-1495988.130569458,18467853.546142578,2581986.904144287,16729434.967041016,-3943788.2900238037,2118310.2130889893,-13535290.718078613,-13787958.145141602,-10917325.019836426,-28212329.864501953,26092924.118041992,-7493841.171264648,-7319144.248962402,8897397.994995117,771600.0080108643,-1114617.4669265747,-6007488.250732422,-18720315.93322754,-22323120.1171875,12873506.546020508,-7115673.542022705,-2278501.510620117,-10777964.59197998,294212.281703949,-321711.57002449036,-8208776.473999023,-15566751.480102539,-15540052.41394043,12107003.211975098,12383727.073669434,12750768.661499023,475505.9778690338,17255535.125732422,6416976.9287109375,-12329521.179199219,-12830271.72088623,-14784559.24987793,12083180.42755127,12059475.898742676,6435418.128967285,16794752.12097168,6484199.047088623,-13574405.670166016,-13236248.016357422,-4162527.561187744,6388531.20803833,16109184.265136719,6814533.710479736,6804471.015930176
0.46,18154647.827148438,18613029.47998047,20436140.060424805,33105110.16845703,-1883310.4372024536,18022409.439086914,26223964.69116211,25541307.44934082,6041253.566741943,-3520218.849182129,-2700928.9264678955,-2860611.6771698,-3795601.3679504395,996310.9493255615,18117424.01123047,725247.3831176758,15491248.13079834,-5575129.03213501,10144.321247935295,-14120761.87133789,-14171260.833740234,-7623683.452606201,-23807826.99584961,23478698.73046875,-7919010.639190674,-7453088.283538818,8028666.4962768555,598135.9481811523,-983538.6872291565,-5118231.773376465,-15131045.3414917,-17864450.454711914,12373004.913330078,-7522432.327270508,-1782058.7158203125,-9552608.489990234,349006.8316459656,-239580.22892475128,-7529234.886169434,-13086844.444274902,-12839514.73236084,11624305.725097656,11887136.459350586,12338864.32647705,437976.03249549866,16561672.21069336,5970049.858093262,-10406370.162963867,-10946150.779724121,-12247442.245483398,11734873.77166748,11612590.789794922,7101223.945617676,16299444.198608398,5835452.079772949,-11310143.47076416,-11108337.40234375,-4790934.085845947,7264425.754547119,15673034.66796875,6445336.818695068,6249414.920806885
0.465,14979666.709899902,18611434.936523438,21823976.516723633,31130044.93713379,1041711.2112045288,12770689.964294434,22955986.02294922,22233797.073364258,5499065.87600708,-2868900.5374908447,561938.8818740845,296687.93082237244,-550758.6002349854,7059116.840362549,12882159.233093262,-3013383.626937866,12457774.16229248,-6193723.201751709,1115695.595741272,-11088042.259216309,-11081577.30102539,-1345736.9804382324,-16211626.052856445,19137479.782104492,-12349866.86706543,-10015944.480895996,6526535.0341796875,1300812.2444152832,704452.4550437927,-1684554.6960830688,-9282599.449157715,-12189041.137695312,9818453.788757324,-11814246.17767334,-5008253.574371338,-11203121.185302734,-5999.088753014803,1332830.0714492798,-5274354.457855225,-9687405.586242676,-9233174.324035645,8856328.010559082,9395018.577575684,9608848.571777344,-2272946.834564209,13737272.262573242,5511206.150054932,-7683392.524719238,-8200021.743774414,-8738796.23413086,9296158.790588379,9080438.613891602,5088448.524475098,13718069.076538086,5301550.86517334,-8376005.172729492,-8241327.285766602,-7780114.17388916,5270686.626434326,13071245.193481445,6037684.440612793,5749954.2236328125
0.47,9533291.816711426,18522077.560424805,25251665.115356445,28155471.801757812,4133918.7622070312,5689291.954040527,19198850.631713867,18467597.96142578,6033888.816833496,38603.343069553375,4276039.600372314,3883856.0581207275,3050307.273864746,10354280.471801758,5759660.720825195,-7386303.901672363,9054418.563842773,-5605483.055114746,4339535.713195801,-7367887.9737854,-7483016.490936279,1348388.671875,-12189737.319946289,14109509.468078613,-18053079.60510254,-13604983.32977295,5052396.297454834,1913928.0319213867,2161237.7166748047,800926.7449378967,-7280867.099761963,-10177423.477172852,6130231.857299805,-17494033.813476562,-10300965.309143066,-14532489.776611328,-409441.35189056396,2779242.0387268066,-3803530.9314727783,-8221206.6650390625,-7806692.600250244,4889517.307281494,5754449.367523193,5633327.007293701,-5469049.453735352,11667542.457580566,5543631.553649902,-6468737.1253967285,-6950430.393218994,-7325380.802154541,5517941.474914551,5378288.745880127,819975.0781059265,11654488.563537598,5486483.097076416,-7264534.950256348,-7034207.344055176,-9821694.374084473,892462.7304077148,11035150.527954102,6065832.138061523,5855740.547180176
0.475,4806172.847747803,15315592.765808105,24172508.239746094,24219062.80517578,3837351.3221740723,2751216.6500091553,16465894.69909668,15724574.089050293,5318953.514099121,1200744.390487671,4687769.889831543,4384865.283966064,3459153.890609741,8589164.733886719,2716956.853866577,-9584716.796875,7169125.080108643,-5103264.808654785,6127868.175506592,-6487697.124481201,-6718937.873840332,-1341292.8581237793,-13568197.250366211,11379163.74206543,-19254062.65258789,-15181510.925292969,4601593.971252441,2122198.3432769775,1818617.1054840088,9932.644665241241,-10294370.651245117,-12082676.887512207,3978741.407394409,-18934640.884399414,-12780859.94720459,-15781830.787658691,-366569.3402290344,2589730.978012085,-4492208.003997803,-9484086.990356445,-9291624.069213867,2702769.2794799805,3633424.5204925537,3491241.693496704,-6979256.629943848,11718633.651733398,5678011.417388916,-7475934.028625488,-7970189.094543457,-8778961.181640625,3234105.8254241943,3234564.5427703857,-2880211.83013916,11513525.009155273,5764734.745025635,-8524402.618408203,-8140999.794006348,-8832470.893859863,-2826607.9425811768,10978938.102722168,6187808.036804199,6020535.945892334
0.48,4953878.879547119,12298368.453979492,19782838.821411133,22923734.664916992,2013566.255569458,5259541.988372803,16474361.419677734,15699881.553649902,3893966.9132232666,-174827.7246952057,2924093.48487854,2866110.5632781982,1794343.2331085205,5798511.028289795,5126009.464263916,-7952794.551849365,7797810.5545043945,-4950739.860534668,5464908.599853516,-7852592.468261719,-8048903.465270996,-4558635.234832764,-16009960.174560547,12335487.365722656,-15274712.562561035,-13659960.746765137,5531962.3947143555,2676755.666732788,474554.27050590515,-2074331.9988250732,-13391213.417053223,-14248586.654663086,4239744.186401367,-15239728.927612305,-10677268.028259277,-13662250.518798828,63376.98549032211,1393267.9891586304,-5881730.079650879,-11330006.59942627,-11242910.385131836,3258157.730102539,3911953.4492492676,4112195.4917907715,-6888778.6865234375,12139463.424682617,5095841.407775879,-8963016.510009766,-9483501.434326172,-10674416.542053223,3548066.6160583496,3556988.000869751,-3954944.372177124,11784674.644470215,5126928.329467773,-10177902.221679688,-9740275.382995605,-7335462.57019043,-3786018.6100006104,11233945.846557617,5641491.413116455,5371745.1095581055
0.485,9674877.166748047,14609390.258789062,19431259.155273438,27007181.16760254,3135534.5249176025,8725485.801696777,19274831.771850586,18467262.268066406,5034482.955932617,-336420.1784133911,3214243.4120178223,3290300.6076812744,2108482.599258423,6339644.432067871,8581306.457519531,-4039106.845855713,10447812.0803833,-3796839.475631714,5023323.059082031,-7942800.045013428,-8023896.217346191,-3718770.980834961,-15237532.615661621,15267987.251281738,-11201487.54119873,-10862604.141235352,7142241.00112915,3616054.058074951,99388.44293355942,-2103001.356124878,-12527592.658996582,-14097700.119018555,5537284.374237061,-11176406.860351562,-7105800.151824951,-10829156.875610352,344141.3640975952,934280.1570892334,-5863911.6287231445,-11558238.983154297,-11289051.055908203,4899121.284484863,5206435.203552246,5668169.975280762,-6320252.418518066,11215027.809143066,3896151.542663574,-9127455.711364746,-9567066.192626953,-10702119.827270508,5033073.902130127,4929615.497589111,-2410766.839981079,10888322.830200195,3800772.6669311523,-10358376.502990723,-9970295.906066895,-8247208.595275879,-2191163.7783050537,10160437.58392334,4501597.4044799805,4140131.4735412598
0.49,14790487.289428711,21715709.686279297,25953338.623046875,34555942.53540039,8192948.341369629,10174916.26739502,23465602.87475586,22632354.736328125,10056136.131286621,3542072.296142578,7137093.544006348,7137059.211730957,5989713.191986084,10337453.842163086,10108506.202697754,-195776.16453170776,14193599.700927734,-862361.9079589844,7162220.478057861,-5407836.9140625,-5438858.509063721,255984.66396331787,-11283296.585083008,18472579.956054688,-9851787.567138672,-8537387.84790039,8527868.270874023,3404397.72605896,1059688.4489059448,38760.7105076313,-9241044.998168945,-12035351.753234863,7610065.460205078,-9604868.88885498,-4928962.230682373,-9848064.422607422,196788.29610347748,1570081.9492340088,-4701517.105102539,-10413650.512695312,-9839867.59185791,7048020.362854004,7289479.732513428,7555897.7127075195,-5002105.236053467,10220578.19366455,3146781.6829681396,-8275480.270385742,-8506530.76171875,-9369335.174560547,7214684.48638916,7042543.888092041,1079904.7946929932,10031575.202941895,3080172.300338745,-9415771.484375,-9060444.831848145,-9259131.43157959,1172927.3796081543,9132071.495056152,3774604.558944702,3467454.671859741
0.495,17947578.43017578,28370132.446289062,34110374.450683594,41248577.11791992,13916816.711425781,11598626.136779785,27349813.46130371,26473262.786865234,15887971.878051758,9140413.284301758,11925555.229187012,11813362.121582031,10876848.220825195,15098175.048828125,11605230.331420898,2990565.299987793,18070611.95373535,2335497.1408843994,10646229.74395752,-2624797.821044922,-2670841.932296753,3542133.092880249,-7023803.234100342,21595609.664916992,-8703274.726867676,-6613788.12789917,9387389.183044434,942033.4100723267,1806904.3159484863,1604600.9063720703,-7366436.958312988,-9672152.519226074,11324236.869812012,-8355730.056762695,-3565807.819366455,-10163599.014282227,-88088.4900689125,1998639.2259597778,-4426637.649536133,-9661793.70880127,-8957989.692687988,10618439.674377441,11087201.118469238,10921572.6852417,-1879030.1084518433,11004229.545593262,3225167.989730835,-7979050.636291504,-8077009.201049805,-8713524.81842041,10924906.730651855,10788604.736328125,5291935.920715332,10925884.246826172,3325224.3995666504,-8955390.930175781,-8577065.467834473,-6399380.207061768,5263019.561767578,9993629.455566406,3846522.569656372,3633751.153945923
0.5,19772872.924804688,30814533.233642578,37516510.009765625,44368385.314941406,16694475.173950195,14028278.350830078,29029108.04748535,28093458.17565918,18153364.181518555,11698621.74987793,14024587.631225586,13912566.184997559,13211644.172668457,17886404.037475586,14033087.730407715,5234519.004821777,20298616.409301758,3356547.1172332764,12332806.587219238,-2110379.934310913,-2135941.505432129,4288793.563842773,-5132675.647735596,22995586.395263672,-6319910.526275635,-5065989.017486572,9702805.519104004,-2497342.109680176,1277983.1886291504,1169314.980506897,-7873135.566711426,-8440560.340881348,14845682.144165039,-6155467.0333862305,-2116248.607635498,-10089751.243591309,-151598.7515449524,1395317.792892456,-5662879.943847656,-10131694.793701172,-9543889.045715332,14060032.844543457,14739510.536193848,14423687.934875488,2355918.1690216064,12247645.378112793,3098784.6851348877,-8821372.985839844,-9058732.986450195,-9469072.341918945,14463735.580444336,14382270.812988281,7627605.91506958,12186703.6819458,3281934.976577759,-9609884.262084961,-9253562.927246094,-2040183.5441589355,7680252.552032471,11251750.946044922,3739583.0154418945,3523172.8553771973
