time,Fp1,Fpz,Fp2,AF3,AF4,F7,F5,F3,F1,Fz,F2,F4,F6,F8,FT7,FC5,FC3,FC1,FCz,FC2,FC4,FC6,FT8,T7,C5,C3,C1,Cz,C2,C4,C6,T8,TP7,CP5,CP3,CP1,CPz,CP2,CP4,CP6,TP8,P7,P5,P3,P1,Pz,P2,P4,P6,P8,PO7,PO5,PO3,POz,PO4,PO6,PO8,CB1,O1,Oz,O2,CB2
0.0,-3041131.7348480225,-2876553.773880005,-1142914.891242981,-1447977.1852493286,-1412276.3872146606,-1350753.3073425293,-1870461.2255096436,-1806086.540222168,2491501.3313293457,-486884.35554504395,-778234.601020813,-803005.1589012146,-784068.4056282043,-1113063.5738372803,-1360161.0660552979,-275604.33745384216,536272.7046012878,365609.13920402527,-516795.814037323,-201992.9587841034,-249653.22017669678,-800167.2625541687,-487691.4322376251,-2179110.7654571533,-476842.40341186523,168916.53835773468,-359617.7399158478,-237313.4046792984,-24142.72166788578,-184059.20267105103,-371641.75510406494,178658.127784729,755444.8246955872,-495245.0394630432,1026969.9096679688,412988.0368709564,38603.71932387352,-45223.455876111984,-157709.002494812,-141706.74979686737,-132983.31201076508,782592.0581817627,763508.0814361572,751141.9057846069,-423857.0034503937,740851.1638641357,163689.0321969986,19035.523757338524,41728.392243385315,-140656.9927930832,750460.4458808899,744641.6616439819,688859.5819473267,766332.9243659973,207072.85404205322,-6923.595443367958,18913.70117664337,1016612.5297546387,732148.1108665466,751073.3604431152,178145.49803733826,146658.5099697113
0.005,28015134.811401367,9277629.852294922,46581451.416015625,-3070945.0244903564,-5980376.243591309,9891969.680786133,-5251484.394073486,-3541714.668273926,90667991.6381836,-2636749.9828338623,-4890769.958496094,-5441065.311431885,-4775110.244750977,-7610279.083251953,9544595.718383789,6116465.5685424805,25114711.76147461,15573515.892028809,-3630122.661590576,-4613706.111907959,-5837778.568267822,-12716363.906860352,656010.3893280029,-51724300.384521484,8920864.10522461,2837226.8676757812,-2105754.852294922,-453014.075756073,-808421.4925765991,-7253114.700317383,-15118922.233581543,-5039116.859436035,22768661.499023438,8313641.548156738,40393825.53100586,14999653.816223145,950146.1982727051,-1271731.1382293701,-4570686.817169189,-6016090.869903564,-5748298.168182373,23944812.774658203,22794891.357421875,22453182.220458984,21158966.064453125,8555560.111999512,5253354.549407959,-390932.6195716858,475784.68918800354,-6110487.937927246,22329259.872436523,21946916.580200195,16598152.160644531,9615680.694580078,6435678.005218506,-1129348.874092102,84341.57073497772,14233482.360839844,17735807.418823242,9225799.560546875,5569796.562194824,4952186.107635498
0.01,35570472.717285156,10214691.162109375,59983715.05737305,-5966954.231262207,-9509969.711303711,11579978.942871094,-10106258.392333984,-7701444.625854492,126586479.18701172,-3652208.089828491,-7519701.4808654785,-8090877.532958984,-7373040.199279785,-13837497.71118164,10947083.473205566,6656143.1884765625,34199958.80126953,21562372.2076416,-3902336.597442627,-6208006.381988525,-7843956.94732666,-20098615.646362305,-1918568.8495635986,-73126564.0258789,10567396.16394043,3373188.4956359863,-3078474.998474121,-385935.90259552,-1068228.4832000732,-9833043.098449707,-22459739.685058594,-8218288.421630859,29035959.243774414,9502156.257629395,55187995.91064453,20272899.627685547,1354852.9148101807,-1894722.580909729,-6483170.986175537,-9698774.337768555,-9212507.247924805,30635320.66345215,28996919.631958008,28545957.565307617,29173763.275146484,10775318.145751953,6589334.487915039,-1928601.5033721924,-835058.9275360107,-9747174.263000488,28276386.260986328,27789228.439331055,21703861.236572266,12283489.227294922,8114315.986633301,-2965575.933456421,-1259808.897972107,18259035.110473633,23277017.59338379,11739291.191101074,6986569.404602051,6231267.929077148
0.015,27696607.58972168,6206272.125244141,48757484.436035156,-6507909.774780273,-10305538.177490234,7512712.9554748535,-12436225.891113281,-10213764.190673828,116053344.7265625,-3088340.2824401855,-8156993.865966797,-8398560.523986816,-8044274.33013916,-17393489.837646484,6759739.398956299,4143537.998199463,31358768.463134766,20060031.89086914,-1845652.2226333618,-5766370.2964782715,-7151634.693145752,-22324108.123779297,-6461143.016815186,-67801345.82519531,6269616.12701416,2528815.0310516357,-2855439.6629333496,-776084.8999023438,-1389551.9971847534,-9331951.141357422,-23411949.157714844,-9719980.239868164,21883203.506469727,5029130.935668945,48444301.60522461,17544889.450073242,1262655.8542251587,-2401894.5693969727,-6725859.642028809,-11383615.493774414,-10786365.509033203,23242149.353027344,21687576.293945312,21362819.67163086,24951992.03491211,8187342.643737793,4801447.39151001,-4337489.604949951,-3529238.224029541,-11305915.832519531,21025224.685668945,20622478.485107422,16909378.051757812,9538107.872009277,6072603.702545166,-5342965.126037598,-3731657.028198242,13533985.137939453,18331607.818603516,9031790.733337402,5133629.79888916,4585239.410400391
0.02,27282361.98425293,9311869.621276855,45055519.104003906,-1639199.3761062622,-8562427.520751953,6856312.7517700195,-8602103.233337402,-6652691.36428833,103318534.85107422,-1536320.5671310425,-7759199.619293213,-7859497.0703125,-7677014.8277282715,-16724346.160888672,6171319.007873535,4636165.142059326,30499624.252319336,19443962.09716797,-127983.57009887695,-6016168.117523193,-7181126.117706299,-22328256.607055664,-8746984.481811523,-59318580.627441406,3014253.616333008,2210813.283920288,-1809105.8731079102,-2190383.4342956543,-2590435.9817504883,-10319818.496704102,-24315908.432006836,-11622121.810913086,15154681.205749512,1882632.2555541992,41030918.12133789,14933421.13494873,1069811.5825653076,-3562551.0215759277,-7783414.363861084,-13062167.167663574,-12466147.422790527,16192653.65600586,14809355.735778809,14641905.784606934,19763690.948486328,5458778.381347656,3232626.6765594482,-6709155.082702637,-6132054.805755615,-12948103.904724121,14428027.153015137,13992086.410522461,11026878.356933594,6497107.50579834,4395716.190338135,-7680912.971496582,-6193075.656890869,8190155.982971191,12276996.612548828,6050030.708312988,3546145.9159851074,3112063.6463165283
0.025,35575130.462646484,15772619.247436523,53621047.97363281,3701380.968093872,-8394385.33782959,8925868.98803711,-3288553.9531707764,-1270118.3557510376,109318031.31103516,-612845.3016281128,-8435631.75201416,-8766429.901123047,-8409371.376037598,-15352367.401123047,8341301.918029785,7307755.947113037,34713687.896728516,22374944.68688965,-120414.1303896904,-7867383.4800720215,-9183533.668518066,-23540956.497192383,-9075918.197631836,-62688705.44433594,2701263.189315796,2341117.3820495605,-969518.1846618652,-3682736.873626709,-4366359.710693359,-13999144.554138184,-28181875.228881836,-15500257.49206543,15109650.611877441,1737016.201019287,42588363.64746094,16095943.450927734,1039352.536201477,-5153200.149536133,-10121173.858642578,-16202239.990234375,-15619706.153869629,16059444.427490234,14728682.518005371,14538332.93914795,19632377.62451172,4575653.076171875,3169796.943664551,-9133965.492248535,-8505954.74243164,-16186243.057250977,14578891.75415039,13894106.8649292,9078996.658325195,5508014.20211792,4569491.386413574,-10147144.317626953,-8641921.043395996,7833252.906799316,10398246.765136719,5081455.230712891,3527014.2555236816,2949070.692062378
0.03,33905483.24584961,10929436.683654785,51463214.87426758,1376512.050628662,-14001933.097839355,5892923.355102539,-4705324.649810791,-2534052.610397339,116384643.5546875,-2070621.0136413574,-11889652.252197266,-12499584.197998047,-12020101.547241211,-19192390.44189453,5317917.823791504,6382521.152496338,35031261.4440918,23571853.637695312,-1127906.7993164062,-10132797.241210938,-11670899.391174316,-27506826.400756836,-12021948.81439209,-71361053.46679688,1940683.4840774536,1488654.7327041626,-1072578.1917572021,-4047766.68548584,-5625336.170196533,-17570333.48083496,-32823860.16845703,-21196987.15209961,16847969.05517578,1013297.9154586792,45395977.02026367,17824920.654296875,1112254.1427612305,-6247343.063354492,-12033517.837524414,-20411890.029907227,-19786001.205444336,17807868.95751953,16507659.912109375,16123041.152954102,21772352.21862793,4343924.999237061,3197346.4488983154,-12277339.935302734,-11584864.616394043,-20524456.024169922,16345754.623413086,15447073.936462402,9685529.708862305,5352876.18637085,4766299.724578857,-13299257.278442383,-11871699.333190918,10855494.499206543,11058187.484741211,4974972.248077393,3586149.6925354004,2826603.1742095947
0.035,18099325.18005371,-5857546.329498291,31932876.586914062,-7723911.285400391,-23175758.361816406,-2204162.359237671,-12491209.983825684,-10410111.427307129,108739669.79980469,-5689745.903015137,-17064802.169799805,-17687528.610229492,-17385158.53881836,-28295591.354370117,-2777049.779891968,1501556.396484375,27743745.803833008,19815633.77380371,-2135206.937789917,-11703244.20928955,-13192637.44354248,-32775856.018066406,-18547670.364379883,-73108772.27783203,-81566.68394804001,-299291.4617061615,-1771290.898323059,-3848952.054977417,-5743581.295013428,-18865060.806274414,-35638824.462890625,-26652797.69897461,16896358.489990234,-1010138.3924484253,43241809.8449707,17428821.563720703,1178987.979888916,-6327175.140380859,-12329174.995422363,-23643270.49255371,-22983839.03503418,17807279.586791992,16518072.128295898,15969481.468200684,23274345.39794922,4834455.966949463,2786762.9528045654,-15185729.026794434,-14597691.535949707,-23838258.743286133,16190559.387207031,15365843.772888184,11485061.645507812,5901123.523712158,4251739.978790283,-16235544.204711914,-15002599.716186523,14065297.12677002,12678687.09564209,5619982.719421387,3241401.195526123,2446493.148803711
0.04,7589519.023895264,-16948089.599609375,18236320.49560547,-13071142.196655273,-28021471.02355957,-6313136.100769043,-17396888.732910156,-15549456.596374512,97972038.26904297,-8494448.6618042,-20131788.25378418,-20550682.067871094,-20464900.970458984,-34663810.72998047,-6782944.202423096,-1125768.780708313,20609003.0670166,15710206.985473633,-2732919.216156006,-12190279.006958008,-13463944.435119629,-35444057.46459961,-22704309.463500977,-67510856.62841797,-228274.19638633728,-1694084.882736206,-2172564.2681121826,-4676417.827606201,-4782153.606414795,-18426172.256469727,-36048576.35498047,-28669422.149658203,18693840.02685547,-1018959.4030380249,41195549.01123047,16704278.945922852,1273970.2463150024,-5416956.901550293,-11306936.264038086,-23353792.190551758,-22751161.575317383,19537296.295166016,18169004.440307617,17626960.75439453,25495487.213134766,8036455.154418945,3776001.6918182373,-15056828.498840332,-14529217.720031738,-23608966.827392578,17751724.243164062,17201560.974121094,15420157.432556152,9069830.894470215,5122690.200805664,-16275821.685791016,-15075306.89239502,18434280.395507812,16435192.108154297,8864698.41003418,4378344.0589904785,3605825.901031494
0.045,15194124.221801758,-10912157.05871582,26931859.970092773,-8595435.14251709,-24248819.35119629,-3057404.5181274414,-14576627.731323242,-12825068.473815918,99747734.06982422,-7880456.447601318,-18578924.17907715,-18810367.584228516,-18673774.71923828,-31755979.537963867,-3416096.4488983154,1287881.9704055786,19817060.470581055,16213985.443115234,-2749900.5794525146,-11490949.630737305,-12675385.475158691,-32934692.3828125,-19455625.534057617,-63248550.41503906,1816135.6449127197,-2741636.037826538,-2077081.2034606934,-6624821.186065674,-3090907.573699951,-17523979.18701172,-34377807.6171875,-25835958.48083496,23671031.951904297,1225005.030632019,44012252.80761719,17595222.47314453,1429052.5913238525,-3750667.5720214844,-9652414.321899414,-18960025.787353516,-18437421.798706055,24508811.950683594,23080577.850341797,22652229.30908203,29325059.89074707,13573902.130126953,7237642.288208008,-10720277.786254883,-10037704.467773438,-19258630.752563477,22721237.182617188,22351661.682128906,20410434.72290039,14569418.907165527,8605706.214904785,-12140378.952026367,-10761541.366577148,25601650.23803711,21582687.377929688,14376628.875732422,7919050.693511963,7098472.118377686
0.05,26850082.397460938,1095895.767211914,42414501.19018555,-1775182.2471618652,-17489633.560180664,-997044.026851654,-10931398.391723633,-9092934.608459473,107616546.63085938,-5663897.99118042,-15160285.949707031,-15360116.958618164,-15006271.362304688,-23955839.157104492,-1381557.3453903198,3415357.3513031006,20859870.91064453,17940336.227416992,-2466138.8397216797,-10571419.715881348,-11822460.174560547,-28183534.622192383,-12853134.155273438,-65416732.78808594,1433531.8803787231,-4980036.25869751,-2224025.9647369385,-8081606.864929199,-1527227.282524109,-16988624.572753906,-31939067.840576172,-21319887.161254883,25696218.490600586,856105.5660247803,46837978.36303711,18468206.40563965,1523952.841758728,-2118039.846420288,-8122792.2439575195,-13637250.900268555,-13092193.603515625,26612104.415893555,25264802.932739258,24928834.915161133,32193584.442138672,17341148.376464844,10913681.983947754,-5398399.829864502,-4597075.939178467,-13898806.57196045,24992822.647094727,24587440.490722656,22254518.508911133,18382778.16772461,12237950.325012207,-6825316.905975342,-5369347.095489502,31574937.82043457,23826515.197753906,18144962.310791016,11450977.325439453,10578364.372253418
0.055,23137897.491455078,1668227.4341583252,41788837.43286133,-3722917.7951812744,-16970645.904541016,-8322126.388549805,-15396103.858947754,-13450004.577636719,105500709.5336914,-6687810.42098999,-15376125.33569336,-15716536.521911621,-15279627.799987793,-22035684.58557129,-8799519.538879395,-192595.27325630188,17337154.388427734,13199570.655822754,-2997627.9735565186,-11592570.304870605,-12880706.787109375,-27563795.08972168,-11784453.392028809,-71695152.28271484,-4125382.900238037,-8690166.473388672,-3282876.2531280518,-8254796.028137207,-1357689.8574829102,-17858310.69946289,-31738056.182861328,-20664287.567138672,19613840.103149414,-4894245.624542236,43666687.01171875,17133609.771728516,1427651.5245437622,-1825909.0185165405,-7856223.583221436,-12173228.26385498,-11521736.145019531,20696329.11682129,19414064.407348633,19130195.61767578,31888246.536254883,16362976.07421875,11775593.757629395,-3948097.2290039062,-3362042.188644409,-12308001.518249512,19167043.685913086,18652259.826660156,19042360.305786133,17533956.52770996,12903797.149658203,-5218927.383422852,-3936317.6822662354,29855722.427368164,20833877.563476562,17173727.03552246,12090785.98022461,11302257.537841797
0.06,7382934.5703125,-9438658.714294434,27505586.624145508,-14080334.663391113,-24245777.130126953,-21060947.41821289,-26299655.91430664,-24330873.489379883,93477996.82617188,-12387913.703918457,-20585002.899169922,-21175264.358520508,-20866781.23474121,-29652111.053466797,-21529712.677001953,-7150093.078613281,11519824.028015137,1172979.5932769775,-5113242.626190186,-15308252.334594727,-16564203.262329102,-33131130.21850586,-18354543.685913086,-77662750.24414062,-10866574.28741455,-11972216.606140137,-4978392.124176025,-8360784.530639648,-2908951.2825012207,-20631046.295166016,-35574028.01513672,-25317146.30126953,10305787.086486816,-11750965.118408203,37514862.060546875,14782505.989074707,1185028.7914276123,-3293688.5356903076,-9294361.114501953,-15632610.321044922,-14927727.699279785,11564194.679260254,10146928.787231445,9914124.488830566,29692935.943603516,12890285.49194336,10114882.469177246,-7097800.254821777,-6857656.478881836,-15665202.140808105,9894797.325134277,9348771.095275879,14471456.527709961,14194615.364074707,11179264.068603516,-8294327.735900879,-7171190.26184082,21465993.881225586,16125602.722167969,13634242.057800293,10409517.288208008,9827583.312988281
0.065,-1092453.0029296875,-17786727.905273438,19090579.986572266,-21675546.646118164,-31627683.639526367,-28567695.61767578,-33500244.140625,-31580551.147460938,85788902.28271484,-17857566.833496094,-25804975.509643555,-26601774.215698242,-26478141.78466797,-39103496.55151367,-28968114.852905273,-10961910.247802734,10222808.837890625,-9997755.05065918,-7630548.477172852,-19063854.217529297,-20371334.075927734,-39444351.19628906,-25317256.927490234,-80900634.765625,-13022188.186645508,-13120714.18762207,-6384427.547454834,-9585543.632507324,-4727374.55368042,-23613140.106201172,-40693565.368652344,-30459032.05871582,7203740.59677124,-13749211.311340332,35476665.49682617,14412648.20098877,945628.9410591125,-5112332.344055176,-10988815.307617188,-19647947.311401367,-18986593.24645996,8459382.057189941,6909830.093383789,6690474.033355713,28188114.166259766,11632895.469665527,9074951.171875,-10394957.542419434,-10151278.495788574,-19689985.275268555,6657134.532928467,6142298.221588135,13393026.351928711,12964054.107666016,10384340.286254883,-11675702.095031738,-10479089.736938477,15880775.451660156,14823300.3616333,12259647.369384766,9544440.269470215,9133005.142211914
0.07,5763388.633728027,-15014082.908630371,23761610.03112793,-19139739.990234375,-31770326.614379883,-26472137.451171875,-31145660.400390625,-29306951.52282715,89204231.26220703,-17221008.30078125,-25576747.89428711,-26389663.696289062,-26382204.055786133,-41653171.53930664,-26929388.04626465,-9398840.90423584,14803558.349609375,-12864377.02178955,-8203295.707702637,-19404630.661010742,-20907581.329345703,-40260734.55810547,-25826005.935668945,-80764289.85595703,-9965385.437011719,-12236939.430236816,-6765531.539916992,-11045157.432556152,-5096042.633056641,-24190095.901489258,-42422851.5625,-30937568.66455078,12388744.354248047,-10421668.05267334,38361915.588378906,16748016.357421875,786062.1213912964,-5530969.142913818,-11013400.077819824,-19469692.23022461,-18851400.37536621,13416236.877441406,12065102.577209473,11769597.053527832,28591369.62890625,13977838.516235352,10309570.3125,-9620698.928833008,-8982848.167419434,-19553850.173950195,11787425.04119873,11286069.869995117,16250698.08959961,15179754.257202148,11876428.604125977,-10989918.70880127,-9670670.509338379,19298688.888549805,17639873.504638672,14548021.31652832,10878834.72442627,10473913.192749023
0.075,18523071.2890625,-5990326.404571533,32918949.127197266,-10592908.85925293,-25029579.162597656,-19578145.98083496,-23240859.985351562,-21456047.05810547,97002136.23046875,-10436284.065246582,-19808795.928955078,-20498622.89428711,-20511692.04711914,-37160240.173339844,-20191070.556640625,-5364459.991455078,21346847.534179688,-8367613.792419434,-5905780.31539917,-16102672.576904297,-17794696.807861328,-35854831.69555664,-21153263.092041016,-78187316.89453125,-5566435.813903809,-10026692.390441895,-6032710.552215576,-10893168.449401855,-4143661.9758605957,-22109157.56225586,-40226654.052734375,-27513008.11767578,19196943.283081055,-5951123.7144470215,41301815.032958984,19787302.017211914,719720.1251983643,-4624466.896057129,-9554341.316223145,-15781071.662902832,-15138450.622558594,20029727.935791016,19062839.50805664,18678886.41357422,30752593.994140625,16704509.735107422,11961954.116821289,-5902275.562286377,-4973423.957824707,-15813714.981079102,18748910.903930664,18225208.282470703,19571430.206298828,17728250.50354004,13464647.29309082,-7275365.829467773,-6026315.689086914,26433923.721313477,20978145.599365234,17312091.827392578,12454496.383666992,11900118.827819824
0.08,27491353.98864746,2494198.799133301,40952106.47583008,-4025741.1003112793,-16557577.133178711,-14589557.647705078,-17018852.23388672,-15171048.164367676,102034675.59814453,-2877830.0285339355,-12465335.845947266,-13109559.059143066,-13032541.275024414,-30925882.33947754,-15221199.989318848,-1931098.461151123,27280006.408691406,-2732113.838195801,-2323026.418685913,-11857055.6640625,-13579593.658447266,-30860080.71899414,-16419706.344604492,-75985054.01611328,-3075206.2797546387,-6951471.80557251,-4858747.959136963,-8867897.033691406,-3297181.8447113037,-19565597.534179688,-37809448.2421875,-24591487.884521484,21404876.708984375,-3684427.499771118,41618350.982666016,21493661.880493164,790859.6396446228,-3802257.537841797,-8430948.257446289,-13164386.749267578,-12486010.551452637,22318599.700927734,21436048.50769043,21088232.040405273,32864467.62084961,16431352.615356445,11775689.125061035,-3619021.6541290283,-2845435.619354248,-13079938.888549805,21164705.276489258,20598087.310791016,20320613.861083984,17427906.036376953,13042647.361755371,-4993500.232696533,-3892076.7307281494,28489574.432373047,21547275.54321289,17088827.13317871,12205238.342285156,11466230.392456055
0.085,32443504.333496094,9361364.364624023,49642341.61376953,-1937054.3956756592,-10115983.963012695,-14095012.664794922,-15389967.918395996,-13353432.655334473,104083328.24707031,767431.0803413391,-6834410.667419434,-7592620.372772217,-7341549.396514893,-25708778.381347656,-14558130.264282227,-303774.1184234619,31814374.923706055,-134063.05015087128,66187.33704090118,-8756800.651550293,-10387057.304382324,-27406873.70300293,-12980317.115783691,-76641685.48583984,-3197521.924972534,-4298264.026641846,-4436234.951019287,-6615815.63949585,-2976473.093032837,-17913007.736206055,-37070392.60864258,-23555921.55456543,19353773.11706543,-4127788.0668640137,40626693.72558594,21355260.848999023,996434.8077774048,-3483477.3540496826,-8165894.508361816,-13345433.235168457,-12687909.126281738,20474845.88623047,19291284.561157227,19080621.71936035,31162658.69140625,13885828.018188477,10588939.666748047,-4121767.997741699,-3704201.6983032227,-13220804.214477539,19156476.974487305,18535654.067993164,18469154.357910156,15066493.98803711,11824406.623840332,-5538747.310638428,-4415242.1951293945,25446779.251098633,19420825.958251953,14549307.823181152,11096329.689025879,10276069.641113281
0.09,36775001.525878906,15855531.692504883,57477279.66308594,-1243952.6319503784,-6060496.3302612305,-15757502.555847168,-16065563.201904297,-13861107.82623291,104560981.75048828,615557.0149421692,-3588564.157485962,-4429726.123809814,-4041603.0883789062,-20767723.083496094,-16109794.616699219,-750001.0132789612,32859394.073486328,-276633.1434249878,242865.24951457977,-6780981.540679932,-8333994.8654174805,-24025835.037231445,-8788594.245910645,-79006248.4741211,-5075518.1312561035,-3862349.9870300293,-5431855.67855835,-5565299.987792969,-2235707.7598571777,-16271490.097045898,-35661491.39404297,-21820018.768310547,16838457.107543945,-6153527.736663818,39483943.939208984,20046661.376953125,1163367.1522140503,-2707956.314086914,-7401547.431945801,-13029950.141906738,-12430089.950561523,17975028.99169922,16560920.715332031,16412130.355834961,23275449.752807617,12629882.8125,10988248.825073242,-4125627.040863037,-3837897.300720215,-12983481.407165527,16518604.278564453,15878096.580505371,16046319.961547852,14026120.18585205,12419581.413269043,-5540099.620819092,-4287809.371948242,24266649.24621582,16996051.788330078,13303038.597106934,11582044.60144043,10825308.799743652
0.095,42943256.37817383,23152202.606201172,60798778.53393555,1682569.7422027588,-2322686.195373535,-14162218.09387207,-14753150.939941406,-12559329.986572266,103385787.96386719,319545.29881477356,-1488342.523574829,-2190817.356109619,-1786854.863166809,-15895854.949951172,-14607084.274291992,-1716008.7823867798,29687242.50793457,-787008.3451271057,-538319.2300796509,-5164012.908935547,-6725595.951080322,-19872583.389282227,-3613939.2852783203,-78941474.91455078,-6306748.867034912,-5153923.511505127,-6888493.061065674,-5349534.511566162,-744462.3112678528,-13755277.633666992,-31583217.62084961,-17889232.635498047,15960040.092468262,-7271369.934082031,38165100.09765625,18832443.237304688,1094967.4844741821,-1165752.4108886719,-5547318.458557129,-9313000.679016113,-8749334.335327148,16928585.052490234,15651968.955993652,15422468.185424805,12511402.130126953,14039913.177490234,13167737.007141113,-926305.0556182861,-494140.8932209015,-9365719.79522705,15548794.746398926,14973392.486572266,14751228.332519531,15480398.178100586,14731504.440307617,-2221643.4478759766,-1008409.6193313599,26776710.510253906,16014783.85925293,14768868.446350098,13722222.328186035,13083936.69128418
0.1,53649078.369140625,33787464.1418457,64452079.77294922,8259263.038635254,3984024.5246887207,-5431491.851806641,-8713689.804077148,-6684855.937957764,102558029.17480469,3234158.754348755,1684723.8540649414,1230291.3665771484,1599175.0955581665,-12207407.95135498,-5969909.66796875,531137.0491981506,27001518.24951172,345302.7009963989,3260.8704641461372,-3369578.1230926514,-5008963.108062744,-16333494.186401367,18333.46299827099,-73642570.49560547,-3784841.0606384277,-4950446.605682373,-6906466.960906982,-4511422.634124756,267396.33083343506,-11150366.78314209,-27077703.47595215,-14254378.318786621,16468399.047851562,-4528955.459594727,37680263.51928711,18744131.088256836,855835.4377746582,-174063.63785266876,-4205664.157867432,-4894672.393798828,-4325225.830078125,17363021.850585938,16323440.551757812,16008153.915405273,5629562.3779296875,15118475.914001465,14143937.110900879,2773244.1425323486,3365181.6844940186,-5005477.428436279,16104419.708251953,15619880.676269531,14212373.733520508,16467256.546020508,15669488.906860352,1686718.5831069946,2660264.015197754,26689313.888549805,15662826.538085938,15904706.954956055,14609694.480895996,14039765.357971191
0.105,68269981.38427734,47998317.71850586,76170730.59082031,17020982.74230957,13286678.314208984,7287011.623382568,323719.2928791046,2195360.1837158203,105460388.18359375,9393332.481384277,7203717.231750488,6809621.810913086,7175132.751464844,-10184409.141540527,6871403.694152832,7387056.350708008,30244386.672973633,3495180.606842041,2776033.401489258,-1104130.744934082,-2842909.812927246,-14701594.352722168,274228.7516593933,-64880104.064941406,2255728.244781494,-1565363.049507141,-5053646.564483643,-2345010.280609131,-372913.33079338074,-9712779.998779297,-25921438.217163086,-14312018.394470215,17253284.454345703,1611867.070198059,39043640.13671875,19411142.349243164,733034.3723297119,-947104.811668396,-5053166.86630249,-5375258.922576904,-4766331.672668457,18220754.623413086,17164644.241333008,16870780.94482422,5280541.896820068,12464346.885681152,11794767.379760742,1596078.1574249268,2222969.2935943604,-5545998.096466064,16954059.600830078,16465147.018432617,12165852.546691895,13783228.874206543,13280029.296875,732295.5131530762,1521595.1204299927,19953472.137451172,13361641.883850098,13260215.759277344,12220450.401306152,11677915.573120117
0.11,77527664.18457031,57553726.19628906,89021797.18017578,23200048.446655273,20313396.453857422,14846080.780029297,6256065.845489502,8053718.566894531,110294738.76953125,14884164.810180664,12365937.232971191,11747631.072998047,12077005.386352539,-10544709.205627441,14619632.720947266,13834513.664245605,37018875.12207031,6639904.499053955,5756303.310394287,752975.4638671875,-1037261.4860534668,-15406661.033630371,-2765820.026397705,-57716163.635253906,6265516.757965088,1993219.494819641,-3441668.98727417,143650.05493164062,-2165649.175643921,-9856107.711791992,-28805070.877075195,-18476230.62133789,16768281.936645508,5549887.657165527,40301700.592041016,19301416.397094727,856580.913066864,-2856674.4327545166,-7515362.26272583,-11822669.02923584,-11161700.248718262,17712957.38220215,16474308.013916016,16221895.217895508,7834313.39263916,7658611.77444458,8229953.765869141,-5159419.059753418,-4563683.50982666,-12061120.03326416,16398656.845092773,15831503.868103027,7326388.835906982,9057959.55657959,9744872.093200684,-5916506.767272949,-5110744.476318359,11505398.750305176,8140991.2109375,8443467.140197754,8600883.483886719,8116452.217102051
0.115,72783302.3071289,53173095.703125,86699012.75634766,22418930.053710938,18448568.34411621,12171455.383300781,4809056.282043457,6546142.101287842,110869911.19384766,15208757.400512695,12096800.804138184,11198231.69708252,11392117.500305176,-14945202.827453613,11889972.686767578,13604837.417602539,39772071.838378906,6994053.363800049,5725963.592529297,100485.37701368332,-1628571.2718963623,-18700012.20703125,-8250439.643859863,-56504642.486572266,3255498.170852661,1700645.4467773438,-4385515.6898498535,978020.3104019165,-3561548.4714508057,-11434045.791625977,-33140480.041503906,-24058080.673217773,13845813.751220703,2468248.128890991,38558959.9609375,18011596.6796875,1047483.0865859985,-4174198.1506347656,-9496914.863586426,-18533246.994018555,-17850580.2154541,14591774.940490723,13312025.07019043,12999573.707580566,9610162.734985352,6359290.12298584,7641159.0576171875,-11347628.593444824,-10831371.307373047,-18750522.61352539,13311971.664428711,12762936.59210205,2066226.2439727783,7772460.9375,9123804.092407227,-12295845.031738281,-11402321.815490723,7934103.488922119,2899297.4758148193,7134540.08102417,7888763.904571533,7476111.888885498
0.12,60643516.540527344,39504665.37475586,69750129.69970703,16694343.566894531,9308140.754699707,4993402.481079102,-546760.618686676,1099711.298942566,106021133.42285156,10540187.83569336,6011915.683746338,5039676.189422607,5141858.100891113,-22281003.952026367,4421063.423156738,8108619.689941406,37039066.314697266,4640014.171600342,2295637.607574463,-3374759.4356536865,-4964381.694793701,-23104763.03100586,-14118906.021118164,-61392169.95239258,-4127344.6083068848,-1823564.4102096558,-7426032.543182373,-870911.5386009216,-3555982.3513031006,-13674189.567565918,-36000049.59106445,-27775085.44921875,9456563.949584961,-4837796.211242676,34740432.73925781,17227588.653564453,1118927.9556274414,-3934623.0030059814,-9588322.639465332,-19346477.508544922,-18695983.88671875,10081176.7578125,8934580.80291748,8524324.417114258,11322597.50366211,11151903.15246582,11189579.010009766,-10699143.409729004,-10372379.302978516,-19408468.24645996,8826296.80633545,8446832.656860352,450303.49493026733,12376461.029052734,12553369.522094727,-12165531.158447266,-11246060.371398926,8180273.056030273,1680309.0572357178,11852582.931518555,11379842.758178711,10965091.705322266
0.125,56949089.05029297,32355396.270751953,59119983.6730957,13351597.785949707,3049380.302429199,2957385.540008545,-2165848.49357605,-553253.6506652832,102349128.72314453,6407566.547393799,855073.5116004944,1850.0647274777293,241335.52610874176,-27014741.897583008,2188510.8947753906,5587745.189666748,35499114.990234375,3265528.2020568848,-851757.4667930603,-6256224.155426025,-7763959.884643555,-24704858.779907227,-17049741.744995117,-67496101.37939453,-7923887.729644775,-3926533.6990356445,-9696570.39642334,-4097528.9344787598,-2385204.553604126,-14832424.16381836,-36193569.18334961,-28166732.788085938,6795937.538146973,-8504130.363464355,33037223.81591797,18385122.299194336,1134517.9080963135,-2639152.5268554688,-8078069.686889648,-14810170.17364502,-14200865.745544434,7561197.757720947,6496949.672698975,6095274.448394775,14588258.743286133,17541301.727294922,15473246.574401855,-4446581.840515137,-4366103.649139404,-14698845.863342285,6186362.743377686,5946137.90512085,3344950.6759643555,18482007.98034668,16802820.205688477,-6465762.615203857,-5525097.370147705,6515940.189361572,4822865.962982178,18042938.232421875,15794635.772705078,15304734.230041504
0.13,64686294.55566406,37556175.231933594,66270019.53125,15976270.67565918,5585505.00869751,8105973.243713379,2347345.5905914307,4055823.802947998,104711242.67578125,7498952.865600586,2286272.7642059326,1517384.5291137695,2012609.7202301025,-25689777.374267578,7419243.812561035,10534711.837768555,39447582.24487305,5740945.816040039,-49985.57269573212,-5203502.178192139,-6756954.193115234,-21727394.104003906,-16078149.795532227,-67962814.33105469,-4494654.655456543,-1919243.335723877,-9216191.291809082,-5997618.198394775,-1259291.172027588,-13829318.046569824,-34866901.39770508,-26798244.47631836,8203142.166137695,-5090976.238250732,35095153.80859375,20424324.03564453,1217343.3303833008,-1638854.8612594604,-6564325.332641602,-11288899.421691895,-10669713.020324707,9202230.453491211,8047707.557678223,7744899.749755859,17711299.896240234,19068746.56677246,16409137.725830078,-54077.55821943283,-92083.83411169052,-11118537.902832031,7633325.576782227,7338423.252105713,7117764.949798584,19835163.116455078,17838785.17150879,-2278241.8727874756,-1253318.428993225,2008316.7552947998,8445360.18371582,19341337.203979492,16906787.872314453,16370044.708251953
0.135,70478965.75927734,43513038.635253906,76507919.31152344,20183662.41455078,10732950.210571289,14628472.328186035,8184668.54095459,10021421.432495117,109441307.0678711,12129686.35559082,7072872.161865234,6243840.217590332,6784158.706665039,-22575073.2421875,14121401.7868042,18504091.262817383,44850894.927978516,10330311.77520752,3794948.3394622803,-1901216.6261672974,-3529293.7755584717,-18356937.408447266,-14743381.50024414,-60257106.78100586,1829118.013381958,2218810.558319092,-6797365.188598633,-5283656.597137451,-1522087.2163772583,-12347868.919372559,-34619003.29589844,-26527505.87463379,12604755.401611328,1070910.3345870972,38006828.30810547,21377094.268798828,1261817.455291748,-2077140.0928497314,-6791138.648986816,-12863871.574401855,-12190065.383911133,13681545.25756836,12349016.189575195,12091212.272644043,18240682.60192871,15139987.94555664,13653774.26147461,-2055871.7250823975,-1991850.3761291504,-12729763.03100586,12028673.17199707,11572173.118591309,8283102.989196777,15897971.153259277,15130612.37335205,-4066974.16305542,-2986783.504486084,-390155.6134223938,9406725.883483887,15341538.429260254,14132312.774658203,13611883.163452148
0.14,67062507.62939453,40944194.79370117,73985511.77978516,21210954.666137695,10236325.26397705,18415248.87084961,11357951.164245605,13189938.54522705,110934684.75341797,14921346.664428711,8089357.376098633,7211163.04397583,7494472.503662109,-23447351.455688477,17946075.439453125,23147592.544555664,47086067.19970703,13137392.9977417,6299281.120300293,-1032362.9379272461,-2644751.54876709,-19536878.58581543,-16192039.489746094,-49816967.01049805,5378680.229187012,5248870.372772217,-4678442.001342773,-3728864.6697998047,-3324336.528778076,-13138930.320739746,-36748439.78881836,-27740724.563598633,17020401.000976562,4522864.34173584,38929836.27319336,21343832.01599121,1073464.3936157227,-3839268.207550049,-8912624.35913086,-16291469.57397461,-15548846.244812012,18020381.927490234,16527906.41784668,16238193.51196289,17281442.642211914,11219537.734985352,10533061.981201172,-6539800.643920898,-6245464.80178833,-16187324.523925781,16437561.03515625,15900094.985961914,7928483.009338379,12047366.14227295,11925317.764282227,-8185177.803039551,-7168190.956115723,2580170.6314086914,9128456.115722656,11581854.820251465,10828248.977661133,10301318.168640137
0.145,63564952.8503418,36705066.6809082,66005081.17675781,20401838.302612305,5984014.511108398,20318365.0970459,12899954.795837402,14583989.143371582,109610466.00341797,13624792.098999023,4667797.088623047,3946093.5592651367,3960385.322570801,-26318935.39428711,19769641.876220703,23461832.04650879,47780307.76977539,12977213.859558105,4934272.289276123,-3621768.9514160156,-5172450.065612793,-23263427.734375,-18004917.14477539,-45635658.264160156,5475901.6036987305,6134158.611297607,-4233832.359313965,-4111634.7312927246,-5051250.457763672,-15839133.262634277,-39016361.236572266,-27502836.227416992,19695131.301879883,4704771.518707275,38516357.421875,21847400.665283203,706041.157245636,-5360402.1072387695,-10802299.499511719,-15582962.989807129,-14742640.495300293,20612676.6204834,19030012.130737305,18772865.295410156,17640378.952026367,11502223.96850586,10042682.647705078,-6539230.3466796875,-6014865.398406982,-15479021.072387695,19143085.479736328,18636547.088623047,9555891.036987305,12409150.123596191,11422850.608825684,-7912896.156311035,-6963234.424591064,8364398.002624512,10905705.451965332,12128613.471984863,10265365.600585938,9657906.532287598
0.15,66539772.033691406,38697433.47167969,66654312.13378906,20309419.631958008,4897830.009460449,20455591.201782227,13696881.294250488,15239188.194274902,108669288.6352539,10474566.459655762,2090148.92578125,1663140.058517456,1671327.7101516724,-25458778.381347656,19883159.637451172,21564697.265625,49568141.93725586,11670167.922973633,1421021.2230682373,-6138386.7263793945,-7698845.386505127,-23748325.34790039,-16681514.739990234,-50730300.90332031,4352808.952331543,5407881.259918213,-5351121.90246582,-6741123.676300049,-5033163.070678711,-17198965.072631836,-38439380.64575195,-24467292.78564453,20583555.221557617,3725272.1786499023,38242008.209228516,22744785.30883789,421721.6968536377,-5246351.24206543,-10374080.657958984,-10420944.213867188,-9461262.702941895,21456422.805786133,19908802.032470703,19814214.7064209,19082639.694213867,14214838.027954102,11808186.531066895,-1386576.8909454346,-695994.9731826782,-10323766.708374023,20053644.18029785,19615478.515625,13428412.437438965,15199984.550476074,13375368.118286133,-2637598.752975464,-1576815.128326416,12622381.210327148,14629179.954528809,15015277.862548828,12184829.711914062,11497319.221496582
0.155,65711410.52246094,38837985.99243164,69695495.60546875,18105630.87463379,5795095.920562744,16449619.29321289,10907917.976379395,12412464.141845703,107000961.30371094,7562158.107757568,1914273.977279663,1632859.3492507935,1818469.6435928345,-22850492.477416992,15945204.734802246,17909851.07421875,49658313.7512207,10466257.095336914,-1315299.391746521,-6574247.83706665,-8192603.11126709,-21439588.54675293,-15162072.18170166,-58645935.05859375,2672598.123550415,3664394.1402435303,-7094920.1583862305,-9117269.515991211,-3857549.9057769775,-16201307.29675293,-36250724.79248047,-22431077.95715332,19787660.598754883,2071201.3244628906,37352760.314941406,22238695.14465332,343462.2883796692,-4170518.398284912,-8628503.799438477,-6927172.1839904785,-5931793.212890625,20613161.087036133,19238321.30432129,19279827.117919922,19041912.078857422,15239029.884338379,13199501.991271973,2496107.339859009,3231562.1376037598,-6831022.7394104,19239055.633544922,18904823.303222656,15689002.03704834,16265323.638916016,14918575.286865234,1221125.0066757202,2526672.36328125,13959669.11315918,16537288.665771484,16041725.158691406,13744989.395141602,13049922.943115234
0.16,51983119.96459961,26598526.000976562,60173030.853271484,10600315.09399414,1738495.2306747437,9526054.382324219,3715211.868286133,5248458.8623046875,101744567.87109375,4509004.592895508,208891.1086320877,-220692.05343723297,72057.68674612045,-25814411.163330078,9068433.76159668,12952491.760253906,45214344.0246582,8959127.426147461,-2551082.3726654053,-7075805.6640625,-8652988.43383789,-22328758.239746094,-18786760.330200195,-60841419.2199707,476469.36774253845,2078005.5522918701,-8363162.040710449,-9335441.589355469,-3672602.891921997,-15709145.545959473,-36615596.771240234,-25163959.503173828,17744340.896606445,-240132.12323188782,35052841.18652344,20317983.627319336,373647.7196216583,-4080722.3320007324,-8533446.311950684,-9304006.576538086,-8410663.604736328,18539583.206176758,17336772.918701172,17298822.4029541,17451898.5748291,13890937.805175781,12701859.474182129,440154.2544364929,1067908.2870483398,-9169582.36694336,17182220.458984375,16996295.928955078,13897775.650024414,14872277.25982666,14292600.631713867,-977400.3028869629,441753.8046836853,13666739.463806152,14612497.329711914,14591802.597045898,13211836.814880371,12541302.680969238
0.165,36327869.4152832,10508055.686950684,44380409.240722656,1764140.4867172241,-6109023.571014404,4951933.38394165,-3101319.7898864746,-1505271.7924118042,95150436.40136719,1011147.0222473145,-3796995.6398010254,-4462936.4013671875,-4210647.106170654,-32152256.01196289,4476570.129394531,9536070.823669434,40537532.806396484,7166306.018829346,-3330621.4809417725,-9013054.847717285,-10397185.325622559,-26121381.759643555,-23761280.059814453,-56718532.56225586,-254827.46958732605,2192897.7966308594,-8595372.200012207,-8537265.77758789,-4900668.621063232,-17312339.782714844,-39245651.24511719,-28599012.37487793,16574474.334716797,-1131183.9818954468,33404663.0859375,19569087.982177734,440705.95502853394,-5256669.044494629,-10436086.654663086,-13497364.99786377,-12683223.724365234,17406164.169311523,16183334.350585938,15888964.653015137,17163553.23791504,12985295.295715332,11425022.12524414,-3946630.9547424316,-3462438.8217926025,-13322387.6953125,16035123.825073242,15920144.081115723,11159656.524658203,13869284.629821777,12780344.009399414,-5423950.672149658,-4174668.788909912,13561484.336853027,12052237.510681152,13589055.061340332,11781811.714172363,11103826.522827148
0.17,33371631.622314453,7561255.931854248,43003498.07739258,-2535915.8515930176,-8408246.994018555,2332397.937774658,-6757683.277130127,-5031481.2660217285,91688713.07373047,-1757890.8205032349,-4898372.173309326,-5584454.05960083,-5415721.893310547,-28745254.516601562,1861225.1281738281,8511744.499206543,41219226.8371582,5864997.863769531,-4317231.65512085,-9768712.997436523,-10905079.84161377,-23853340.14892578,-18597614.288330078,-53612583.16040039,1780683.8750839233,3458971.7388153076,-8459993.362426758,-9044040.67993164,-5378481.864929199,-17997383.11767578,-37803180.69458008,-23648977.279663086,18633323.669433594,787337.8992080688,34596221.923828125,21247167.587280273,574931.0255050659,-5663733.959197998,-11020255.088806152,-11863335.609436035,-10926480.293273926,19555648.803710938,18114192.962646484,17630537.033081055,18989604.949951172,14348767.280578613,11262840.270996094,-3423391.819000244,-2907164.3352508545,-11707635.879516602,18109231.94885254,17875926.971435547,12431142.807006836,15175176.620483398,12620789.527893066,-4596177.101135254,-3634182.929992676,15419224.739074707,13461641.311645508,14893660.545349121,11595637.321472168,10895061.492919922
0.175,35595661.16333008,15094015.121459961,56146724.700927734,-5121906.280517578,-3107192.277908325,-7555294.036865234,-12955730.438232422,-11075217.247009277,89615554.80957031,-3674679.0409088135,-847136.7955207825,-1326557.7554702759,-1212678.5516738892,-10388541.221618652,-7940749.168395996,4843034.744262695,43876335.14404297,4508868.69430542,-5567338.943481445,-7374049.663543701,-8302992.820739746,-11767113.68560791,-550723.5527038574,-57816505.432128906,3487294.4355010986,2673786.163330078,-9435770.988464355,-11048265.45715332,-3691737.8902435303,-14992897.987365723,-29005109.786987305,-8485146.522521973,23058404.92248535,2466287.612915039,36609970.09277344,22812557.220458984,709018.349647522,-4056217.670440674,-8237392.425537109,-3061678.171157837,-1931483.3879470825,24087516.78466797,22453296.661376953,22013833.99963379,19833349.227905273,16720289.23034668,12424032.211303711,3417622.0893859863,4167368.4120178223,-2975482.46383667,22528408.05053711,22114114.76135254,17770488.739013672,17556930.541992188,13990820.88470459,2882588.1481170654,3731469.15435791,20443948.74572754,18681234.35974121,17205375.67138672,12901691.436767578,12202662.467956543
0.18,24285623.55041504,13398234.367370605,60742996.21582031,-13955952.644348145,49206.53626322746,-29415601.73034668,-27573329.92553711,-25683727.264404297,82708435.05859375,-6759990.692138672,2550539.970397949,2216783.5235595703,2305535.078048706,9642183.303833008,-29686090.46936035,-6014689.4454956055,40186931.61010742,1358152.5087356567,-7465160.369873047,-4776791.095733643,-5570649.62387085,474581.778049469,17581394.19555664,-68158210.75439453,371704.0717601776,-2137669.563293457,-12176269.53125,-12644236.56463623,-1498068.2134628296,-10964014.053344727,-19023590.087890625,7323177.814483643,25792623.51989746,-582370.1620101929,35067218.78051758,21392118.453979492,670585.1554870605,-2021466.0167694092,-4685519.695281982,6329071.521759033,7419418.3349609375,26929071.4263916,25337190.628051758,25075653.076171875,17244560.24169922,18272371.292114258,13681148.529052734,10889533.042907715,11812244.415283203,6336707.11517334,25315612.79296875,24886602.4017334,21994049.072265625,19142017.364501953,15308366.775512695,10878117.561340332,11871513.366699219,27610982.89489746,22768213.272094727,18692646.026611328,14251389.503479004,13566802.978515625
0.185,1911822.1998214722,-2338902.9502868652,47580924.98779297,-28021150.588989258,-5025676.727294922,-51912208.557128906,-44651260.37597656,-42963478.088378906,70959541.32080078,-11742885.58959961,77371.746301651,-367676.705121994,-238266.2445306778,16315887.451171875,-52109554.290771484,-19195400.23803711,30670104.98046875,-3337651.7295837402,-10235739.707946777,-5640519.618988037,-6410645.961761475,2628932.7144622803,23400587.08190918,-78010879.51660156,-6688137.531280518,-8320471.76361084,-15482740.40222168,-12802555.084228516,-909954.6074867249,-10299785.614013672,-15557863.235473633,14504303.932189941,24496088.0279541,-7551788.330078125,29531398.77319336,18174922.943115234,464736.07420921326,-1459482.7890396118,-3679861.068725586,10757044.792175293,11586366.653442383,25696126.93786621,24327816.009521484,24156845.092773438,13283973.693847656,19246282.57751465,14629708.290100098,14504469.871520996,15302428.245544434,10660271.644592285,24166194.915771484,23867839.813232422,21667310.71472168,20153182.983398438,16048536.30065918,14514500.617980957,15728760.719299316,33781692.50488281,22572299.95727539,19667953.491210938,15069041.25213623,14412708.282470703
0.19,-7656473.636627197,-12284010.887145996,37627490.99731445,-35587638.85498047,-10498945.236206055,-58328201.29394531,-50924461.364746094,-49432968.13964844,63111801.14746094,-15470163.345336914,-4215639.591217041,-4884752.27355957,-4610954.761505127,12751786.231994629,-58504970.55053711,-24106964.111328125,26154476.165771484,-6232201.57623291,-12702991.485595703,-8319162.368774414,-9183545.112609863,-1448284.9836349487,20647581.100463867,-81920005.79833984,-11259644.508361816,-10985061.645507812,-17314208.984375,-12689989.08996582,-1188754.7969818115,-12232229.232788086,-17086484.909057617,14813493.728637695,21962821.96044922,-12108543.395996094,25077501.29699707,16981195.4498291,328612.65540122986,-1577277.0643234253,-4185628.4141540527,12276851.654052734,12994760.513305664,23116275.787353516,21885980.6060791,21668926.239013672,11705871.58203125,20919265.747070312,16214658.737182617,16446804.04663086,16933916.091918945,12037661.5524292,21743892.669677734,21467880.249023438,19793693.54248047,21889142.990112305,17425506.591796875,16097640.991210938,17415485.382080078,36652294.15893555,20972562.789916992,21442060.470581055,16412189.483642578,15837225.914001465
0.195,5918183.80355835,-1807252.7647018433,49446174.62158203,-29950534.82055664,-7310911.178588867,-47542034.14916992,-42859912.87231445,-41294212.341308594,65188194.274902344,-14414869.30847168,-3180145.740509033,-3913280.0102233887,-3482029.914855957,12724365.234375,-47745029.44946289,-17837242.126464844,32943122.86376953,-4695413.112640381,-13083125.114440918,-8442173.957824707,-9374500.274658203,-1089841.4850234985,20637750.62561035,-79638343.81103516,-9231794.357299805,-8457947.731018066,-16733129.501342773,-13660981.178283691,-364236.38463020325,-12447883.605957031,-16661741.256713867,15056446.075439453,22407585.14404297,-10131610.870361328,26070087.432861328,19050613.403320312,380526.5426635742,-572937.7865791321,-3045437.812805176,15433512.687683105,16358306.884765625,23426156.997680664,22075748.443603516,21853630.06591797,12805635.452270508,22951169.967651367,18547767.639160156,20396656.036376953,20708627.700805664,15102008.819580078,22105497.360229492,21653423.309326172,21159278.869628906,23979141.235351562,19764574.05090332,19732025.146484375,21037446.975708008,36593025.20751953,22423353.19519043,23577962.87536621,18644750.595092773,18175127.029418945
0.2,24339878.08227539,16405364.990234375,70465927.12402344,-19003837.58544922,10262.432508170605,-35437423.70605469,-31358711.24267578,-29503070.831298828,72089370.72753906,-9588614.463806152,2354104.2804718018,1769049.048423767,2213385.581970215,18673330.307006836,-35706520.080566406,-9029862.403869629,43890529.63256836,-365796.44680023193,-11220455.169677734,-5867598.056793213,-6682074.546813965,3900134.801864624,23939821.243286133,-75853309.63134766,-3851392.984390259,-3730439.9013519287,-14630804.061889648,-15269084.930419922,938534.2597961426,-10506475.448608398,-14183438.301086426,15096233.367919922,25479099.27368164,-4736011.028289795,30657119.750976562,21721841.81213379,439328.99832725525,754742.2051429749,-862237.7514839172,18740631.103515625,19873828.887939453,26395351.40991211,24807928.08532715,24746870.040893555,13562699.317932129,23267169.952392578,19634437.561035156,24109987.258911133,24492347.717285156,18448371.88720703,24947257.99560547,24333332.061767578,25027496.337890625,24270998.001098633,20942884.44519043,23364137.649536133,24658927.91748047,35127372.74169922,26139741.897583008,23878709.79309082,19852741.241455078,19397798.538208008
0.205,27472434.997558594,21301593.780517578,76333419.79980469,-14565065.383911133,107087.73881196976,-34468437.19482422,-27547994.61364746,-25507297.51586914,74619117.7368164,-5698982.238769531,5082374.572753906,4679877.758026123,4981130.123138428,19872070.3125,-34767555.236816406,-6568292.140960693,48272785.18676758,2675818.44329834,-9014100.074768066,-4565279.483795166,-5192728.519439697,4002787.5900268555,21584924.697875977,-75649864.19677734,-1211938.2619857788,-748951.3754844666,-12665914.535522461,-16089376.449584961,129101.20189189911,-10471705.436706543,-16570217.13256836,9440831.184387207,26851348.876953125,-1944448.709487915,33378608.70361328,22451475.143432617,349734.24673080444,-170249.67074394226,-1524122.1189498901,16228767.395019531,17254194.259643555,27754549.026489258,26116222.381591797,26224092.483520508,12430012.702941895,20769695.281982422,17642629.623413086,21704563.14086914,22183685.302734375,16026508.331298828,26153078.079223633,25579324.72229004,26087463.37890625,21668296.813964844,18940408.70666504,20947317.123413086,22267936.70654297,33226329.803466797,27076276.779174805,21268589.01977539,18036718.368530273,17491025.924682617
0.21,17969160.079956055,11290296.55456543,64540420.53222656,-18422388.076782227,-8709812.16430664,-40516792.29736328,-30908121.10900879,-28939035.415649414,70803436.27929688,-5821815.490722656,2015427.589416504,1702410.9363555908,1865813.7321472168,11493118.286132812,-40699623.107910156,-9734111.785888672,44912300.10986328,2484488.010406494,-8264174.461364746,-6034954.071044922,-6719258.785247803,-3295070.8866119385,12224887.84790039,-79322662.35351562,-3050552.1297454834,-819651.0076522827,-11801143.646240234,-15689061.164855957,-2915741.205215454,-13645533.561706543,-25028013.229370117,-926286.7569923401,24596910.47668457,-3615421.5335845947,31906570.434570312,21801197.052001953,267215.46053886414,-3294853.2104492188,-5681824.684143066,7193788.528442383,7950987.815856934,25512489.318847656,24103584.28955078,24133880.615234375,11515101.432800293,17238063.81225586,13870470.04699707,12890376.091003418,13274695.39642334,6997206.211090088,23909484.86328125,23489864.349365234,22557479.858398438,18038364.41040039,15101277.351379395,12029315.948486328,13330073.356628418,31954063.415527344,23614538.192749023,17638404.846191406,14308259.010314941,13722993.850708008
0.215,9810336.112976074,379080.6531906128,51767005.920410156,-24116508.48388672,-17835779.190063477,-43343887.32910156,-34543556.213378906,-32706752.77709961,65612701.416015625,-8856714.248657227,-2606289.3867492676,-2887545.585632324,-2738953.113555908,2438190.9370422363,-43297931.67114258,-12516576.766967773,40618030.5480957,521461.546421051,-8967063.903808594,-7504589.557647705,-8530595.779418945,-9136227.60772705,5533058.166503906,-82239776.61132812,-6130562.782287598,-2583512.0677948,-11890007.972717285,-14918426.513671875,-4971058.368682861,-15997818.946838379,-31149377.822875977,-7375408.64944458,21855628.967285156,-6690925.121307373,28967571.258544922,21605865.478515625,397202.9685974121,-5246999.263763428,-8873237.609863281,-872283.8759422302,-207340.64280986786,22781227.111816406,21639322.28088379,21390857.696533203,13271651.268005371,15734866.14227295,11841491.69921875,5177431.106567383,5362569.808959961,-1112649.0831375122,21280670.166015625,20953569.412231445,19430410.385131836,16490221.02355957,13074040.412902832,4199221.611022949,5376123.428344727,32762630.462646484,20598972.32055664,16074876.78527832,12197078.704833984,11709866.523742676
0.22,5860785.484313965,-4740600.109100342,46227561.950683594,-27912139.892578125,-21908607.482910156,-42242759.704589844,-36195644.37866211,-34330776.21459961,62052894.592285156,-12095055.58013916,-5039511.680603027,-5314136.028289795,-5122686.386108398,479359.894990921,-42066085.81542969,-13148999.214172363,39384120.94116211,-1114307.9996109009,-10045911.78894043,-7285301.685333252,-8582335.472106934,-8084382.057189941,6234525.203704834,-81547554.01611328,-7348082.065582275,-4025103.0921936035,-12361801.147460938,-14513465.881347656,-3943945.4078674316,-14781404.495239258,-29476606.369018555,-6248223.781585693,21911245.346069336,-8085515.022277832,27894653.3203125,22025600.43334961,630905.032157898,-3991523.9810943604,-7754751.682281494,-1593682.5275421143,-862340.0926589966,22900568.00842285,21806320.190429688,21422195.434570312,16747781.753540039,17260255.813598633,13230344.772338867,4753083.7059021,4899981.97555542,-1786876.3208389282,21444786.071777344,21128133.77380371,21582675.93383789,17988126.754760742,14484208.106994629,3790125.3700256348,4792795.658111572,35430252.07519531,22703962.326049805,17520877.838134766,13503124.237060547,13091105.461120605
0.225,-178395.30110359192,-9232722.282409668,40958339.69116211,-31332178.115844727,-24124092.10205078,-44032733.91723633,-38465114.59350586,-36487285.61401367,58020946.50268555,-14387503.623962402,-6779720.783233643,-7140616.893768311,-6972346.782684326,654838.2639884949,-43956752.77709961,-14466335.29663086,39097839.35546875,-1994574.6660232544,-11002899.169921875,-7628295.8984375,-8874940.872192383,-6729124.069213867,6375767.707824707,-80354324.34082031,-6799879.07409668,-4104731.559753418,-12991899.490356445,-14298695.56427002,-1830493.9270019531,-13145417.213439941,-26225450.51574707,-4696972.846984863,23558866.500854492,-7750251.770019531,28682125.091552734,21965679.168701172,706254.5418739319,-1753462.1953964233,-4820489.883422852,2070812.702178955,2772279.0241241455,24633800.506591797,23432399.74975586,23242225.646972656,18702985.763549805,19774618.14880371,16030227.661132812,8796913.146972656,9150979.042053223,1997254.3716430664,23182422.637939453,22848630.905151367,26941738.12866211,20489809.036254883,17191230.77392578,7952301.502227783,8824692.726135254,37349300.384521484,27898097.99194336,19959472.65625,16253747.940063477,15730975.151062012
0.23,-8397546.768188477,-16175594.329833984,31402444.83947754,-35288398.74267578,-28129680.633544922,-49984134.674072266,-41724876.403808594,-39767917.63305664,51753776.55029297,-16034238.815307617,-10055073.738098145,-10601416.58782959,-10530888.557434082,-4837474.822998047,-50096328.73535156,-17164386.749267578,37528923.03466797,-2485847.234725952,-11985673.904418945,-10343573.570251465,-11442597.389221191,-12054194.450378418,-986107.4686050415,-82237754.82177734,-6006468.772888184,-3421601.2954711914,-13739940.643310547,-13691969.871520996,-1701996.2072372437,-14921705.24597168,-29422813.415527344,-9617814.064025879,23616502.76184082,-7070251.941680908,29288227.081298828,21319662.09411621,599485.8741760254,-1744254.231452942,-4496368.408203125,2611753.225326538,3189618.3490753174,24637395.85876465,23428564.071655273,23525226.593017578,17772764.205932617,20635208.129882812,17157253.26538086,10010619.163513184,10607321.739196777,2567017.7936553955,23313278.198242188,22908508.30078125,29549524.307250977,21417320.251464844,18114410.400390625,9231881.141662598,10055528.64074707,36741905.212402344,30423748.016357422,20835666.65649414,17283863.067626953,16593297.958374023
0.235,-11542550.086975098,-20347991.943359375,24659563.064575195,-37275012.9699707,-31639207.83996582,-52882026.67236328,-42226402.282714844,-40436847.68676758,46063095.09277344,-16689424.514770508,-12830838.203430176,-13491726.875305176,-13495441.436767578,-12445535.659790039,-53034404.75463867,-17658765.79284668,36657123.56567383,-1865421.5335845947,-12487220.764160156,-12807930.946350098,-13999996.185302734,-19068731.3079834,-9174278.259277344,-83851821.89941406,-5309692.859649658,-3703588.4857177734,-14076201.438903809,-12454492.568969727,-3507432.699203491,-18162248.611450195,-36085594.177246094,-16864398.956298828,22159244.537353516,-6372744.560241699,29092132.568359375,21168415.069580078,486881.2561035156,-3768855.571746826,-6908137.321472168,-1579242.3486709595,-982992.7682876587,22947019.577026367,21865715.02685547,22022689.819335938,15830517.768859863,19236162.185668945,15763601.303100586,6470058.917999268,7097841.739654541,-1695937.156677246,21856063.842773438,21313232.421875,27563369.750976562,20169469.833374023,16544174.194335938,5635888.09967041,6470487.117767334,35584796.90551758,28505716.32385254,19520320.892333984,15746296.882629395,15067317.008972168
0.24,-6332885.7421875,-17044967.651367188,28008840.560913086,-34965393.06640625,-30423831.939697266,-47381591.796875,-37137386.322021484,-35463806.15234375,45120166.77856445,-14827393.531799316,-11175234.7946167,-11741427.421569824,-11720173.835754395,-11947817.8024292,-47403106.689453125,-13058037.757873535,39776317.59643555,1293940.4249191284,-11056080.81817627,-11151916.50390625,-12615802.764892578,-17892478.942871094,-7263689.5179748535,-79045013.42773438,-3873225.9273529053,-5927938.938140869,-13075206.756591797,-10753715.515136719,-4787759.304046631,-17926752.0904541,-36855834.9609375,-17436714.17236328,22218967.43774414,-4871664.524078369,29454788.208007812,22032701.49230957,413232.38611221313,-5113610.26763916,-8533444.40460205,-5117374.420166016,-4359632.0152282715,22806180.953979492,21759315.490722656,21784782.40966797,15168027.877807617,16747068.405151367,13216460.227966309,2875971.794128418,3322658.3003997803,-5216660.976409912,21820268.630981445,21189270.01953125,24585853.576660156,17811197.28088379,13966976.165771484,1956346.6310501099,2840828.4187316895,37009754.1809082,25600440.979003906,17063295.364379883,13172720.909118652,12634932.518005371
0.245,2355353.832244873,-9388936.042785645,37640525.817871094,-29571037.29248047,-24490274.42932129,-37727252.96020508,-28594934.463500977,-26895030.975341797,48675800.32348633,-9823246.002197266,-4724499.702453613,-5130507.946014404,-4983078.0029296875,-1988745.2125549316,-37616138.45825195,-5506888.389587402,46429500.579833984,6508037.090301514,-7089445.5909729,-5705049.03793335,-7307528.018951416,-8572519.302368164,3613057.6133728027,-69558815.0024414,-1647518.3963775635,-9084554.672241211,-10750960.350036621,-8908594.131469727,-4361260.414123535,-13595558.166503906,-30141471.86279297,-10538247.108459473,24655048.370361328,-2540927.1717071533,30971025.466918945,23031896.591186523,285281.09192848206,-4589244.365692139,-7605793.476104736,-4023563.861846924,-3237584.8293304443,25259471.893310547,24048721.313476562,24020721.435546875,15654902.458190918,14222657.203674316,10980032.920837402,3023125.410079956,3278322.696685791,-3957226.037979126,24162797.927856445,23596979.14123535,23570524.215698242,15320293.426513672,11870250.701904297,2113344.192504883,3077760.696411133,40572044.372558594,24515098.571777344,14525901.794433594,11143095.970153809,10608074.188232422
0.25,7663224.697113037,-4679595.470428467,43144466.400146484,-24863239.288330078,-17915790.557861328,-32866096.49658203,-22160884.857177734,-20426786.422729492,51660350.79956055,-3803755.760192871,2579613.447189331,2131473.3028411865,2464548.8262176514,7613060.474395752,-32718341.827392578,-388736.69505119324,51919757.84301758,10352164.268493652,-2422522.783279419,-586849.1530418396,-2137049.436569214,-656135.2014541626,12201728.820800781,-64908607.482910156,-281564.0866756439,-11347536.087036133,-8741706.848144531,-7277314.186096191,-3250288.0096435547,-9292862.892150879,-23478023.529052734,-3655489.921569824,26307991.02783203,-1035064.2204284668,31933399.200439453,22986345.291137695,161571.48778438568,-3475912.570953369,-5754178.047180176,-389211.9228839874,212573.43888282776,27031734.466552734,25681627.27355957,25731359.481811523,15461750.984191895,11979015.350341797,9645699.501037598,5416176.319122314,5591270.923614502,-236975.7443666458,25834932.327270508,25402759.552001953,23047824.85961914,13049434.661865234,10753026.008605957,4628627.777099609,5674906.7306518555,42368286.1328125,23832529.067993164,12357947.34954834,10097274.780273438,9382943.153381348
0.255,6332048.8929748535,-6855103.969573975,39238807.678222656,-23760332.107543945,-14492439.270019531,-36199344.635009766,-21735305.786132812,-20079738.61694336,49815170.28808594,-298775.1066684723,6574644.565582275,5889803.409576416,6397746.562957764,9126005.172729492,-36072036.74316406,-884904.2654037476,51918064.11743164,9491141.319274902,-139365.68796634674,1287163.1383895874,-211393.341422081,282257.1098804474,12803270.33996582,-69158851.62353516,-1364615.797996521,-12104633.331298828,-8739933.013916016,-6229482.173919678,-2458085.536956787,-7765701.2939453125,-21724246.978759766,-1413952.5890350342,24477155.685424805,-1994567.0366287231,30547697.067260742,21745359.420776367,234564.60237503052,-2911350.0118255615,-4646155.834197998,2114242.0768737793,2593567.8482055664,25194879.53186035,23969236.373901367,24004365.921020508,13817726.135253906,10468359.94720459,9412362.098693848,7041773.319244385,7174770.355224609,2091286.1824035645,24107110.97717285,23731992.721557617,20850543.975830078,11493084.907531738,10623616.218566895,6409834.861755371,7475950.717926025,40207599.63989258,21559436.798095703,10991991.04309082,9958128.929138184,9141733.169555664
0.26,1187260.0317001343,-12151248.931884766,31637821.197509766,-25217496.871948242,-14262355.80444336,-42066211.70043945,-25217462.53967285,-23678455.352783203,44918762.20703125,-540529.9067497253,6736245.632171631,5939517.498016357,6514258.861541748,6024284.839630127,-42001750.94604492,-4530029.773712158,47603126.525878906,4885844.2306518555,-1353033.185005188,782233.2978248596,-680546.4029312134,-1448601.484298706,10824644.088745117,-74411354.0649414,-3797863.9602661133,-11901713.371276855,-10311081.886291504,-6003064.155578613,-1709928.8702011108,-7505098.342895508,-21500907.89794922,-754076.1232376099,21111114.501953125,-4406374.454498291,27854522.705078125,20291051.864624023,489113.09242248535,-2398976.0875701904,-3765548.2292175293,3428779.125213623,4028698.9212036133,21702634.811401367,20778917.31262207,20599655.151367188,11851673.126220703,10314404.487609863,10215990.06652832,7908607.006072998,7974172.592163086,3128304.0046691895,20812313.079833984,20423091.888427734,18582145.69091797,11246899.604797363,11306119.918823242,7409641.742706299,8383584.022521973,36360305.78613281,19359512.329101562,10830927.848815918,10612393.379211426,9914458.274841309
0.265,979806.3039779663,-11121127.128601074,32454151.153564453,-24410161.9720459,-13520911.21673584,-41935329.43725586,-25624448.776245117,-24109411.239624023,43205093.38378906,-1991514.3251419067,6165771.961212158,5568851.947784424,6044939.994812012,6538658.618927002,-42003253.93676758,-5409786.224365234,45377090.45410156,1472075.10471344,-3808806.4193725586,506046.23556137085,-747605.6218147278,241121.69444561005,12587846.755981445,-71864151.00097656,-4178759.5748901367,-10963315.963745117,-11326678.276062012,-6524538.993835449,-579605.8177947998,-6243966.579437256,-18866086.959838867,2085534.8110198975,20495544.43359375,-4881832.599639893,26800312.042236328,19762104.034423828,667451.5604972839,-1225287.7950668335,-2135295.629501343,5328589.916229248,6094923.973083496,21017406.463623047,20301952.362060547,19894308.09020996,10677920.3414917,10976198.196411133,11286602.973937988,9511161.804199219,9601715.087890625,4924552.917480469,20197595.596313477,19809011.459350586,19491228.103637695,11790033.340454102,12196526.527404785,9134488.105773926,9962877.27355957,34300842.28515625,20355302.810668945,11283657.07397461,11529690.742492676,10979486.465454102
0.27,12054890.632629395,1075769.4244384766,46779983.52050781,-18423215.866088867,-9303264.617919922,-33833438.873291016,-19090175.62866211,-17512741.088867188,47781425.47607422,-1750034.8091125488,7701701.641082764,7368545.5322265625,7656900.405883789,12091628.074645996,-34019260.40649414,-934991.717338562,49606731.41479492,2515716.314315796,-4504589.557647705,1777407.0501327515,882997.8704452515,4876029.968261719,16499593.734741211,-64536117.55371094,-1252041.5782928467,-9418821.334838867,-10897292.137145996,-7405124.664306641,604868.6504364014,-4223023.891448975,-15991879.4631958,5146269.798278809,23309497.833251953,-2054566.1449432373,28009000.778198242,20242380.142211914,666081.3689231873,236491.05429649353,-186865.28503894806,7269978.046417236,8007452.964782715,23843854.904174805,23149314.880371094,22686302.185058594,9581544.876098633,10665669.441223145,11625319.480895996,11293276.7868042,11600735.664367676,6949538.707733154,22994865.41748047,22604118.34716797,22991649.627685547,11459781.646728516,12580778.121948242,11009848.594665527,11817543.983459473,34213058.47167969,23829875.946044922,10853066.444396973,11905562.400817871,11327729.225158691
0.275,27631128.311157227,15604754.447937012,63696113.58642578,-11507491.111755371,-4263286.590576172,-24918926.239013672,-10938654.899597168,-9286116.600036621,54202610.01586914,-518564.1050338745,10265555.381774902,9884218.215942383,10075063.705444336,16136383.056640625,-25063470.8404541,4324051.380157471,56600856.78100586,5672141.075134277,-3243110.418319702,3783602.714538574,3099744.7967529297,7586777.687072754,17083164.21508789,-62772369.384765625,1377769.5894241333,-8572638.511657715,-10665215.492248535,-8200493.812561035,1419924.9744415283,-2909760.9519958496,-16835708.618164062,4068091.39251709,25053739.547729492,581365.9429550171,28301502.227783203,20545219.42138672,702205.8367729187,1253352.6420593262,1076863.2888793945,7093205.451965332,7692361.831665039,25550819.396972656,24800437.927246094,24403476.71508789,6699204.444885254,8506244.659423828,11173410.415649414,11384620.666503906,11896244.049072266,6845889.568328857,24723207.473754883,24277856.826782227,24223049.16381836,9431188.583374023,12383753.776550293,11057315.826416016,12076071.739196777,33094688.415527344,24965461.73095703,8894638.061523438,11583274.841308594,10885056.495666504
0.28,32746448.516845703,17717187.881469727,66332443.23730469,-10801001.54876709,-4269494.533538818,-23271207.809448242,-9807327.270507812,-8047702.789306641,55873783.111572266,-1154132.1277618408,10294583.320617676,9553988.456726074,9842543.601989746,13521765.70892334,-23265436.17248535,4023558.1398010254,58828292.84667969,6490910.053253174,-2421525.478363037,4817289.82925415,4073526.8592834473,6154685.020446777,13276151.657104492,-69098426.81884766,-379153.0430316925,-9790654.182434082,-12314739.227294922,-8751409.530639648,1946529.0307998657,-2634095.9072113037,-20490825.653076172,-1118436.2173080444,21835899.353027344,-1112269.7591781616,25016180.03845215,19621793.746948242,944512.665271759,1743157.0291519165,1553247.9286193848,4881094.932556152,5463711.738586426,22251356.12487793,21434886.932373047,21108720.779418945,1540253.8776397705,6129976.749420166,10865266.799926758,9912149.429321289,10285171.508789062,4625750.0648498535,21455577.850341797,20992132.18688965,20282712.936401367,7172756.195068359,12190486.907958984,9369823.455810547,10655948.638916016,29279243.46923828,21012399.673461914,6830067.157745361,11290001.86920166,10565253.257751465
0.285,23751010.89477539,6065425.395965576,53062316.89453125,-16254749.298095703,-9797944.068908691,-27743904.11376953,-15706592.559814453,-13770105.361938477,52757602.69165039,-3729222.7745056152,7042878.150939941,6017571.449279785,6496769.905090332,7428762.912750244,-27718530.654907227,-1068871.7365264893,54865493.77441406,4673069.953918457,-3502999.3057250977,4073394.298553467,3244103.193283081,3141965.627670288,9520833.015441895,-74557449.34082031,-4569349.28894043,-11897303.581237793,-14894342.422485352,-9249183.654785156,2349053.6212921143,-2789825.201034546,-22590890.884399414,-5270757.675170898,16353647.232055664,-5319757.461547852,20417989.73083496,18108758.9263916,1206593.7519073486,2018221.139907837,1825294.2562103271,3647684.5741271973,4338885.78414917,16833580.017089844,15905161.85760498,15679584.503173828,-3800922.632217407,6132624.14932251,11397904.396057129,9416929.244995117,9356240.272521973,3416993.3795928955,15921315.19317627,15591144.561767578,14957572.937011719,7095373.630523682,12523989.6774292,8696528.434753418,9971244.812011719,25592250.82397461,15815717.697143555,6881666.18347168,11719239.234924316,11055111.8850708
0.29,14104051.58996582,-4184911.2510681152,40428962.70751953,-20154069.900512695,-13927881.240844727,-29775104.522705078,-19758817.672729492,-17689842.224121094,50785423.278808594,-5050851.821899414,4087886.333465576,3135016.679763794,3688846.3497161865,5023446.083068848,-29925905.227661133,-3833581.2091827393,50858028.411865234,3904459.9533081055,-5366817.951202393,2343253.1356811523,1617906.4512252808,2066128.7307739258,10028450.965881348,-71248619.07958984,-5024187.088012695,-12025435.447692871,-16090368.270874023,-9924174.308776855,2461803.913116455,-3174906.9690704346,-21273475.646972656,-3785439.7296905518,15269461.631774902,-5865441.799163818,19164384.841918945,17689197.540283203,1218027.5917053223,2128330.945968628,2121678.590774536,5677695.751190186,6422990.798950195,16006422.04284668,14960685.729980469,14904096.603393555,-6482681.2744140625,9020112.037658691,12448070.526123047,11621126.174926758,11318051.3381958,5559696.674346924,14884863.85345459,14734938.621520996,14581003.189086914,9775535.583496094,13360933.303833008,11032478.332519531,11962414.741516113,26524507.522583008,15609523.77319336,9561779.022216797,12721314.430236816,12084739.685058594
0.295,15009761.810302734,-2068189.8593902588,41200649.26147461,-18572208.404541016,-11870063.781738281,-25603569.03076172,-17313425.064086914,-15329935.073852539,52480712.890625,-3968900.680541992,4134281.1584472656,3464813.470840454,3905440.8073425293,8004848.480224609,-25868337.631225586,-1228230.9532165527,51218322.75390625,5622685.90927124,-6704359.531402588,798710.1674079895,242741.97220802307,3398142.5762176514,14156233.787536621,-62816211.70043945,-437006.98018074036,-9918760.299682617,-15698526.382446289,-10778729.438781738,2055102.825164795,-4083678.2455444336,-18780447.006225586,2306980.1330566406,20455383.30078125,-1265945.6729888916,21715179.443359375,18744335.174560547,1017148.2563018799,1866069.4360733032,2097425.4608154297,9623126.029968262,10325752.258300781,21389945.98388672,20339328.76586914,20408929.8248291,-5848764.896392822,12623568.534851074,13250951.766967773,15156622.886657715,15115756.98852539,9618496.894836426,20208875.65612793,20058862.686157227,19811117.17224121,13293511.390686035,14283895.492553711,14959786.415100098,15601808.547973633,32387657.165527344,20933059.692382812,13057335.85357666,13595941.543579102,12956397.05657959
0.3,20076602.935791016,4847502.2315979,48747402.19116211,-17108606.338500977,-7942633.152008057,-21525936.126708984,-14671989.440917969,-12954182.624816895,53037849.42626953,-3949771.1658477783,5002355.575561523,4483455.657958984,4776216.983795166,11255930.90057373,-21631053.924560547,1111568.4509277344,52645942.68798828,6561869.6212768555,-8203948.974609375,-466801.58376693726,-989640.7127380371,4935166.358947754,17867410.65979004,-59149475.09765625,2793467.0448303223,-8995172.500610352,-15985612.869262695,-11608728.408813477,1286557.0783615112,-5394983.768463135,-17571407.318115234,7722284.317016602,25793750.762939453,2148963.689804077,23318511.962890625,19589992.52319336,858965.6352996826,1243684.0534210205,1570595.0260162354,12351043.701171875,13053190.231323242,26628879.54711914,25666881.561279297,25719022.750854492,-3925364.9711608887,14678253.173828125,13586906.433105469,17442811.965942383,17859163.284301758,12403545.379638672,25599838.256835938,25261421.20361328,24278169.631958008,15473327.63671875,14949586.868286133,17522563.934326172,18290740.966796875,37952945.709228516,25384866.71447754,15279172.897338867,13996540.069580078,13408930.778503418
0.305,18450696.94519043,5001089.096069336,50629783.630371094,-20772632.598876953,-8118267.059326172,-23633237.838745117,-18251976.013183594,-16744640.350341797,48306877.13623047,-7686076.1642456055,3604643.3448791504,2996481.18019104,3294397.5925445557,11302183.151245117,-23478811.264038086,-1910591.959953308,50276203.15551758,4188230.9913635254,-10687560.081481934,-1809434.413909912,-2391445.8751678467,5391780.853271484,18972219.467163086,-63172756.19506836,-222946.77793979645,-11276632.308959961,-18086231.231689453,-12043855.667114258,701156.497001648,-6166091.442108154,-17042778.01513672,9162915.229797363,24992078.78112793,-702499.3300437927,20734497.0703125,18654499.053955078,831597.2685813904,681288.7787818909,1058302.402496338,12922148.704528809,13732333.183288574,25534358.978271484,24585931.7779541,24581604.00390625,-2732232.8090667725,14947546.95892334,13736215.591430664,17923778.533935547,18459632.873535156,13016321.182250977,24658615.112304688,24177202.224731445,22742044.44885254,15908501.625061035,15223070.14465332,17953739.166259766,19055898.666381836,38378986.35864258,23741376.876831055,15788806.915283203,14102568.626403809,13600265.502929688
0.31,14200470.924377441,2468732.1186065674,48186340.33203125,-23950399.39880371,-9565453.52935791,-27330541.610717773,-23232704.162597656,-21779212.951660156,42249954.22363281,-11513221.740722656,1661151.7667770386,946198.5230445862,1384034.276008606,11436850.547790527,-27138906.478881836,-5937860.488891602,45199470.52001953,1396984.577178955,-12408819.198608398,-2328382.0152282715,-2916822.671890259,6199579.238891602,19498365.40222168,-66973350.524902344,-4905614.376068115,-13452206.6116333,-19732076.64489746,-11467019.081115723,902571.3801383972,-5129085.063934326,-14546169.28100586,8942460.060119629,19934099.197387695,-5427216.529846191,16915294.647216797,16467788.696289062,798977.4942398071,788142.5023078918,1467266.6788101196,13327200.889587402,14230196.952819824,20295431.13708496,19251285.552978516,19299905.77697754,-1924935.1024627686,14417016.983032227,13706314.086914062,18251201.629638672,18511520.385742188,13448950.76751709,19425270.080566406,18979904.174804688,17772571.563720703,15403440.475463867,14975987.434387207,18133586.883544922,19241991.04309082,34846195.220947266,18579540.252685547,15346133.2321167,13980778.694152832,13513458.251953125
0.315,19613473.892211914,9586532.592773438,50886398.31542969,-17601291.65649414,-4838596.820831299,-22986595.153808594,-19985511.779785156,-18598440.170288086,41601051.330566406,-9196377.754211426,3183782.5775146484,2579535.961151123,3093874.454498291,15015195.846557617,-23002006.53076172,-3063825.845718384,41345634.46044922,2665063.6196136475,-10703665.733337402,-629843.8310623169,-1186746.597290039,8500047.68371582,21527494.430541992,-61206623.07739258,-3327746.1528778076,-10806305.885314941,-17906421.661376953,-9319682.121276855,1943945.6462860107,-2044183.4926605225,-9200558.66241455,10728411.674499512,17334724.42626953,-3975681.0665130615,16500179.290771484,14579524.040222168,693294.5847511292,1725895.643234253,2935278.6540985107,14817603.11126709,15652878.761291504,17739259.719848633,16696439.743041992,16836746.215820312,17324.352636933327,13485132.217407227,12956445.693969727,19103754.0435791,19119209.28955078,14877197.265625,16844526.290893555,16494915.008544922,15392488.479614258,14360680.58013916,13907226.5625,19028226.852416992,19695327.758789062,31611757.278442383,15954747.200012207,14380003.929138184,13169045.448303223,12721380.233764648
0.32,32854492.1875,24072874.069213867,56058357.23876953,-3787814.140319824,4898675.918579102,-9939364.433288574,-8820255.279541016,-7675539.970397949,45242149.353027344,-906011.6410255432,7007176.399230957,6676709.175109863,7081438.064575195,17263214.111328125,-10144757.270812988,5945470.809936523,37810688.01879883,7278975.963592529,-6189114.093780518,2219461.441040039,1646360.8741760254,9397410.39276123,21961933.135986328,-45863952.63671875,4064749.240875244,-3859172.1057891846,-12818231.582641602,-5827763.080596924,2776754.61769104,1086545.2289581299,-4144658.5655212402,12839429.85534668,18587049.48425293,3476532.220840454,18964567.184448242,13315268.516540527,638944.0894126892,2552469.9687957764,3935070.037841797,14808953.285217285,15420695.304870605,19065370.559692383,18271610.260009766,18366140.365600586,3007790.8039093018,12016025.54321289,10966261.863708496,18043357.849121094,18117450.714111328,14732998.847961426,18284868.240356445,17965814.5904541,16171432.495117188,12726182.93762207,11695817.947387695,18075515.747070312,18334697.723388672,28833240.509033203,16525911.331176758,12856384.27734375,11113744.735717773,10777798.652648926
0.325,38257785.79711914,29482524.871826172,50409595.48950195,5727503.776550293,9570502.281188965,2393615.72265625,287721.6041088104,1123883.2473754883,45513515.47241211,5978479.385375977,7220547.199249268,7053992.748260498,7255066.871643066,10405366.897583008,2173383.951187134,12398394.584655762,30858854.293823242,10365807.53326416,-2702461.004257202,2819471.597671509,2226853.609085083,4544739.723205566,15297746.658325195,-30012170.791625977,8961583.137512207,2150665.760040283,-7752191.066741943,-2263352.394104004,1906773.567199707,1213621.735572815,-3944492.3400878906,9464184.761047363,18248340.606689453,8618369.102478027,19808277.130126953,11934273.719787598,720757.3652267456,1770836.1148834229,2421454.906463623,9522107.124328613,9889257.431030273,18620401.38244629,18161447.525024414,18110038.75732422,5061633.586883545,10380072.593688965,7933448.314666748,12185042.381286621,12426627.159118652,9399982.452392578,18057229.99572754,17762123.107910156,14957109.451293945,10883999.824523926,8505192.756652832,12052562.713623047,12350891.11328125,22749496.459960938,15224295.616149902,11096063.613891602,7981810.569763184,7818462.84866333
0.33,29779838.56201172,19190792.083740234,31842369.079589844,5396602.630615234,4443005.561828613,7710503.578186035,2330636.978149414,3021437.168121338,40453075.40893555,6386328.69720459,2113363.265991211,1846412.181854248,1907732.4867248535,-4217637.538909912,7569040.775299072,12452044.486999512,22775123.596191406,10393107.414245605,-2223929.1667938232,-42902.1418094635,-573092.8182601929,-5116386.413574219,2022517.204284668,-21820154.190063477,7279366.016387939,4331067.085266113,-5141182.422637939,4411.176778376102,-850374.4006156921,-2270119.9054718018,-9321102.142333984,-800139.1291618347,13402891.159057617,7076697.34954834,17678081.512451172,10619054.794311523,798971.3549613953,-921673.1190681458,-1598487.6155853271,-342807.6207637787,-109826.08050107956,13537937.16430664,13225135.803222656,13144867.897033691,4887522.220611572,8933840.75164795,4648921.012878418,2732340.3358459473,2962638.1397247314,-338443.3090686798,13137912.75024414,12928892.135620117,9325067.520141602,9205705.642700195,5089170.455932617,2182055.950164795,2783713.1023406982,13366639.137268066,9633003.234863281,9389375.686645508,4661815.643310547,4568730.354309082
0.335,21507183.074951172,7209702.968597412,17108057.022094727,2977018.356323242,-2505194.1871643066,10626118.659973145,3822247.5051879883,4560728.549957275,38545600.89111328,4222649.097442627,-1998615.6225204468,-2484208.345413208,-2476135.25390625,-15935565.948486328,10562756.538391113,12463710.78491211,22439611.434936523,11641422.271728516,-2212163.9251708984,-2839217.9012298584,-3268559.694290161,-12513896.942138672,-9723063.468933105,-21069337.844848633,4655684.471130371,5364861.488342285,-4349057.197570801,554433.286190033,-3705234.2891693115,-6085829.257965088,-15825712.203979492,-11492108.345031738,9040770.530700684,4329566.955566406,16408119.201660156,10781092.643737793,675938.5466575623,-3826474.666595459,-5387351.989746094,-8869588.851928711,-8618578.910827637,9040591.2399292,8652054.786682129,8708983.421325684,3480804.920196533,6855183.6013793945,1858662.1284484863,-4983233.92868042,-4911662.1017456055,-8719280.242919922,8685871.124267578,8527094.841003418,3644081.3541412354,7001299.3812561035,2280931.7111968994,-5781437.873840332,-5048914.432525635,6780455.589294434,4071043.014526367,7053947.448730469,1990860.7006072998,1802978.3964157104
0.34,29015642.166137695,9668374.061584473,22116767.88330078,7859230.995178223,-1379145.622253418,18232809.06677246,12006155.014038086,12823760.032653809,47600074.768066406,6441426.753997803,1131524.0859985352,551259.0408325195,517504.09603118896,-18024028.778076172,18259269.71435547,18996122.360229492,34471069.3359375,17600515.365600586,275646.26932144165,-1530767.4407958984,-1899240.3745651245,-12348023.414611816,-13073645.59173584,-22355115.89050293,7444761.753082275,8463950.157165527,-3760817.527770996,-353992.4621582031,-4678710.9375,-6670516.490936279,-18911256.790161133,-15591784.477233887,10905715.942382812,6918941.497802734,19149288.177490234,13038646.697998047,388026.1480808258,-4903304.100036621,-6247115.135192871,-10963520.050048828,-10600187.301635742,10988313.674926758,10489098.54888916,10649446.487426758,2634141.206741333,3424172.6398468018,109191.4102435112,-6743557.929992676,-6751651.763916016,-10844043.731689453,10604938.507080078,10348134.994506836,2892181.396484375,3693017.9595947266,648042.0827865601,-7348834.51461792,-6725339.412689209,7513339.519500732,3449383.7356567383,3600619.5545196533,412198.930978775,79972.7737903595
0.345,49664348.60229492,25053373.336791992,43174571.9909668,18514368.057250977,6986403.942108154,29184293.746948242,24032392.501831055,24882268.90563965,63406394.958496094,13025893.211364746,9272602.081298828,8741085.052490234,8680448.532104492,-14863867.75970459,29290077.209472656,29167551.040649414,52377033.23364258,25329433.44116211,3788486.7191314697,2922689.67628479,2602217.197418213,-7046392.917633057,-9631392.478942871,-23033401.489257812,13584066.390991211,12281327.247619629,-3457538.843154907,-2680589.437484741,-3716577.2914886475,-4586525.440216064,-18781293.869018555,-13078976.63116455,17369775.772094727,13018032.07397461,24019128.799438477,16156749.725341797,236609.7718477249,-3970598.4592437744,-4401102.066040039,-7285336.971282959,-6807449.817657471,17611377.716064453,17073799.13330078,17172649.383544922,2927319.5266723633,597879.2905807495,104033.00821781158,-3206568.956375122,-3144699.811935425,-7322284.698486328,17158760.07080078,16735374.450683594,6404508.113861084,1179657.220840454,770681.5004348755,-3386701.1070251465,-2825698.137283325,13100092.887878418,7032341.480255127,1003934.9794387817,440022.4983692169,25651.181116700172
0.35,67596824.6459961,38980121.61254883,62975856.78100586,25757696.1517334,13677340.507507324,35820339.20288086,31303981.78100586,32227504.73022461,74372718.81103516,17053462.982177734,14846426.010131836,14320548.057556152,14326442.71850586,-13669795.036315918,35891132.35473633,35044136.04736328,65602363.58642578,29124649.047851562,4379281.520843506,5806081.771850586,5527984.619140625,-2801243.782043457,-5638192.176818848,-25187141.41845703,16483942.031860352,13285576.820373535,-4549828.52935791,-6365178.58505249,-2371485.948562622,-3570965.051651001,-18788602.828979492,-8925937.65258789,22684131.622314453,16007667.541503906,27289533.615112305,18553678.512573242,486044.58570480347,-2575636.863708496,-2270751.476287842,-2136051.654815674,-1583918.6906814575,22957490.921020508,22381252.28881836,22382846.83227539,3790405.035018921,1972352.0278930664,2393971.6815948486,2144077.0626068115,2299208.164215088,-2196303.606033325,22392669.677734375,21901214.599609375,10360571.86126709,2815386.0569000244,3151105.1654815674,2230654.47807312,2920076.370239258,19350723.266601562,10970545.768737793,2622203.588485718,2632175.922393799,2165294.408798218
0.355,72758987.42675781,42328269.958496094,69845321.65527344,24908372.87902832,13544353.485107422,34866847.99194336,30853744.506835938,31943006.51550293,75577301.02539062,14427166.938781738,14494377.136230469,13848338.12713623,13988734.245300293,-15118990.898132324,34788417.81616211,34357028.96118164,70734375.0,27996994.018554688,1453479.528427124,4927289.009094238,4550326.347351074,-2158451.795578003,-4361805.9158325195,-30169214.248657227,14710947.036743164,11358229.637145996,-6671085.357666016,-10268074.035644531,-1817593.6937332153,-5452712.535858154,-20676338.19580078,-6714230.537414551,25159114.837646484,14292668.342590332,28317573.54736328,19989938.735961914,1041336.6556167603,-2002900.1235961914,-1512920.0220108032,1432832.7178955078,2036437.5114440918,25354824.06616211,24672666.549682617,24707925.79650879,4603286.7431640625,7710028.648376465,6086081.504821777,6743684.768676758,6913516.044616699,1614324.450492859,24656476.974487305,24208105.087280273,13231354.713439941,8596591.94946289,7010697.364807129,6783930.778503418,7635310.649871826,26004852.294921875,13815864.562988281,8404434.204101562,6308206.558227539,5733761.310577393
0.36,68403984.06982422,37962852.478027344,66082000.732421875,19851701.736450195,9479979.515075684,30958438.873291016,27396478.6529541,28633939.743041992,72757453.91845703,9123110.7711792,11674837.112426758,10926689.147949219,11117340.087890625,-16089405.059814453,30796766.28112793,31914236.068725586,72275314.33105469,26116792.678833008,-1400797.6055145264,2799471.616744995,2115999.698638916,-3301683.6643218994,-5196858.4060668945,-35045890.80810547,12615316.390991211,9821077.346801758,-7988774.299621582,-12569469.451904297,-1980271.816253662,-8149950.02746582,-23629575.729370117,-7159832.47756958,27105306.62536621,12202514.6484375,28869548.797607422,21039651.87072754,1473357.081413269,-2198894.97756958,-1836705.3270339966,2702227.1156311035,3342108.4880828857,27330045.700073242,26527347.564697266,26684600.830078125,4924235.3439331055,12840792.655944824,8800200.462341309,9434682.846069336,9574073.791503906,3202072.1435546875,26530782.69958496,26105855.94177246,15497915.267944336,13631594.65789795,9998364.448547363,9231091.499328613,10131557.46459961,32761051.177978516,16168371.200561523,13417816.162109375,9197370.529174805,8479255.676269531
0.365,62865135.192871094,33082061.767578125,61007923.1262207,16064672.470092773,6400449.752807617,29499814.987182617,25418695.4498291,26669208.526611328,72120841.97998047,6886250.972747803,10479948.997497559,9767129.898071289,9873275.756835938,-16216091.15600586,29456293.1060791,31527297.973632812,74246910.09521484,26250812.530517578,-1884491.3244247437,2213500.9765625,1236629.4860839844,-4290588.37890625,-6721769.8097229,-36303989.41040039,12428917.88482666,10275244.71282959,-7921748.161315918,-12838587.760925293,-2308192.9683685303,-9067649.841308594,-26591409.68322754,-9823427.200317383,28281402.587890625,12041167.259216309,29266702.65197754,21647470.474243164,1427223.3247756958,-2480242.7291870117,-2252527.952194214,1743580.937385559,2381407.9761505127,28730516.43371582,27863882.064819336,28081069.946289062,4238930.225372314,12959909.439086914,9095593.452453613,9543791.770935059,9675971.984863281,2329661.1309051514,27904165.267944336,27426431.65588379,16312072.75390625,13704505.920410156,10477215.766906738,9076709.747314453,9971057.891845703,34379772.1862793,17143526.077270508,13455981.254577637,9698197.364807129,8921266.555786133
0.37,59249958.03833008,30483709.33532715,59759983.06274414,13830752.3727417,5330033.779144287,29903865.814208984,24034318.923950195,25200428.009033203,71896301.26953125,7185250.759124756,10597290.0390625,9950024.604797363,10009115.219116211,-16610412.59765625,30067209.243774414,31400629.0435791,75319969.1772461,26289388.65661621,-2278592.348098755,2414772.2721099854,1430324.4352340698,-4657122.611999512,-7177884.578704834,-34999969.482421875,10950852.394104004,10550689.697265625,-8169611.930847168,-12737372.398376465,-2485281.229019165,-8440354.347229004,-28902950.286865234,-12806432.723999023,25347719.192504883,10559756.2789917,28095975.875854492,21224214.553833008,990000.0691413879,-2466132.640838623,-2263911.247253418,-519950.5090713501,84513.71639966965,26004705.42907715,25138608.932495117,25325157.165527344,2552100.419998169,10077426.91040039,8387886.047363281,7712072.372436523,7847466.468811035,-163418.65062713623,25229522.705078125,24710290.908813477,14476098.06060791,10885576.248168945,9707889.556884766,7076829.91027832,7998537.540435791,26712993.621826172,15343253.135681152,10628829.002380371,9012602.806091309,8363308.906555176
0.375,54613746.643066406,27896863.93737793,59426074.98168945,9903005.599975586,4070895.195007324,28283180.236816406,20721769.332885742,21834367.752075195,67374900.8178711,5163660.526275635,9395559.310913086,8699292.182922363,8910183.906555176,-16166248.321533203,28509567.260742188,28755426.40686035,73074394.22607422,23581438.064575195,-5395857.334136963,1195763.111114502,421954.5125961304,-4304985.523223877,-4999407.768249512,-35254787.44506836,5358783.24508667,8724636.07788086,-10101608.276367188,-13798196.792602539,-2505220.1747894287,-8303021.430969238,-29938928.604125977,-13564149.856567383,18468761.444091797,4847181.32019043,25406808.853149414,19946605.682373047,574376.9407272339,-2319250.5836486816,-2027223.1101989746,-2379994.8692321777,-1783361.792564392,19074171.06628418,18269121.170043945,18430816.650390625,1026614.0699386597,9608093.26171875,8939078.330993652,5897345.066070557,5963448.047637939,-2340226.173400879,18394798.278808594,17920782.0892334,11770501.136779785,10495462.417602539,10085900.30670166,5197077.751159668,6142871.856689453,14655163.764953613,12469284.057617188,10256432.53326416,9403114.318847656,9040212.631225586
0.38,45981796.26464844,22148050.30822754,54128288.26904297,3076475.8586883545,456511.527299881,24098861.694335938,16264156.341552734,17401523.59008789,59991455.078125,-272907.1080684662,5969542.980194092,5181135.177612305,5623032.093048096,-14874551.773071289,24166381.8359375,24982688.903808594,69103378.29589844,19714767.456054688,-9633146.286010742,-1409274.2204666138,-2074213.5047912598,-4232499.599456787,-2492778.778076172,-38271957.39746094,-1916372.8952407837,6406983.852386475,-12490033.149719238,-15262368.202209473,-2783974.8859405518,-9687802.3147583,-30580709.45739746,-13162242.889404297,13263743.40057373,-2564286.708831787,23388431.549072266,18863166.80908203,436609.3575954437,-2651319.980621338,-2305289.9837493896,-3756920.576095581,-3125970.6020355225,13629020.690917969,12952103.614807129,13146677.97088623,1122846.245765686,12466089.248657227,10311994.552612305,4519574.6421813965,4415702.819824219,-3842957.2582244873,13036280.632019043,12635433.197021484,11409308.433532715,13362462.997436523,11396112.442016602,3768670.5589294434,4664389.133453369,6906656.742095947,11964960.098266602,13124747.276306152,10603306.770324707,10505034.446716309
0.385,35663410.18676758,13498761.177062988,43810428.619384766,-3971397.638320923,-5725782.871246338,20726129.53186035,13354213.71459961,14533894.538879395,56043460.845947266,-4770679.950714111,1580598.3543395996,816900.2532958984,1304998.755455017,-17110387.802124023,20553073.88305664,23393623.35205078,67230201.7211914,18350267.41027832,-11088388.442993164,-3575419.1875457764,-4351942.06237793,-6937803.745269775,-5305043.697357178,-40572978.97338867,-6604071.617126465,6185796.26083374,-13284288.40637207,-15409275.05493164,-3953021.287918091,-12022774.696350098,-33597503.662109375,-16343458.17565918,14165121.078491211,-7212856.769561768,23534708.02307129,18625169.75402832,439598.32191467285,-3997077.9418945312,-3918526.1726379395,-6762591.361999512,-6130110.740661621,14401405.334472656,13867999.076843262,14104050.636291504,3185192.346572876,14290506.362915039,9997831.344604492,1602928.0424118042,1351610.541343689,-6764975.547790527,13866108.894348145,13453450.202941895,13644798.278808594,15141530.990600586,11104578.018188477,766412.5561714172,1549452.9008865356,4862726.211547852,14345789.909362793,14902587.890625,10213745.1171875,10132138.2522583
0.39,28876848.220825195,5761223.316192627,35327487.94555664,-8264857.292175293,-12288832.664489746,19529954.91027832,11879918.098449707,13068210.60180664,57354888.916015625,-5327310.562133789,-2193580.150604248,-2852994.441986084,-2538376.3313293457,-24805830.001831055,19221893.310546875,23910484.313964844,68130882.2631836,19747638.702392578,-9639757.15637207,-4610697.269439697,-5507612.705230713,-12464873.313903809,-13557654.38079834,-38970577.239990234,-8048030.853271484,7706635.475158691,-12706591.606140137,-14466307.640075684,-5687242.50793457,-14172246.932983398,-39267383.57543945,-23104309.08203125,19631818.771362305,-8496837.615966797,25197658.53881836,18850030.89904785,367883.3842277527,-5726140.975952148,-6166321.277618408,-10858284.950256348,-10318902.969360352,19979209.899902344,19502029.418945312,19728746.41418457,6467416.763305664,13066641.807556152,7935042.858123779,-2433259.4871520996,-2625586.50970459,-10796911.239624023,19502756.118774414,18978311.53869629,16403890.609741211,13862010.00213623,8955761.909484863,-3275643.5871124268,-2601562.738418579,5090667.724609375,17431461.334228516,13711795.806884766,8140782.356262207,7778618.335723877
0.395,26969638.82446289,2507548.0937957764,34233985.900878906,-9755620.002746582,-15294441.223144531,16936958.31298828,8904888.153076172,10098073.959350586,58988697.05200195,-4541100.025177002,-3873858.690261841,-4513995.64743042,-4336616.516113281,-29711643.21899414,16669515.609741211,23461549.758911133,69004005.4321289,20610355.377197266,-9432984.352111816,-5151343.822479248,-5985211.8492126465,-15166583.061218262,-17215198.516845703,-35427825.927734375,-8424981.117248535,8637687.683105469,-12771484.375,-14573054.313659668,-6235649.585723877,-14919409.75189209,-42365230.560302734,-24552595.138549805,25789777.755737305,-8873459.815979004,27488075.256347656,19034900.665283203,302349.86543655396,-6012444.019317627,-6538776.397705078,-10339146.614074707,-9910322.189331055,26318241.119384766,25774986.267089844,25940069.1986084,10170262.336730957,12696439.743041992,7587778.568267822,-2141655.683517456,-2062421.3218688965,-10392631.530761719,25895671.844482422,25269447.326660156,19606794.357299805,13444886.207580566,8410661.697387695,-2774124.86076355,-2146319.86618042,10451636.31439209,20769407.272338867,13477259.635925293,7798013.687133789,7096145.153045654
0.4,25190195.083618164,3321577.787399292,37897125.244140625,-10284096.717834473,-11992298.126220703,9391929.626464844,3564705.3718566895,4805931.568145752,57042781.829833984,-6144522.666931152,-2090748.7869262695,-2779119.9684143066,-2502732.276916504,-20697011.947631836,9277155.876159668,21128135.681152344,68132041.93115234,19072113.037109375,-12868604.66003418,-5075472.354888916,-5740489.959716797,-9017518.043518066,-7020250.32043457,-35470001.220703125,-8400724.411010742,8437670.707702637,-14087395.668029785,-16718893.051147461,-4309062.0040893555,-13321166.038513184,-37801868.4387207,-13614962.577819824,31026371.002197266,-9088692.665100098,30454965.591430664,19197471.618652344,453353.6434173584,-3890112.6384735107,-3520764.3508911133,-1298853.9934158325,-841783.4043502808,31620882.034301758,30971784.591674805,31066055.297851562,13439697.265625,16330989.837646484,10915962.219238281,6198574.066162109,6520310.878753662,-1523633.8376998901,31158401.489257812,30548795.700073242,24581665.0390625,17087530.1361084,11653094.291687012,5900968.551635742,6585993.28994751,27049049.377441406,25559347.15270996,17196962.356567383,11159093.856811523,10374850.273132324
0.405,18265750.885009766,3946889.1620635986,38965431.213378906,-11307579.99420166,-4842525.959014893,-839852.9291152954,-1244044.0654754639,69588.48983049393,53423515.31982422,-9611201.286315918,2328456.401824951,1700015.4256820679,2209416.627883911,456366.8370246887,-811766.2668228149,19437076.568603516,66521583.557128906,16815092.086791992,-17202796.936035156,-3583965.539932251,-4147665.500640869,3595238.68560791,11957132.339477539,-41073246.002197266,-6960808.753967285,8588508.605957031,-15042570.114135742,-19192363.739013672,-1108011.3649368286,-9825818.061828613,-28337505.340576172,3140155.792236328,34629497.52807617,-7852046.489715576,33311698.91357422,19170337.677001953,769144.9522972107,-875898.1823921204,858388.4835243225,10784440.994262695,11445785.522460938,35200096.130371094,34492984.771728516,34546440.12451172,14874532.699584961,20385440.826416016,14801069.259643555,17165874.481201172,17478759.765625,10550657.272338867,34560260.77270508,34069141.38793945,29319601.05895996,21265834.80834961,15659209.251403809,17100963.592529297,17918308.25805664,48367874.14550781,30077054.977416992,21161476.135253906,15127796.173095703,14563397.407531738
0.41,7621523.380279541,1054253.8166046143,34971382.14111328,-13391404.151916504,-695176.0649681091,-7289075.3746032715,-2870491.7430877686,-1521836.6384506226,51118045.806884766,-12029613.494873047,5307260.036468506,4836902.618408203,5482239.723205566,18436252.59399414,-7221174.240112305,19942447.662353516,65010162.353515625,15699233.055114746,-18783063.888549805,-1399855.613708496,-1941334.7244262695,13050989.151000977,25186553.955078125,-46742137.90893555,-4897008.895874023,9408031.463623047,-14573381.423950195,-19924064.63623047,954538.6433601379,-6514592.64755249,-21971746.44470215,12213468.551635742,34430870.056152344,-5724561.2144470215,33615039.82543945,18215896.606445312,949480.3547859192,749487.4596595764,3196281.671524048,16319570.541381836,17189132.690429688,35000427.24609375,34278339.38598633,34313262.939453125,13415847.778320312,19604465.48461914,15218612.670898438,21488035.202026367,21606288.90991211,16234167.098999023,34173702.239990234,33783054.35180664,29115800.857543945,20663063.049316406,16207160.949707031,21531183.24279785,22425388.33618164,55369293.212890625,29887163.162231445,20200286.865234375,15652239.799499512,15335993.766784668
0.415,872948.2293128967,-3422085.762023926,31429389.95361328,-16532348.6328125,-3464594.841003418,-6305117.130279541,-2266717.4339294434,-935285.0914001465,49471549.98779297,-12959143.63861084,3538327.693939209,3093152.2846221924,3693613.5292053223,22411134.719848633,-6310285.0914001465,20599931.716918945,62877349.853515625,15097359.657287598,-18111211.7767334,-597502.3508071899,-1069300.889968872,13876896.858215332,26719278.33557129,-45390174.865722656,-4998580.455780029,9329103.469848633,-13881115.913391113,-19132266.998291016,1436904.3111801147,-5103851.318359375,-21618967.056274414,10533272.743225098,29519863.12866211,-5641765.117645264,30223648.071289062,16269287.109375,872685.4920387268,964459.5384597778,3174647.092819214,14092011.451721191,14942572.593688965,30127586.364746094,29395776.748657227,29388139.724731445,10052755.355834961,15582934.379577637,13233091.354370117,18377338.409423828,18345476.150512695,14081796.646118164,29280937.19482422,28885494.232177734,23598325.729370117,16685487.747192383,14170893.669128418,18621942.5201416,19429792.404174805,39615676.87988281,24497640.60974121,16097061.157226562,13743591.30859375,13457857.131958008
0.42,4232600.688934326,-3258763.313293457,35182941.43676758,-19287868.49975586,-8465929.985046387,-651124.2985725403,-1736858.4871292114,-429327.21972465515,47754318.23730469,-13773716.926574707,-323941.707611084,-927312.7913475037,-484484.82155799866,18083402.633666992,-767857.0747375488,19124912.26196289,60614749.908447266,14175983.428955078,-18036817.55065918,-1428422.8086471558,-1717489.8386001587,10743471.145629883,24502075.1953125,-38197814.94140625,-8370401.382446289,7705675.6019592285,-14424361.228942871,-18355152.130126953,2049094.4385528564,-5046611.785888672,-22615106.5826416,7546065.807342529,23014818.19152832,-8976755.142211914,25634256.36291504,14792376.518249512,756973.5050201416,1644276.6189575195,3511000.394821167,11886858.940124512,12447324.752807617,23657350.540161133,22939109.802246094,22864387.51220703,7251029.014587402,14576375.961303711,13180725.09765625,15899491.310119629,15825889.587402344,11740898.132324219,22956178.665161133,22476095.19958496,18363582.611083984,15521424.293518066,13997677.80303955,16532545.08972168,17170795.440673828,16305263.51928711,19224117.279052734,15164752.960205078,13699063.301086426,13302416.801452637
0.425,16313369.750976562,5951269.149780273,47033031.46362305,-18868303.298950195,-6955610.752105713,3651076.7936706543,-1510708.9281082153,-219136.8043422699,49150707.24487305,-13525452.613830566,489639.63985443115,-173904.8808813095,74851.24468803406,17653793.334960938,3475377.082824707,16447296.142578125,60889991.760253906,14344522.476196289,-18585893.630981445,-1253933.7873458862,-1334051.6090393066,10922608.375549316,26544565.200805664,-35629486.083984375,-13209193.229675293,5924662.113189697,-15717203.140258789,-17780363.082885742,3468276.7391204834,-4614778.0418396,-21457611.083984375,9449536.323547363,18446224.212646484,-13924728.393554688,23069324.493408203,15098429.679870605,816913.6047363281,3213091.8502807617,5266467.094421387,13637789.726257324,13865608.215332031,19108747.482299805,18465961.456298828,18396959.30480957,6055555.34362793,17641191.482543945,15679754.257202148,17952863.693237305,17819360.733032227,13283340.454101562,18560531.616210938,17995105.743408203,17035833.35876465,18426452.63671875,16548816.680908203,18957262.03918457,19517440.795898438,5046059.608459473,17686721.801757812,18334701.538085938,16125061.03515625,15723510.7421875
0.43,27890222.549438477,19606754.302978516,59391578.674316406,-15192923.545837402,2425677.2994995117,2146996.7365264893,-1443982.481956482,-225119.4417476654,55353382.1105957,-9940001.487731934,7941595.554351807,7497116.565704346,7582077.0263671875,22857904.4342041,1992833.4951400757,14398322.105407715,63877708.435058594,16832031.25,-17107143.40209961,1763979.6733856201,1755972.5046157837,14340377.807617188,29805400.848388672,-44785114.28833008,-17741020.20263672,4950842.85736084,-16325338.363647461,-16189798.355102539,4043051.242828369,-3456388.473510742,-21114364.624023438,10853868.48449707,15186312.675476074,-18536590.576171875,22170392.990112305,16150159.83581543,948490.0832176208,3756137.8479003906,6035068.511962891,13695117.950439453,13832862.854003906,15826389.31274414,15287916.18347168,15373636.245727539,5098358.154296875,18944007.873535156,16605800.62866211,18530700.68359375,18282079.696655273,13278474.807739258,15351247.787475586,14746196.746826172,16106845.85571289,19767143.24951172,17702341.079711914,19686687.469482422,20275955.200195312,5554549.694061279,16612045.288085938,19623537.063598633,16939336.7767334,16699342.727661133
0.435,28850349.42626953,25611265.182495117,61714878.08227539,-13168883.323669434,10545603.75213623,-5069716.930389404,-3525180.1013946533,-2471927.4044036865,60434768.67675781,-4492893.218994141,15310935.020446777,15100194.931030273,15147610.664367676,24988698.959350586,-5185908.317565918,12460128.784179688,65031265.25878906,19612651.824951172,-13361834.526062012,5456277.847290039,5301752.090454102,15240077.018737793,27474876.403808594,-58383987.42675781,-21403736.114501953,4127456.6650390625,-15996965.408325195,-13546209.335327148,2663107.395172119,-2834776.6399383545,-24610534.66796875,6018046.855926514,11166500.091552734,-22240209.579467773,20407375.33569336,15689609.52758789,909469.3064689636,2245392.5609588623,4092853.546142578,7673980.236053467,7989517.688751221,11679085.731506348,11186852.45513916,11470498.085021973,3314662.9333496094,15229527.473449707,13846078.872680664,12823700.904846191,12552403.450012207,7372626.304626465,11235907.554626465,10651146.88873291,11529656.410217285,16167150.497436523,15100542.068481445,13991096.496582031,14559379.577636719,3723288.2976531982,12035227.77557373,15746321.678161621,14134372.71118164,14027433.395385742
0.44,18205814.361572266,16943912.506103516,50955875.396728516,-17149509.42993164,8815252.304077148,-12987797.737121582,-8807094.57397461,-7901307.106018066,56873542.78564453,-2250485.420227051,15139030.456542969,14814716.339111328,14977395.057678223,19245397.567749023,-13138731.002807617,9925912.857055664,61223560.33325195,19755659.103393555,-11020603.17993164,6059344.76852417,5654222.48840332,11439663.887023926,20820220.947265625,-61586025.23803711,-22419830.322265625,3548416.3761138916,-15462113.380432129,-11896007.537841797,952064.4545555115,-3502285.4804992676,-28616796.493530273,-271990.41843414307,8634013.175964355,-23366550.44555664,18370866.775512695,13728369.71282959,671748.697757721,544508.0995559692,1646172.046661377,1699599.6236801147,2189043.9987182617,8949796.676635742,8431689.262390137,8740524.291992188,2298916.3398742676,11360286.712646484,10935487.747192383,6764742.374420166,6667746.543884277,1553170.6809997559,8508196.830749512,8007639.8849487305,6827890.396118164,12204986.572265625,12136973.38104248,8014979.362487793,8451163.291931152,-3624945.4021453857,7322726.726531982,11669174.194335938,11317432.403564453,11149800.300598145
0.445,7399175.16708374,2236324.7871398926,37476196.2890625,-23563407.89794922,445641.1004066467,-14934289.932250977,-13086489.6774292,-12152289.390563965,47087631.22558594,-5347924.23248291,8822120.666503906,8125229.835510254,8418361.66381836,11634078.979492188,-15198869.705200195,9395637.512207031,56973247.52807617,18063276.290893555,-12923816.680908203,3025301.456451416,2496472.120285034,7238705.635070801,17272283.55407715,-50366569.51904297,-17756145.477294922,5226983.547210693,-14927329.063415527,-12981063.842773438,937774.121761322,-4752872.467041016,-28312810.89782715,113575.57028532028,12695696.830749512,-18799165.725708008,20217550.27770996,13161232.948303223,457894.05703544617,687879.4431686401,1660704.0166854858,4089037.8952026367,4516977.310180664,12912981.986999512,12392343.521118164,12506117.820739746,4470119.953155518,13451755.52368164,11874317.169189453,8812359.809875488,8996054.649353027,4039670.467376709,12392071.723937988,12002976.417541504,9464439.392089844,13995638.847351074,12949644.088745117,10260737.419128418,10601338.386535645,-4001866.8174743652,9867928.504943848,13660931.587219238,12407675.743103027,12061261.177062988
0.45,9242231.369018555,-1880460.9775543213,36475196.838378906,-23920547.485351562,-3753357.6488494873,-9184275.62713623,-10763131.141662598,-9645916.938781738,41849182.12890625,-9962102.890014648,4450702.667236328,3565028.667449951,3851536.512374878,10302783.966064453,-9535846.710205078,13702744.483947754,59462070.46508789,18107622.146606445,-17333284.378051758,-468450.48666000366,-903283.8940620422,7201700.687408447,19868907.928466797,-36998245.23925781,-8026439.666748047,9757952.690124512,-14271789.55078125,-16017955.780029297,2043769.359588623,-5674599.647521973,-25034326.553344727,6233069.896697998,23923841.47644043,-8935491.561889648,27464046.478271484,15912214.279174805,485075.05655288696,1877167.7017211914,3495601.6540527344,12636314.392089844,12874238.967895508,24235008.239746094,23788362.503051758,23707626.342773438,9548812.866210938,20609277.725219727,15542776.107788086,17105884.552001953,17522119.522094727,12652421.951293945,23576902.389526367,23261320.114135742,20564975.73852539,20951103.21044922,16609163.284301758,18723815.91796875,19129924.774169922,10669534.683227539,20977928.161621094,20893707.275390625,16114830.017089844,15662212.371826172
0.455,22257226.943969727,9039109.230041504,50324810.02807617,-16390304.565429688,231421.23222351074,-1695425.7488250732,-3241366.147994995,-1990951.2996673584,45862602.23388672,-11745533.94317627,5869036.1976623535,5171504.497528076,5361262.798309326,14981944.08416748,-2001212.8353118896,20188360.2142334,68123527.52685547,20651113.510131836,-20568407.05871582,-1756783.8430404663,-2059114.694595337,10571363.44909668,24342576.98059082,-34145557.40356445,714075.4461288452,13855027.198791504,-14158877.3727417,-18724241.256713867,2279946.3272094727,-6324625.9689331055,-23905055.99975586,10322125.434875488,36457733.154296875,135050.6693124771,35442176.818847656,19974971.771240234,751272.0227241516,2017898.3211517334,4291985.511779785,17954427.71911621,18158498.764038086,36940132.14111328,36522361.755371094,36464145.66040039,14438292.503356934,27242973.32763672,18076385.498046875,22576297.760009766,23102830.88684082,18046001.434326172,36179653.16772461,35903327.94189453,33201251.983642578,27640472.412109375,19237360.00061035,24187837.600708008,24732440.948486328,31832990.646362305,33858146.66748047,27668172.83630371,18542684.55505371,18117839.813232422
0.46,31497156.143188477,20914222.717285156,63689716.33911133,-8979764.938354492,4923435.211181641,1571389.3175125122,2030030.7273864746,3246533.3938598633,51884326.93481445,-11233805.656433105,8411476.135253906,7999236.583709717,8173686.0275268555,17689180.374145508,1412254.5719146729,23203035.354614258,74762496.94824219,22418258.666992188,-21500503.540039062,-1549232.6021194458,-1919030.3087234497,12749035.835266113,25126878.73840332,-38395336.15112305,3712389.9459838867,14095910.07232666,-15290040.016174316,-19858066.55883789,1305237.2932434082,-7379240.036010742,-26247577.667236328,8854652.404785156,44685333.251953125,3345016.4794921875,38646999.35913086,21870210.647583008,1026048.3026504517,930297.9111671448,3294256.2103271484,16607206.344604492,16987981.79626465,45268234.25292969,44674392.70019531,44775482.177734375,16454830.169677734,30458147.048950195,18316333.770751953,21870380.401611328,22376369.47631836,16754932.403564453,44426902.770996094,44241699.21875,40712345.123291016,30969345.092773438,19525522.232055664,23250919.342041016,23874078.75061035,46246097.564697266,41656646.728515625,30913421.630859375,18709333.419799805,18340303.421020508
0.465,27119623.1842041,18296846.389770508,59944972.99194336,-8596771.240234375,2158507.823944092,4139325.1419067383,2367850.7804870605,3499369.3828582764,52068286.89575195,-11256180.763244629,6432588.577270508,6074186.325073242,6336218.83392334,11486264.2288208,4078015.8042907715,22922803.87878418,74629295.3491211,21446432.11364746,-21386960.983276367,-1996194.3626403809,-2635657.0720672607,10128032.684326172,19836925.506591797,-35229270.935058594,4246933.937072754,12221999.168395996,-16547327.041625977,-19685726.165771484,216890.23077487946,-9294751.167297363,-29271739.959716797,4485888.481140137,48619598.388671875,3815208.911895752,37765609.74121094,21081481.93359375,1037979.6028137207,-102727.77080535889,1943657.5174331665,13136114.120483398,13671995.162963867,49244926.45263672,48361865.99731445,48484573.36425781,15463623.046875,30879179.000854492,17566623.68774414,19187997.817993164,19595050.811767578,13276388.168334961,48247085.57128906,48210304.260253906,42386299.13330078,31361482.620239258,18697378.158569336,20198204.040527344,20871562.957763672,50896999.35913086,43367557.525634766,31242460.250854492,18052921.295166016,17662876.12915039
0.47,16734199.523925781,3249579.668045044,40334445.95336914,-11372632.026672363,-6136876.106262207,15444214.820861816,4622618.198394775,5767601.96685791,49168033.599853516,-11446640.014648438,1128467.9174423218,621589.8990631104,911994.8148727417,-2989579.916000366,15336522.102355957,26493465.423583984,72271209.71679688,20585168.838500977,-20687530.517578125,-3392222.4044799805,-4292438.507080078,2971510.887145996,9345614.433288574,-18264745.712280273,9441571.235656738,13530630.111694336,-15627400.398254395,-18653200.149536133,-856759.250164032,-11894913.673400879,-31730852.127075195,-785623.4312057495,51406059.26513672,8876566.886901855,38174781.799316406,20203092.575073242,761699.914932251,-997377.3956298828,656656.8613052368,10395046.23413086,10913541.793823242,52079288.482666016,51118598.93798828,51032409.66796875,13127697.944641113,28670513.153076172,15867678.64227295,16782951.35498047,17153678.89404297,10486728.66821289,50906780.24291992,50924324.03564453,40816215.51513672,29105415.34423828,16827795.028686523,17494380.950927734,18276714.324951172,51144302.36816406,41611042.02270508,29004770.278930664,16476793.28918457,16020290.37475586
0.475,13541069.030761719,-9476490.97442627,21010932.92236328,-9009423.25592041,-11801042.556762695,36393058.77685547,15092783.92791748,16301689.147949219,50767406.46362305,-9249024.391174316,-2156569.004058838,-2759313.3449554443,-2583994.150161743,-18411640.167236328,36164184.5703125,37668457.03125,73669380.18798828,23293672.561645508,-18782878.875732422,-4224156.856536865,-5247367.858886719,-4981262.683868408,-2318726.5396118164,2998380.184173584,20180332.18383789,19802499.771118164,-12087734.22241211,-17031723.022460938,-2666852.2357940674,-14306069.374084473,-34693233.489990234,-7189828.395843506,54632366.18041992,19633466.720581055,42282981.872558594,21000301.361083984,484518.49818229675,-2703756.809234619,-1466276.4072418213,6195533.752441406,6659987.926483154,55299701.69067383,54601940.1550293,54310050.96435547,11458425.521850586,23992038.72680664,12409931.182861328,12210334.777832031,12704900.741577148,6268536.567687988,54146446.228027344,54020458.22143555,38281761.169433594,24568332.67211914,13180677.41394043,12866029.739379883,13739030.838012695,51191776.275634766,38996860.50415039,24464220.04699707,12933972.358703613,12494869.232177734
0.48,18840885.162353516,-11459500.312805176,14211348.533630371,-1196818.5901641846,-11560605.0491333,54984420.77636719,29160518.646240234,30355436.325073242,56939208.984375,-5463522.434234619,-1703595.1614379883,-2232267.8565979004,-2192914.4859313965,-27042665.481567383,54703990.9362793,50034072.87597656,77645812.98828125,28097747.802734375,-16669172.286987305,-3884186.5062713623,-4982757.568359375,-9360989.570617676,-9150859.832763672,15428200.721740723,29826211.92932129,26639955.520629883,-8563813.209533691,-16018335.342407227,-4661752.223968506,-15549379.348754883,-37408351.89819336,-12645438.194274902,58158462.52441406,29362419.12841797,47006145.47729492,22414619.44580078,441708.86278152466,-4764600.2769470215,-3908285.140991211,667432.8446388245,1200253.2482147217,58690067.291259766,58270008.0871582,58045913.69628906,12006929.397583008,20549369.81201172,9049628.257751465,6121575.832366943,6772255.420684814,786271.870136261,57784145.35522461,57461597.44262695,37254329.681396484,21367370.60546875,9718441.009521484,6872697.353363037,7676940.441131592,52331836.70043945,38148128.509521484,21164712.90588379,9310730.934143066,9050104.141235352
0.485,23512001.037597656,-7874718.66607666,17480712.890625,3997699.022293091,-9925636.291503906,60070770.263671875,35986194.6105957,37131469.7265625,60279987.33520508,-4677189.350128174,-1112869.2626953125,-1505886.197090149,-1486504.7931671143,-27658454.89501953,59871879.57763672,54523780.822753906,78755813.59863281,30126825.3326416,-17113937.377929688,-3892306.5662384033,-5141910.076141357,-9252808.570861816,-8768587.112426758,16767585.754394531,33268444.061279297,28905046.463012695,-7938997.745513916,-17376510.620117188,-5239531.993865967,-15800991.05834961,-37575176.23901367,-13684211.730957031,61906265.25878906,32765090.942382812,49015579.22363281,22834142.684936523,471487.79034614563,-5473991.394042969,-4736020.565032959,-1162677.526473999,-532148.7784385681,62255897.521972656,61747909.54589844,61812469.482421875,14877045.631408691,23250289.916992188,9365125.65612793,4431620.5978393555,5046148.300170898,-965472.6386070251,61568607.330322266,61228004.455566406,40200428.0090332,24151466.369628906,10145068.168640137,5131891.72744751,5782366.2757873535,55814090.728759766,41248516.08276367,23818346.02355957,9496753.692626953,9490103.721618652
0.49,23054822.92175293,-7030558.109283447,20830026.626586914,1557517.170906067,-11751908.302307129,54677349.09057617,32017677.307128906,33221660.614013672,57183135.986328125,-8912516.593933105,-3694874.5250701904,-4039683.8188171387,-3945350.170135498,-26446889.877319336,54621158.599853516,50921234.130859375,75754600.52490234,27657335.28137207,-20877094.268798828,-5821501.2550354,-7240765.571594238,-8320886.611938477,-6209123.134613037,14894460.678100586,32908687.591552734,26817848.205566406,-9892109.870910645,-20945131.301879883,-4367941.856384277,-16483068.466186523,-35838260.650634766,-11478575.706481934,65217781.06689453,32281200.408935547,49134292.60253906,22507122.039794922,300757.2591304779,-4650728.225708008,-3753195.5242156982,2714962.2440338135,3296799.898147583,65480789.18457031,64642143.24951172,64882789.611816406,18219942.092895508,31161680.221557617,13432356.834411621,9367041.58782959,9785117.149353027,2979188.2038116455,64781448.36425781,64605766.29638672,46011356.353759766,31965988.159179688,14521341.323852539,9743475.914001465,10401217.460632324,61174579.62036133,46856719.970703125,31573583.602905273,13752451.89666748,13881205.558776855
0.495,22268964.767456055,-9757422.44720459,19501754.760742188,-4075463.29498291,-15987367.630004883,50216594.69604492,24821441.650390625,26162124.633789062,52834697.72338867,-13912585.258483887,-8089836.120605469,-8507180.213928223,-8326920.509338379,-29552967.071533203,50223751.068115234,47169254.302978516,72859550.47607422,24401481.62841797,-24711414.337158203,-8824593.544006348,-10246014.595031738,-10241559.028625488,-7966530.799865723,15952811.241149902,33771492.00439453,24988035.202026367,-11339630.126953125,-23799711.227416992,-3899535.655975342,-18251028.060913086,-35358058.92944336,-11148549.07989502,65989723.205566406,33106693.267822266,49869285.583496094,22648344.039916992,72972.67019748688,-4130970.001220703,-3103687.047958374,6871572.494506836,7311675.548553467,66251266.47949219,65318038.94042969,65427444.45800781,19861255.645751953,36988685.607910156,16717962.265014648,14662022.590637207,15013356.20880127,7187021.255493164,65435691.833496094,65397926.330566406,49380264.28222656,37739711.76147461,18059440.61279297,14678648.948669434,15551952.362060547,64111282.34863281,49801597.595214844,37373565.673828125,17335226.05895996,17377481.46057129
0.5,23745159.149169922,-12604901.313781738,15700763.702392578,-6189515.113830566,-18752256.393432617,50734889.98413086,22539573.669433594,23895769.119262695,52978889.46533203,-14437503.814697266,-10788208.961486816,-11324847.221374512,-11072566.986083984,-35717514.03808594,50621612.548828125,48035812.37792969,72949134.82666016,24357011.795043945,-25099248.8861084,-10466067.31414795,-11646789.55078125,-13887040.138244629,-13274220.46661377,18014541.625976562,36106567.3828125,26272199.630737305,-10370386.123657227,-23403718.948364258,-4799577.236175537,-19663892.74597168,-36323799.13330078,-13897266.387939453,62876392.36450195,35498752.59399414,50892974.853515625,23134458.541870117,149662.92679309845,-4986892.7001953125,-3998996.2577819824,6049870.014190674,6453022.480010986,63123184.20410156,62465839.38598633,62342041.015625,19491863.250732422,35619232.177734375,15649384.498596191,14015701.293945312,14553421.974182129,6416114.807128906,62313198.08959961,62262588.50097656,46476375.579833984,36445281.982421875,16930467.60559082,13957381.248474121,14973089.218139648,61103481.29272461,46740482.330322266,36117954.25415039,16329114.91394043,16188432.693481445
0.505,21634296.417236328,-15430135.726928711,11761982.917785645,-4756004.333496094,-19470491.409301758,50290660.8581543,24323869.705200195,25525625.228881836,55625701.904296875,-11435607.91015625,-11049000.74005127,-11666264.533996582,-11379496.574401855,-38847160.33935547,49899475.09765625,49759407.04345703,73663825.98876953,26591695.78552246,-22970479.96520996,-9975065.231323242,-10840848.922729492,-15348363.876342773,-15872983.932495117,16536151.885986328,36278736.11450195,28590866.088867188,-8678173.065185547,-20942535.400390625,-5927303.314208984,-19204069.137573242,-35397895.81298828,-15201250.076293945,57845729.82788086,35685840.60668945,49723754.8828125,22586111.068725586,406019.4790363312,-6150952.339172363,-5125586.986541748,2633835.0772857666,3113517.999649048,58081272.12524414,57671958.923339844,57544139.86206055,18277990.341186523,30116048.81286621,11948767.66204834,9690726.280212402,10441652.297973633,3035260.4389190674,57398616.790771484,57251548.767089844,39852199.55444336,30966730.11779785,12929147.720336914,9882140.159606934,10724533.081054688,55036804.19921875,40409961.70043945,30638835.906982422,12404212.951660156,12202360.153198242
