time,Fp1,Fpz,Fp2,AF3,AF4,F7,F5,F3,F1,Fz,F2,F4,F6,F8,FT7,FC5,FC3,FC1,FCz,FC2,FC4,FC6,FT8,T7,C5,C3,C1,Cz,C2,C4,C6,T8,TP7,CP5,CP3,CP1,CPz,CP2,CP4,CP6,TP8,P7,P5,P3,P1,Pz,P2,P4,P6,P8,PO7,PO5,PO3,POz,PO4,PO6,PO8,CB1,O1,Oz,O2,CB2
0.0,-15543541.90826416,-15402830.123901367,-14248949.05090332,-13155067.443847656,-9433710.098266602,-11635726.928710938,-19514596.939086914,-8538666.725158691,-3368173.122406006,-2825722.6943969727,-3851565.12260437,-9108299.255371094,-6775999.069213867,-10692726.135253906,-15832794.189453125,-8451206.20727539,-3371876.001358032,-1950248.0030059814,-530667.781829834,-1133172.1544265747,-2768733.7398529053,-15279485.702514648,-11451637.268066406,-4739782.333374023,-5548315.048217773,-2218695.1637268066,167709.48469638824,59537.78326511383,-1392210.1259231567,-4345417.9763793945,-3641486.406326294,-9827217.102050781,-3310620.5463409424,-2622063.8751983643,-1093762.2785568237,487842.97704696655,-1066676.4974594116,-197334.25974845886,-4081670.2842712402,-2789167.881011963,-3733437.0613098145,-8285887.718200684,-6128623.962402344,-2338150.0244140625,-3347477.1976470947,-4548441.410064697,-3554634.3326568604,-3060727.35786438,-3592347.1450805664,-7159149.169921875,-9079477.310180664,-9082778.930664062,-6086104.393005371,-5787487.506866455,-5382744.789123535,-5368556.022644043,-4630776.882171631,-6043314.9337768555,-6087725.639343262,-6605549.335479736,-5468051.433563232,-1811836.7195129395
0.005,-30616781.23474121,-44875835.41870117,-47271507.263183594,-21309053.421020508,-22137178.421020508,-6846416.473388672,-3015757.0838928223,-10115302.085876465,-8545906.066894531,-9399936.67602539,-9985522.270202637,-11462613.105773926,-15380780.220031738,-12627677.917480469,4264445.781707764,4292376.0414123535,-3516350.030899048,-5091053.009033203,-5378036.4990234375,-3801547.050476074,-5570823.669433594,-4560515.403747559,-5378234.86328125,7234687.805175781,10017056.465148926,-1733133.5544586182,-748607.2182655334,324835.2110385895,-3057380.6762695312,-878034.234046936,271514.4753456116,2638211.965560913,6373661.994934082,2960202.693939209,984324.3360519409,313962.4893665314,3565380.573272705,-1349088.9072418213,-253295.3917980194,2350099.3251800537,582530.2004814148,8067619.323730469,6793713.569641113,2397457.5996398926,6755874.6337890625,8625912.6663208,1413198.5902786255,3733561.5158081055,5927191.734313965,5495440.0062561035,12081074.714660645,11382760.047912598,9035954.475402832,11884406.089782715,8434639.930725098,8492664.337158203,7526709.079742432,8500842.094421387,8009408.950805664,10397983.55102539,7771147.25112915,13758434.295654297
0.01,-60955238.342285156,-84275382.99560547,-85741867.06542969,-41502902.98461914,-41500091.552734375,-11588780.403137207,-5419332.027435303,-18182527.542114258,-15379453.659057617,-16966684.341430664,-17320140.838623047,-17969684.600830078,-23196043.014526367,-17019481.658935547,8081642.150878906,7537002.5634765625,-6235830.307006836,-8795238.494873047,-9516127.586364746,-7157659.530639648,-8163149.833679199,-4169391.15524292,-3815623.7602233887,13450408.935546875,16136987.686157227,-1073216.199874878,-1335771.4414596558,-581096.5895652771,-4846310.138702393,1267525.553703308,4014938.3544921875,10907434.463500977,13644789.695739746,6561352.729797363,2776088.9530181885,786671.5788841248,7622162.342071533,-1232655.644416809,2882899.284362793,8393112.182617188,6670975.208282471,17378662.109375,13766714.096069336,6070425.510406494,12650056.838989258,16349319.458007812,6147584.915161133,9911367.416381836,15606958.389282227,16177576.065063477,24041643.142700195,23027807.235717773,20561323.165893555,23252792.358398438,19716806.411743164,19682203.29284668,18587730.407714844,19889768.600463867,18984741.2109375,23346359.252929688,18954231.26220703,28621135.711669922
0.015,-103649208.06884766,-131338241.57714844,-128848968.50585938,-71690330.5053711,-65161010.7421875,-25686178.20739746,-25157030.10559082,-31421327.590942383,-22943080.90209961,-24522445.678710938,-24920005.798339844,-27509782.791137695,-29953336.715698242,-24575382.232666016,-3954014.301300049,1852279.1862487793,-10656059.265136719,-12373291.015625,-12566602.70690918,-10684239.387512207,-10804095.268249512,-14249782.56225586,-7455304.145812988,13064911.842346191,13169550.895690918,58955.76626062393,-1105625.6294250488,-2240854.024887085,-6937059.40246582,1104197.7405548096,5905131.3400268555,13397558.212280273,16804710.388183594,7631555.080413818,4080794.8112487793,1937378.7641525269,11168542.861938477,-798808.6342811584,3890121.4599609375,13095002.174377441,12349544.525146484,18090625.762939453,13851329.803466797,7657742.023468018,13460853.576660156,17832572.93701172,8980738.639831543,13280687.33215332,22520137.786865234,22336608.88671875,25064529.418945312,24099502.563476562,25823455.810546875,26679517.74597168,25498584.747314453,25375022.888183594,25596139.907836914,25403177.26135254,24228761.672973633,29338159.561157227,24994211.196899414,39209587.09716797
0.02,-140168090.8203125,-172156982.421875,-167250244.140625,-97034622.19238281,-84041999.81689453,-38814945.220947266,-41219753.26538086,-41897815.7043457,-28930711.74621582,-30404623.03161621,-30782426.834106445,-34465263.36669922,-35039665.22216797,-32244293.212890625,-14980890.274047852,-2869736.1946105957,-13638446.807861328,-14881904.602050781,-15106595.993041992,-13435744.285583496,-13639536.85760498,-23801301.956176758,-11436712.265014648,11102940.559387207,9935362.815856934,1975137.1145248413,-153697.78871536255,-3400454.044342041,-9159703.254699707,-190637.2457742691,5289113.0447387695,13895417.213439941,17087280.2734375,8068904.876708984,5272698.879241943,3160820.960998535,15058276.176452637,-1452957.1533203125,3028285.7418060303,14508780.479431152,15106712.341308594,16112447.738647461,12370725.631713867,7830086.231231689,13088488.578796387,18282464.9810791,9742150.30670166,13655145.645141602,25308729.17175293,25134059.90600586,23229230.880737305,22369472.50366211,26805904.388427734,27619991.302490234,26775417.32788086,26754320.14465332,28074077.606201172,26573675.15563965,25378801.345825195,30745380.401611328,26426494.598388672,43220134.73510742
0.025,-159150085.44921875,-197052917.48046875,-192047927.8564453,-108187698.36425781,-94307731.62841797,-43237506.86645508,-39758716.58325195,-45710136.41357422,-33540607.452392578,-35309055.32836914,-35106777.19116211,-36290904.9987793,-38035194.396972656,-36093517.3034668,-12960921.287536621,-255198.68731498718,-14623577.117919922,-17194747.924804688,-18586235.04638672,-15791241.645812988,-16330158.233642578,-23717594.146728516,-10845136.642456055,12329941.749572754,12137489.318847656,4153785.228729248,381141.18576049805,-3980793.4761047363,-11042535.781860352,63342.90653467178,4334174.156188965,17727289.1998291,17816091.537475586,10080378.532409668,6797148.22769165,3891446.352005005,19966123.580932617,-2440842.866897583,3087689.8765563965,14805591.583251953,16458364.486694336,18086868.286132812,14838240.623474121,8865425.109863281,16244373.321533203,23363971.710205078,11575615.882873535,14979577.06451416,28058662.41455078,29800180.435180664,27514287.9486084,26637922.286987305,29279811.85913086,33429294.58618164,29428281.784057617,29597583.770751953,30617738.723754883,28895792.00744629,27859794.61669922,34156757.35473633,28970619.201660156,44153278.35083008
0.03,-171560745.2392578,-213722900.390625,-207488174.43847656,-114888389.58740234,-103237304.6875,-45676097.86987305,-35358963.01269531,-49789985.65673828,-40194698.333740234,-42051322.93701172,-40771743.77441406,-38427043.91479492,-40725517.27294922,-37591102.600097656,-8715060.234069824,2906605.7205200195,-17314773.559570312,-21595897.674560547,-23801233.291625977,-19256443.02368164,-18702322.006225586,-20106010.43701172,-8791059.494018555,14263033.866882324,14988606.452941895,4901396.27456665,-509136.3191604614,-5314273.357391357,-12579091.07208252,1958255.8870315552,4870492.935180664,23109285.354614258,19552270.889282227,12382616.996765137,7913565.635681152,4272478.5804748535,25163549.423217773,-2084649.5628356934,5293429.851531982,16961050.033569336,18799306.869506836,21805250.16784668,19255699.157714844,11359148.979187012,22054758.071899414,31619928.35998535,16598108.291625977,20009393.6920166,34472892.76123047,37431079.86450195,35416282.653808594,34508270.263671875,34906002.044677734,43839920.04394531,36342525.482177734,36562370.30029297,36659820.556640625,34259204.86450195,33328216.552734375,41421344.75708008,35717697.14355469,47508789.0625
0.035,-194021850.5859375,-236098617.55371094,-225908462.52441406,-132120834.35058594,-118320869.44580078,-57929321.2890625,-50898578.64379883,-62125347.13745117,-50325397.49145508,-51165065.76538086,-48775501.2512207,-46737358.09326172,-45240558.62426758,-41784202.575683594,-20728874.20654297,-3505750.4177093506,-24246168.13659668,-28308815.002441406,-29470962.524414062,-23865909.576416016,-20755142.211914062,-25780826.568603516,-12540183.067321777,11097687.721252441,11221574.783325195,3442768.096923828,-2183185.815811157,-8044543.266296387,-14189224.243164062,2634509.801864624,5939749.717712402,22969739.91394043,19378963.470458984,11594661.712646484,7526042.938232422,4892835.61706543,29135881.423950195,-699026.346206665,6994753.360748291,20044921.875,21039216.995239258,19525453.567504883,19077627.182006836,13102286.338806152,25026750.564575195,36407081.604003906,22045774.459838867,25617862.701416016,41608821.868896484,41898834.228515625,36566833.49609375,35740169.525146484,38769123.07739258,51084049.224853516,42665988.92211914,42849655.15136719,42988159.1796875,38144763.9465332,37124267.578125,46624485.01586914,41983821.868896484,53672218.322753906
0.04,-221817596.43554688,-261898193.359375,-248040527.34375,-155512359.61914062,-134060928.34472656,-76487709.04541016,-79486412.04833984,-77460494.99511719,-59288581.84814453,-58616558.07495117,-54939743.04199219,-56545684.814453125,-49397686.00463867,-47817752.838134766,-44235351.5625,-15595161.437988281,-31493103.02734375,-33854026.794433594,-33180854.79736328,-27044494.62890625,-21705650.329589844,-38863395.69091797,-20535614.013671875,4495856.761932373,3508235.454559326,2039685.9645843506,-2922393.798828125,-10786035.537719727,-15649347.305297852,1620401.9784927368,6603035.449981689,17610973.358154297,16681602.478027344,8195354.461669922,6562322.13973999,5851170.539855957,31638263.702392578,-121543.78741979599,6039798.259735107,21479463.577270508,21239421.844482422,11661569.595336914,14183013.916015625,12696408.27178955,23439004.89807129,36129371.643066406,24082283.02001953,27377838.134765625,44514995.57495117,39535762.786865234,29769214.630126953,29036128.997802734,37847213.74511719,51382205.963134766,43256660.46142578,43585746.76513672,44805511.474609375,37541625.9765625,36363224.029541016,45606826.78222656,42605731.96411133,58131149.29199219
0.045,-233898681.640625,-274170989.9902344,-260061218.26171875,-165045104.98046875,-138133697.50976562,-84359893.79882812,-89529808.0444336,-82267143.24951172,-61216888.427734375,-60326259.61303711,-54526126.861572266,-57004859.924316406,-48198402.404785156,-48378517.150878906,-54113300.32348633,-18624347.686767578,-32859874.725341797,-34889759.0637207,-34028190.61279297,-26671960.830688477,-20490139.00756836,-43089645.38574219,-22258436.20300293,3136260.509490967,1668069.7202682495,3737480.878829956,-2192840.576171875,-11803845.405578613,-16098270.416259766,2561128.616333008,8230206.489562988,16761024.475097656,15403927.80303955,7085292.339324951,7379689.2166137695,6485224.723815918,34055534.36279297,-755385.3988647461,4689317.226409912,21903503.41796875,20824920.654296875,8359253.883361816,12184537.887573242,11898466.110229492,22156179.428100586,36862056.732177734,23516893.38684082,26403707.50427246,44251716.61376953,36120826.721191406,26384460.44921875,25567348.48022461,36516197.204589844,50475666.04614258,40765232.08618164,41444267.27294922,43265544.89135742,36439319.6105957,35235382.080078125,42928581.23779297,40197673.79760742,58319683.07495117
0.05,-224943832.39746094,-267293731.68945312,-255223068.2373047,-154919067.3828125,-129791931.15234375,-76080291.74804688,-71274673.46191406,-74475120.5444336,-57273159.02709961,-57850315.09399414,-49339214.32495117,-47097030.63964844,-41488742.82836914,-41336177.825927734,-41906250.0,-8703396.797180176,-28773534.774780273,-32866504.669189453,-33596275.329589844,-24441688.537597656,-17754966.735839844,-32682609.55810547,-14120263.09967041,9477070.808410645,7921086.311340332,7850876.808166504,-1423407.4354171753,-11403729.438781738,-15545243.263244629,7126895.904541016,11565439.224243164,24913526.53503418,17854597.091674805,10400085.44921875,10042761.80267334,6200304.03137207,37319122.314453125,-1156495.213508606,6053561.687469482,23934984.20715332,22326492.309570312,14110713.958740234,16599472.045898438,12491141.319274902,24872573.852539062,42558975.21972656,24177806.854248047,27268407.821655273,45864315.032958984,38586009.97924805,32867664.337158203,31808319.091796875,39317764.28222656,54323089.599609375,41209564.208984375,42126777.64892578,43311721.80175781,39126747.131347656,37996994.01855469,44486442.56591797,40761356.353759766,56770153.0456543
0.055,-213293273.92578125,-255874023.4375,-244975219.7265625,-142113754.27246094,-121363128.66210938,-65757339.47753906,-50614631.65283203,-66596244.81201172,-54333812.71362305,-56300575.256347656,-45800090.78979492,-37797992.70629883,-35095592.4987793,-33653114.318847656,-27696466.44592285,1619113.0876541138,-25856138.229370117,-32164779.663085938,-33789459.228515625,-23866947.174072266,-15576051.712036133,-21130315.78063965,-5024899.959564209,15575118.064880371,13926911.354064941,10624716.758728027,-2016855.9551239014,-11371010.780334473,-15133238.792419434,11658883.094787598,14789677.619934082,34562191.009521484,20950122.833251953,14322894.096374512,11836670.875549316,5215483.665466309,40784721.37451172,-543740.3321266174,9283439.636230469,27700454.711914062,25524433.135986328,20994604.110717773,21639768.600463867,13569674.491882324,28906976.6998291,49331798.5534668,27185304.641723633,31010053.634643555,50630302.42919922,45516441.345214844,41609176.63574219,40375278.47290039,44113773.345947266,60859634.39941406,45400432.58666992,46237392.42553711,46687786.10229492,43647369.384765625,42489135.7421875,49081676.4831543,45020503.997802734,57298233.03222656
0.06,-212536529.54101562,-252760437.01171875,-241511062.6220703,-139913085.9375,-120213287.35351562,-64514533.99658203,-47304313.65966797,-66467475.89111328,-55314701.080322266,-57261363.9831543,-46007667.541503906,-35832500.45776367,-32543537.139892578,-30251489.639282227,-27110790.252685547,3344407.320022583,-27153188.705444336,-33970821.380615234,-34560375.21362305,-25307415.008544922,-14578051.567077637,-18856683.7310791,-1746468.9016342163,15780244.827270508,14338744.163513184,10895606.04095459,-3433354.616165161,-12355875.015258789,-15381517.41027832,13094582.557678223,16879737.854003906,39176616.66870117,21770393.37158203,15462088.584899902,11573179.244995117,4234745.025634766,43769298.5534668,102653.1308889389,11553093.910217285,31024473.190307617,28962137.22229004,22221635.818481445,22425697.326660156,14032476.425170898,30925449.37133789,53059844.970703125,30342821.12121582,34541831.970214844,55449352.2644043,51533809.661865234,45032081.604003906,43825393.67675781,47190250.396728516,65599601.74560547,49880493.1640625,50498493.19458008,51323078.15551758,46585853.576660156,45276882.17163086,52628292.083740234,49449634.55200195,60594215.393066406
0.065,-215088775.63476562,-254104217.52929688,-242664947.50976562,-141159942.62695312,-120882347.1069336,-65551872.25341797,-48153293.60961914,-67360321.04492188,-56154109.954833984,-57674522.399902344,-45814888.00048828,-35439765.93017578,-31152004.24194336,-27885620.1171875,-29496547.69897461,3218186.378479004,-28436227.798461914,-35180717.46826172,-34633358.001708984,-25696420.669555664,-13309201.24053955,-18570888.51928711,86483.71696472168,14924258.2321167,14045593.26171875,11751128.196716309,-4013514.995574951,-13255737.3046875,-15524921.417236328,13889798.164367676,19434913.635253906,42435699.462890625,22188602.447509766,15770428.657531738,11582293.510437012,3721194.9825286865,46731952.66723633,-224970.66855430603,12453678.131103516,32830051.42211914,32401512.145996094,22102550.506591797,22359952.926635742,15017551.42211914,32555908.203125,56036697.38769531,32119609.832763672,35803596.49658203,58297885.89477539,55494163.513183594,46984905.24291992,45892875.67138672,49387638.092041016,69085899.35302734,52853546.142578125,53378532.40966797,55166038.513183594,48795864.10522461,47443164.82543945,55040161.1328125,52340179.443359375,64015716.552734375
0.07,-212928512.5732422,-254371093.75,-243507507.32421875,-137302795.41015625,-118992553.7109375,-60789478.30200195,-37934921.26464844,-62894241.33300781,-53859050.75073242,-56080501.556396484,-42954051.97143555,-31147579.193115234,-28921495.43762207,-24825130.462646484,-22438570.022583008,8808874.130249023,-26160894.3939209,-33850357.05566406,-33833282.470703125,-23608684.539794922,-11342525.482177734,-13009976.387023926,4084506.5116882324,18279001.235961914,17755914.68811035,15243740.08178711,-3146853.9237976074,-13296927.452087402,-15291932.106018066,17035562.51525879,22607372.283935547,47639244.079589844,24152301.788330078,17823961.25793457,13711334.228515625,3793543.3387756348,49933803.55834961,-1213963.270187378,13061831.4743042,33363399.505615234,34815376.28173828,25516527.17590332,25058244.705200195,17322059.631347656,35966407.775878906,60973789.21508789,32867427.825927734,35436737.060546875,59545082.092285156,58308193.20678711,51908153.53393555,50862327.575683594,51801872.25341797,73030738.8305664,54050609.58862305,54610340.1184082,56734058.38012695,51197998.046875,50037124.63378906,57067054.748535156,53533061.98120117,64350219.7265625
0.075,-215169677.734375,-260265899.65820312,-249653686.5234375,-136400131.22558594,-120839775.08544922,-57455329.89501953,-29617151.260375977,-59450725.55541992,-51930358.88671875,-55608280.181884766,-41520042.419433594,-28517026.901245117,-29271036.14807129,-27156087.87536621,-16395709.991455078,14098186.492919922,-23446361.541748047,-32301010.131835938,-33445728.302001953,-21690097.80883789,-10729626.655578613,-11450369.834899902,3577773.5710144043,21556280.1361084,21094121.9329834,18876064.30053711,-1695394.8736190796,-13219165.802001953,-15794282.913208008,20180988.311767578,23006721.49658203,48477756.50024414,24883615.493774414,19593059.539794922,16063659.66796875,4451519.012451172,52351856.23168945,-2102128.028869629,12754956.245422363,32308498.38256836,33259654.998779297,27340772.62878418,26562519.073486328,18928083.419799805,38595058.44116211,64448425.29296875,32752304.077148438,34085441.58935547,59058059.69238281,57981521.60644531,53897960.6628418,52855358.1237793,51050579.07104492,74704162.59765625,51923374.17602539,52503005.98144531,54343635.55908203,50370727.5390625,49467697.14355469,55639499.66430664,51403198.2421875,60705093.38378906
0.08,-230489898.68164062,-277105346.6796875,-266093139.6484375,-147603317.2607422,-131502456.66503906,-64925315.856933594,-40027023.31542969,-64557868.95751953,-54503993.98803711,-58954254.150390625,-45319435.119628906,-34143104.553222656,-34754959.10644531,-38220542.907714844,-25442443.84765625,10702870.36895752,-24499576.568603516,-33251262.664794922,-34442626.953125,-22690994.262695312,-12879123.68774414,-23719989.776611328,-6556711.673736572,18655498.504638672,18666799.545288086,19683286.666870117,-586798.7275123596,-13811573.028564453,-17598901.748657227,19638664.24560547,19009521.484375,39944866.18041992,21668910.98022461,18321359.634399414,16182416.915893555,5482177.734375,53369792.93823242,-2712058.0673217773,10620520.59173584,29618640.899658203,27295776.3671875,21893407.821655273,22773094.177246094,18138206.481933594,37714408.87451172,62908485.412597656,31724836.349487305,31863672.256469727,56586177.825927734,53643772.12524414,47541465.759277344,46561717.98706055,45313552.85644531,72094139.0991211,46455104.82788086,47021495.8190918,48824401.85546875,44573459.62524414,43791652.67944336,49137443.54248047,45792884.826660156,55496868.13354492
0.085,-249306777.95410156,-295464019.7753906,-284406188.96484375,-163128005.9814453,-144301635.7421875,-77891754.15039062,-59039623.26049805,-73850997.92480469,-60100902.55737305,-64370109.55810547,-51796276.0925293,-43808868.408203125,-41861427.307128906,-50771446.228027344,-41939567.56591797,2602026.7009735107,-28131875.99182129,-36047832.48901367,-36618984.22241211,-25779642.10510254,-16231304.168701172,-41338466.64428711,-18971069.3359375,12295351.9821167,13440688.133239746,18649227.142333984,-13613.061979413033,-14724475.860595703,-19557357.788085938,16668352.127075195,14198703.76586914,28879814.14794922,17290826.79748535,15698281.288146973,15007246.971130371,6421492.099761963,54268375.396728516,-3215859.4131469727,8073295.593261719,26853281.021118164,21122283.935546875,14074040.412902832,17769943.237304688,16778451.919555664,36015998.84033203,59931163.7878418,30989444.732666016,29950626.373291016,54014511.10839844,49525474.548339844,39610347.747802734,38700038.90991211,39745410.91918945,69622177.12402344,41808338.1652832,42373237.60986328,44468086.24267578,38920356.75048828,38155277.252197266,42405670.166015625,40907470.703125,52129760.7421875
0.09,-259505340.57617188,-305041839.5996094,-294507659.9121094,-171438735.96191406,-151135543.8232422,-86396888.73291016,-68568496.70410156,-79762306.2133789,-65037651.06201172,-68949737.54882812,-56351116.18041992,-49574768.06640625,-46574367.52319336,-57424636.84082031,-51092304.22973633,-1843534.5888137817,-31047430.03845215,-38748741.149902344,-39429733.27636719,-28567977.905273438,-18701938.62915039,-50458957.67211914,-24857316.970825195,8679183.006286621,10847531.31866455,18329399.10888672,85447.2815990448,-15498284.339904785,-20790349.96032715,14787316.32232666,12055637.35961914,23633190.155029297,15597104.0725708,14639079.093933105,14876800.537109375,7021102.9052734375,56387947.08251953,-3722277.6412963867,6679733.2763671875,25172401.428222656,18009315.490722656,10988173.484802246,16914693.83239746,17158140.182495117,37021259.30786133,60598030.09033203,31688549.041748047,29419336.318969727,53355636.59667969,48675971.98486328,38280521.392822266,37307025.90942383,39147369.384765625,71666328.43017578,41112628.93676758,41626739.501953125,43709724.42626953,38123100.28076172,37379211.42578125,39989891.052246094,40040744.78149414,51326492.30957031
0.095,-264351531.98242188,-309096893.3105469,-298631896.97265625,-174623031.61621094,-153709762.5732422,-90876243.5913086,-71051269.53125,-83218414.30664062,-68586585.99853516,-72252021.78955078,-58299186.70654297,-51047573.08959961,-49391380.310058594,-60079231.26220703,-54243175.5065918,-2923715.353012085,-33107986.450195312,-41060649.87182617,-42300914.7644043,-30346975.326538086,-20119646.072387695,-51650135.0402832,-26037681.579589844,7809488.296508789,10302816.390991211,18958343.505859375,-230103.35862636566,-16376920.700073242,-22046957.01599121,14315173.149108887,11579545.974731445,22523881.912231445,15596375.465393066,14604602.813720703,15796476.364135742,7490787.982940674,58912025.451660156,-4313512.802124023,5577441.215515137,23901691.436767578,16655519.485473633,10705610.275268555,18038726.806640625,18291028.97644043,38984691.61987305,63425140.380859375,32839454.650878906,29303882.598876953,53933952.33154297,48380641.93725586,40176609.03930664,39058609.00878906,40671459.19799805,75210044.86083984,41981643.67675781,42359024.04785156,44119575.50048828,39464248.65722656,38690387.72583008,39668258.66699219,40865188.59863281,51165599.82299805
0.1,-268462707.51953125,-311801055.9082031,-300915344.23828125,-176852798.46191406,-155244338.9892578,-93663848.87695312,-73211921.69189453,-86094856.26220703,-70607482.91015625,-74043418.88427734,-58517551.42211914,-50684791.564941406,-50452907.56225586,-61248180.3894043,-56926132.20214844,-3187946.7964172363,-34767219.54345703,-42823455.810546875,-43946498.87084961,-31184846.878051758,-20489013.671875,-51082221.98486328,-26046670.91369629,7273096.561431885,9882474.899291992,19807651.51977539,-579294.1451072693,-17159193.03894043,-23603311.53869629,14589701.652526855,11749011.993408203,22432792.66357422,15032476.425170898,14533832.550048828,16547386.169433594,7862885.95199585,60269573.21166992,-4861076.831817627,4274503.707885742,23243068.69506836,16176143.646240234,9554491.996765137,17492889.404296875,18358360.290527344,39177692.41333008,64843849.182128906,33070266.723632812,28626407.623291016,54782119.75097656,47646266.93725586,39962959.28955078,38847621.91772461,40521553.03955078,76018646.24023438,41842388.15307617,42171066.28417969,43915035.247802734,39398433.685302734,38462783.81347656,38970207.21435547,40781677.24609375,50872570.0378418
0.105,-263880981.4453125,-306768371.58203125,-296407775.87890625,-171462631.22558594,-151951354.98046875,-89312606.81152344,-65349822.998046875,-83232513.42773438,-69019905.09033203,-72638771.0571289,-56052947.998046875,-46488082.88574219,-47011730.1940918,-57256885.52856445,-52291152.95410156,1123637.1994018555,-33959709.16748047,-42602306.3659668,-43154487.60986328,-30369749.069213867,-18832042.694091797,-45904056.549072266,-21246788.024902344,8760105.13305664,12084587.097167969,21420120.239257812,-624382.3170661926,-16849016.189575195,-23972597.122192383,17349292.755126953,14617794.036865234,27205293.655395508,15221320.152282715,16080680.847167969,17311811.447143555,7589041.233062744,60733211.517333984,-4935926.43737793,4849299.907684326,25162321.090698242,18805671.69189453,11129021.644592285,17985698.699951172,18215538.024902344,39755615.234375,66468025.20751953,33108615.87524414,28610767.364501953,57041130.06591797,51173839.5690918,41950725.55541992,41037727.35595703,41306514.739990234,76545898.4375,42802837.37182617,43344242.095947266,45445121.76513672,40500984.19189453,39417881.01196289,41083431.243896484,41911151.88598633,51736656.188964844
0.11,-250636398.3154297,-295051330.56640625,-286342529.296875,-158871200.56152344,-144465118.40820312,-79669860.83984375,-47489727.02026367,-74955245.97167969,-64935096.740722656,-69202812.19482422,-52249389.6484375,-39985542.29736328,-41655754.08935547,-50340660.095214844,-40671798.70605469,8914055.824279785,-30996932.983398438,-40830078.125,-41020423.889160156,-28527791.97692871,-16321941.375732422,-37212409.97314453,-13473741.53137207,11725000.381469727,16409378.051757812,23138744.354248047,-905421.793460846,-15781137.466430664,-22869102.478027344,21853067.39807129,18976285.934448242,35123752.59399414,16542062.759399414,18810344.696044922,18088264.46533203,6450690.269470215,61547946.92993164,-4618165.493011475,7314178.943634033,28595966.339111328,23059408.18786621,16039081.573486328,21095928.192138672,18718927.38342285,42514251.708984375,69878730.77392578,33738071.44165039,29681112.28942871,60126998.90136719,58224540.71044922,48081958.77075195,47311061.85913086,44514766.693115234,79434883.11767578,45408931.732177734,46269687.65258789,48661720.275878906,43931060.791015625,42929714.20288086,46257808.685302734,44730838.775634766,53282791.13769531
0.115,-252133804.32128906,-297507415.7714844,-289385559.08203125,-160276062.01171875,-146196166.9921875,-83265342.71240234,-50381435.39428711,-75766128.54003906,-65338508.60595703,-69518730.16357422,-53260555.267333984,-42148544.31152344,-44404163.3605957,-54577392.578125,-45305561.06567383,6408427.2384643555,-31783699.03564453,-41406665.80200195,-40668758.392333984,-28858467.10205078,-17184406.280517578,-42371273.040771484,-17782705.307006836,8331789.970397949,14268720.626831055,21713155.74645996,-2270446.0620880127,-16385650.634765625,-23150405.883789062,21402688.98010254,17567325.592041016,31503520.965576172,14376493.453979492,17275915.145874023,16876190.185546875,5443510.055541992,62351848.60229492,-4937692.642211914,6654973.030090332,28043167.114257812,21368499.755859375,13193586.349487305,19569684.982299805,17570323.944091797,42611640.93017578,69807250.9765625,33130676.26953125,28771219.25354004,59390048.98071289,57393966.67480469,46334152.22167969,45432640.075683594,43191692.35229492,79333030.7006836,43669296.26464844,44625934.60083008,47357139.587402344,42579921.72241211,41810302.734375,45546981.81152344,42995967.864990234,52309886.93237305
0.12,-280831481.93359375,-324177673.33984375,-314323425.29296875,-186306350.7080078,-163446624.75585938,-107013366.69921875,-88516738.89160156,-92720405.57861328,-73394798.2788086,-76053565.9790039,-61192752.838134766,-56716770.17211914,-57119056.701660156,-73848533.6303711,-75769493.10302734,-11335350.99029541,-38987220.764160156,-46099502.56347656,-43270240.783691406,-32575386.04736328,-22380460.739135742,-68343727.1118164,-38855854.03442383,-3275300.5027770996,2880027.0557403564,16832052.23083496,-4173943.042755127,-19670837.40234375,-26484436.03515625,13186328.887939453,8622927.66571045,12029917.71697998,7396183.967590332,10015997.886657715,13336156.845092773,5715091.705322266,62042350.76904297,-6322147.369384766,554929.8524856567,22015398.025512695,12185123.443603516,-2157231.330871582,9547418.594360352,13733395.57647705,36593578.33862305,63054630.279541016,30166482.92541504,24362863.540649414,53507881.16455078,44578987.12158203,30481262.20703125,29346519.470214844,33704925.537109375,72361526.48925781,35100261.68823242,35897632.59887695,39376098.6328125,33017543.79272461,32335403.442382812,34900966.64428711,34109169.006347656,48337963.10424805
0.125,-302744476.3183594,-344071929.9316406,-332642730.7128906,-204993225.09765625,-175784210.20507812,-121390846.2524414,-112772972.1069336,-104425666.80908203,-79750503.54003906,-81322578.43017578,-66405807.49511719,-64973686.21826172,-63491542.81616211,-84773330.68847656,-92652191.16210938,-21053468.704223633,-43803573.60839844,-49631324.768066406,-45680934.90600586,-34911300.65917969,-25224779.12902832,-84440376.28173828,-51107791.900634766,-7600178.241729736,-2668122.2915649414,15158853.530883789,-4672758.102416992,-22343235.01586914,-28941398.62060547,7740922.451019287,4364517.688751221,1993099.6894836426,5187747.478485107,6908369.064331055,12206185.340881348,6767729.28237915,61808647.15576172,-7089913.845062256,-3295840.02494812,18924402.236938477,8009402.275085449,-10413690.567016602,4289388.656616211,12452091.217041016,33026016.235351562,59858230.59082031,28863365.173339844,21953720.092773438,50705238.342285156,37313205.71899414,21769950.86669922,20624362.94555664,28746397.018432617,68954689.0258789,30569145.20263672,31264158.248901367,35177032.470703125,28070285.79711914,27272275.924682617,28746973.037719727,29298511.505126953,46640682.220458984
0.13,-274388824.4628906,-318647460.9375,-309044342.0410156,-176571426.39160156,-158333496.09375,-94065132.14111328,-64959899.90234375,-85005737.3046875,-72858345.03173828,-76242454.5288086,-58060894.01245117,-46451660.15625,-48247547.1496582,-63697154.9987793,-52100307.46459961,2472588.539123535,-35853168.48754883,-45642055.51147461,-44195224.76196289,-30423528.67126465,-19082035.064697266,-55698162.07885742,-27751846.313476562,10323021.88873291,13274531.364440918,22805137.634277344,-2827958.583831787,-20497512.817382812,-25475864.41040039,17420141.220092773,16708131.790161133,27268619.537353516,17117923.736572266,17809989.92919922,18055698.39477539,6986151.695251465,64258102.41699219,-5267251.014709473,4023328.7811279297,27100603.103637695,20386718.75,10553700.44708252,19446203.231811523,19442588.806152344,43393333.435058594,72826599.12109375,34162376.403808594,27998880.38635254,59428218.841552734,54113872.52807617,45366180.419921875,44458560.943603516,43219997.40600586,82690124.51171875,42066772.4609375,42899734.49707031,45684486.389160156,42430187.2253418,41593502.044677734,43636978.14941406,41022315.979003906,51730533.599853516
0.135,-211407150.2685547,-262186462.40234375,-256849975.5859375,-116665931.70166016,-121196342.46826172,-42495887.756347656,27580230.712890625,-45511550.90332031,-56747669.2199707,-64040107.72705078,-41228801.72729492,-12263396.263122559,-22046888.35144043,-25336967.46826172,21217763.900756836,45202911.376953125,-19700185.775756836,-36591274.26147461,-39990318.298339844,-21739526.748657227,-8131848.335266113,-236875.20623207092,15442903.518676758,39262573.2421875,41006572.72338867,35347541.80908203,-143269.30046081543,-15618447.303771973,-18230581.283569336,36566402.435302734,37514991.760253906,71511398.31542969,36037200.927734375,36314231.872558594,27707666.397094727,6211893.081665039,69084892.27294922,-1838420.1526641846,17910079.956054688,41172466.27807617,40750438.69018555,49037517.54760742,46963455.20019531,31190380.096435547,63165534.97314453,95698295.59326172,43542762.756347656,39094486.236572266,74471389.77050781,84286155.7006836,88616317.74902344,87920394.89746094,69485809.32617188,107481986.99951172,62867530.822753906,63890865.325927734,64396064.75830078,68299507.14111328,67690979.00390625,71305061.34033203,62438110.3515625,60189899.44458008
0.14,-180997497.55859375,-234814834.59472656,-231573562.6220703,-87960426.3305664,-103951690.67382812,-20792530.059814453,69579803.46679688,-26984556.198120117,-48903064.7277832,-58506896.97265625,-33791091.91894531,2433561.8019104004,-12099722.862243652,-10662123.680114746,51712787.62817383,64341598.51074219,-11844950.675964355,-32257537.841796875,-38393440.24658203,-18011482.23876953,-4042465.6867980957,22237854.00390625,32585334.77783203,51066524.505615234,53288333.892822266,41670539.85595703,1212512.9699707031,-13497769.355773926,-15319299.697875977,45227001.19018555,45616123.19946289,89360969.54345703,44199653.62548828,45212100.982666016,32993789.672851562,6417973.518371582,72466331.4819336,-131449.93782043457,23554368.97277832,46882789.611816406,48491165.16113281,67668495.17822266,60523918.15185547,37591632.84301758,73936737.06054688,107056953.43017578,48433704.3762207,44267150.87890625,81321144.1040039,97116172.79052734,109383796.69189453,108698539.73388672,82543106.07910156,120766708.37402344,72613883.97216797,73653129.57763672,72926475.52490234,80981956.4819336,80663688.65966797,84734359.74121094,72531661.98730469,64397163.39111328
0.145,-216788345.33691406,-267060913.0859375,-261372009.27734375,-120794113.15917969,-125851097.1069336,-50550304.4128418,19622945.78552246,-48296634.674072266,-58459873.19946289,-66817092.89550781,-44162567.138671875,-17199598.31237793,-27634092.330932617,-34508003.23486328,9610754.013061523,42765899.658203125,-19948631.286621094,-37517177.58178711,-42254508.97216797,-23450172.424316406,-11096263.885498047,-13626050.94909668,6375653.7437438965,36415351.86767578,40028347.01538086,37814163.20800781,868394.672870636,-16573953.628540039,-20201795.57800293,35008022.30834961,34170597.076416016,64539436.34033203,35675243.37768555,38261180.87768555,31029388.427734375,8956594.467163086,71998817.44384766,-1450276.7324447632,15321138.381958008,39571262.35961914,37496055.603027344,50505645.751953125,49082015.99121094,34674915.3137207,66967613.220214844,97771423.33984375,45174057.00683594,39155345.91674805,74818084.71679688,81552536.01074219,89807106.0180664,89030784.6069336,71743293.76220703,112222404.47998047,63263637.54272461,64208145.14160156,64523269.65332031,70243545.53222656,69966979.98046875,72575859.06982422,62884742.736816406,61932968.13964844
0.15,-276663909.9121094,-321520294.1894531,-311797973.6328125,-175520614.62402344,-161762847.90039062,-95589286.80419922,-59719226.8371582,-83571296.69189453,-75056358.33740234,-80513816.8334961,-60725467.681884766,-47521270.751953125,-49497806.549072266,-68304725.64697266,-53692359.924316406,8601813.316345215,-34031265.25878906,-46563999.17602539,-48178508.75854492,-31844779.96826172,-20771968.841552734,-67473960.87646484,-31682088.85192871,14624161.720275879,19189765.93017578,30764850.616455078,-34491.81467294693,-20744462.966918945,-26985427.856445312,19690315.24658203,18678836.822509766,28587734.22241211,22071350.09765625,26287200.927734375,26673240.661621094,12217975.616455078,69769035.33935547,-3354660.0341796875,3786999.7024536133,29305423.736572266,22323551.177978516,20566301.345825195,29094854.3548584,28434812.545776367,53490722.65625,81750518.79882812,39324581.146240234,31111387.252807617,64652473.44970703,58239242.55371094,56785732.26928711,55943538.665771484,52402591.705322266,95633796.69189453,47742752.07519531,48672157.287597656,50968791.96166992,51310798.64501953,50839572.90649414,51512119.29321289,46767024.993896484,56721775.05493164
0.155,-302739105.2246094,-345179809.5703125,-334132934.5703125,-199337814.3310547,-177336410.52246094,-115138473.51074219,-93567733.76464844,-100050140.38085938,-83255592.3461914,-86791862.48779297,-67550300.59814453,-59865966.796875,-57672935.485839844,-81479156.49414062,-81165557.86132812,-6596118.450164795,-41288093.56689453,-51150238.037109375,-50644958.49609375,-34803947.44873047,-23503318.786621094,-91276489.2578125,-47297363.28125,4446025.848388672,9433888.43536377,27473526.000976562,-848810.0171089172,-21344926.834106445,-28687625.885009766,15156013.488769531,14424664.497375488,14483597.755432129,14368994.71282959,20006109.2376709,24243974.685668945,13368002.891540527,68880996.70410156,-3315466.88079834,110194.58621740341,25755130.767822266,16304477.69165039,4451181.411743164,18793823.2421875,24863668.44177246,47167873.38256836,74640480.0415039,37004325.86669922,27887765.884399414,60337974.548339844,48158905.029296875,40865345.0012207,39952838.89770508,41711612.701416016,87251235.96191406,39743358.61206055,40748310.08911133,44097587.58544922,40891559.60083008,40256175.99487305,40195304.87060547,38412357.330322266,51882900.23803711
0.16,-293310058.59375,-335187866.2109375,-325629394.53125,-191412536.62109375,-170973144.53125,-112933898.92578125,-86087890.625,-97808731.07910156,-80963577.27050781,-83746627.80761719,-63475296.02050781,-55073642.73071289,-54884819.03076172,-78084030.15136719,-78883178.7109375,-5511383.056640625,-41298896.78955078,-50294509.88769531,-48528018.951416016,-31897226.333618164,-20352224.349975586,-87834060.66894531,-44457351.68457031,2255152.702331543,8026301.383972168,26683080.673217773,-1810201.1680603027,-19227979.66003418,-26142976.760864258,19378740.310668945,17890625.0,17144712.448120117,10542790.412902832,17609954.833984375,22447435.37902832,11974381.446838379,69146797.18017578,-2164012.4320983887,1989079.1177749634,26513172.149658203,16084831.237792969,919504.6424865723,16214025.497436523,22883155.822753906,47024093.62792969,74442863.46435547,37124076.84326172,27947151.18408203,59733409.8815918,47705844.87915039,39226486.20605469,38198387.145996094,38129619.59838867,85745651.24511719,37320453.64379883,38374412.536621094,41823493.95751953,37239955.90209961,36583133.697509766,36945842.74291992,35978744.50683594,46943870.544433594
0.165,-290422363.28125,-330666595.4589844,-321555053.7109375,-189222717.28515625,-167119842.52929688,-117255500.79345703,-89074203.49121094,-98769157.40966797,-78149368.28613281,-80098716.73583984,-59853370.666503906,-53512519.83642578,-55760898.59008789,-80508056.640625,-86065025.32958984,-8852955.81817627,-41822956.08520508,-49086238.861083984,-45810680.3894043,-29515720.36743164,-19184885.025024414,-90924980.16357422,-47316295.6237793,-3770075.559616089,3156924.9629974365,24141683.57849121,-2796649.694442749,-18423433.303833008,-25260374.069213867,19902576.446533203,16892162.322998047,13050969.123840332,4991483.688354492,13245229.721069336,19195182.80029297,10453737.258911133,68324859.61914062,-2374935.3885650635,610051.6319274902,24324691.772460938,12405720.710754395,-5082010.746002197,10556126.594543457,19550630.569458008,44428070.068359375,70656364.44091797,35355777.740478516,25727224.349975586,56380641.93725586,42841739.654541016,32681358.337402344,31572534.561157227,31903179.168701172,81215538.02490234,32165256.50024414,33221523.28491211,36946308.13598633,30869455.337524414,30167560.577392578,30902374.267578125,30898513.793945312,42124473.571777344
0.17,-312564483.6425781,-350837554.9316406,-338943450.9277344,-208149124.1455078,-177558273.3154297,-134137176.51367188,-116851524.35302734,-110562019.34814453,-81210449.21875,-82049140.93017578,-63318401.33666992,-62655532.83691406,-63169719.69604492,-93425262.45117188,-109872619.62890625,-20406509.399414062,-45552860.260009766,-50566661.8347168,-45933395.38574219,-31526548.385620117,-22821975.708007812,-110305168.15185547,-60898262.02392578,-12635727.882385254,-5221122.741699219,20429656.982421875,-3013410.0914001465,-19838924.407958984,-28039480.209350586,13504347.801208496,9762717.247009277,-1446003.794670105,-273504.8532485962,8279770.851135254,16371217.727661133,10763347.625732422,66119110.107421875,-4286581.993103027,-5124804.496765137,18857946.395874023,5379874.229431152,-15111573.219299316,2029713.1538391113,16291778.564453125,38510322.57080078,62534049.98779297,31596237.182617188,21006038.665771484,50536842.346191406,32636035.919189453,19406705.856323242,18323730.46875,23290231.704711914,73147514.34326172,24537437.438964844,25607727.05078125,29968088.150024414,22268939.971923828,21365060.806274414,21806541.442871094,23276529.31213379,39674930.572509766
0.175,-327542175.29296875,-364482238.76953125,-350015258.7890625,-220995895.3857422,-184967834.47265625,-142693145.75195312,-134636764.5263672,-118026023.8647461,-84593620.30029297,-84905570.98388672,-67261810.30273438,-69217979.43115234,-65809677.12402344,-100707458.49609375,-123646484.375,-26000867.84362793,-47290996.55151367,-52018898.010253906,-46998584.74731445,-34458084.10644531,-25858217.239379883,-124388290.40527344,-69352066.04003906,-15247364.99786377,-8117638.58795166,19488685.607910156,-1982577.919960022,-20450735.092163086,-30535671.23413086,8517174.72076416,5150499.8207092285,-10934599.876403809,-903809.1897964478,7363487.720489502,16574750.900268555,12014286.041259766,64396873.474121094,-6036052.703857422,-8946126.937866211,15144413.948059082,1122665.4052734375,-19805074.69177246,-1507072.0911026,15723494.529724121,35386119.8425293,57787994.384765625,28942157.745361328,17596229.553222656,46617919.921875,26068649.291992188,12329642.295837402,11309408.187866211,19031511.306762695,68472068.7866211,19956054.6875,21042570.114135742,25592639.923095703,18034305.572509766,16911823.272705078,16771532.05871582,18708549.49951172,38998718.26171875
0.18,-291486389.16015625,-323674804.6875,-313017822.265625,-193811447.1435547,-164224914.55078125,-126353965.75927734,-114545295.71533203,-105134490.96679688,-77688697.8149414,-78428924.56054688,-60178279.876708984,-58992614.74609375,-54312911.98730469,-89968917.84667969,-112359947.20458984,-17103157.04345703,-41621364.59350586,-48554893.493652344,-43676689.14794922,-31955472.946166992,-22135292.053222656,-117142074.58496094,-62865787.506103516,-10599811.553955078,-2917318.820953369,22700603.485107422,124314.02504444122,-18034587.860107422,-28952497.482299805,11082616.806030273,7874690.532684326,-8201016.426086426,704533.3981513977,9706075.668334961,18677434.92126465,12098707.19909668,63996578.216552734,-6568230.628967285,-8163251.876831055,14684961.318969727,329957.2169780731,-17910608.291625977,438389.77813720703,16390783.309936523,36682800.29296875,58832164.7644043,27758640.28930664,16153247.833251953,44691421.50878906,24984655.380249023,14451113.7008667,13442992.210388184,18395126.342773438,68133262.63427734,17765943.52722168,18840530.395507812,22891561.50817871,17225814.819335938,16100637.435913086,15467250.82397461,16616344.451904297,34920417.78564453
0.185,-199735931.39648438,-218541870.1171875,-219829818.72558594,-125438858.03222656,-111473709.10644531,-91170951.84326172,-68408828.73535156,-73435516.35742188,-57216331.481933594,-58853740.69213867,-38972320.556640625,-33353176.11694336,-31437437.057495117,-66153045.654296875,-89783485.41259766,-61058.98693203926,-28946371.07849121,-38647506.71386719,-33679470.06225586,-22065736.770629883,-11720782.279968262,-97788375.85449219,-48792453.76586914,-6007340.431213379,4376879.2152404785,28049236.297607422,3099730.7300567627,-13895285.606384277,-24190822.60131836,17885293.96057129,13747167.587280273,-2167546.7491149902,-1030188.4412765503,10981830.596923828,19815353.393554688,10733712.196350098,63592685.69946289,-6769242.286682129,-6861773.0140686035,14231583.595275879,-1612433.4335327148,-17695735.931396484,718019.6642875671,14951086.044311523,37444244.384765625,60110198.974609375,25279045.10498047,13659919.738769531,40889278.411865234,22675941.467285156,15211819.648742676,14214094.161987305,13830292.701721191,65994682.31201172,12112571.716308594,13218579.292297363,16755508.422851562,12396109.580993652,11489261.627197266,10226840.97290039,11080962.181091309,23754251.48010254
0.19,-97918022.15576172,-96469497.68066406,-111677162.17041016,-51905841.82739258,-51503089.904785156,-58893402.099609375,-31346721.649169922,-41149574.279785156,-32660949.70703125,-34831077.575683594,-13583893.775939941,-7339063.1675720215,-8863198.280334473,-44596858.978271484,-78423843.38378906,12625718.116760254,-15566035.270690918,-26613494.873046875,-21277692.794799805,-9681688.30871582,-545041.1438941956,-86252273.55957031,-40473274.23095703,-7014492.034912109,7357346.057891846,32630001.068115234,6511080.741882324,-10732157.707214355,-20032258.987426758,21868745.803833008,16401388.168334961,-3828846.216201782,-7224880.695343018,9357197.761535645,18956365.58532715,9610193.252563477,61800033.56933594,-7706233.978271484,-9232826.232910156,11149727.821350098,-7262326.240539551,-25088026.04675293,-5225864.887237549,10700210.571289062,33455001.831054688,56550662.994384766,20090669.631958008,8358332.633972168,33539447.784423828,14412905.6930542,6155780.31539917,5253065.10925293,1816359.281539917,58103389.739990234,911592.1258926392,2155338.764190674,5760122.299194336,292945.4743862152,-408795.2971458435,-2810541.868209839,-128387.13824748993,8424187.660217285
0.195,-44372344.970703125,-24583393.096923828,-46777912.13989258,-16123670.57800293,-17414146.423339844,-50514472.96142578,-30488311.767578125,-28365417.48046875,-18741571.4263916,-20254659.65270996,1406996.6077804565,3641826.868057251,1755917.9067611694,-38312725.06713867,-89822235.10742188,11676415.44342041,-9412521.362304688,-19588207.244873047,-13409250.259399414,-2020793.6763763428,5118598.461151123,-92962234.49707031,-45113964.08081055,-14442591.667175293,3153028.4881591797,33759643.5546875,8948557.85369873,-9735599.517822266,-18932035.446166992,19799665.451049805,13570781.707763672,-15641514.778137207,-15608426.094055176,5044224.739074707,16246994.018554688,9719160.079956055,58932571.41113281,-9110208.511352539,-14738452.911376953,5839640.140533447,-15303724.28894043,-39487949.37133789,-16089694.97680664,5066071.510314941,25339000.701904297,48515876.77001953,14023548.126220703,1611449.2416381836,24735498.428344727,1574383.7356567383,-11197183.609008789,-11972754.47845459,-13924746.5133667,46523216.247558594,-12118418.69354248,-10760215.759277344,-6503047.466278076,-15311676.025390625,-15989398.956298828,-19883663.177490234,-13388814.926147461,-4569057.464599609
0.2,-58216754.91333008,-29757480.62133789,-49206737.51831055,-30054210.662841797,-21311946.868896484,-70224281.31103516,-64016571.044921875,-39636466.97998047,-21258142.471313477,-20738197.326660156,299887.3293399811,-3359954.595565796,-3023757.219314575,-48923614.501953125,-118532440.18554688,-3112493.7534332275,-13500508.308410645,-20880233.764648438,-12760447.50213623,-1773393.8694000244,3817480.0872802734,-112305908.203125,-59642196.65527344,-26450372.69592285,-7457604.40826416,30087600.708007812,8760629.653930664,-10294574.737548828,-20268510.818481445,13989472.389221191,7532965.660095215,-31801736.83166504,-24742258.071899414,-1957614.4218444824,11599221.229553223,9902544.021606445,56354373.931884766,-9863057.136535645,-19983505.249023438,275104.0458679199,-23076766.967773438,-56511466.97998047,-28052692.413330078,-773012.638092041,16735095.977783203,39940559.38720703,9915382.385253906,-4098603.2485961914,17715837.478637695,-11136154.174804688,-29400115.966796875,-30136564.254760742,-27386110.305786133,35993515.01464844,-22113790.51208496,-20858720.779418945,-15633024.215698242,-28626575.469970703,-29359424.591064453,-34338760.37597656,-23755773.544311523,-11297749.519348145
0.205,-104833595.2758789,-78754669.18945312,-91305122.37548828,-65114700.31738281,-45457965.85083008,-98879287.71972656,-99658836.3647461,-58717761.9934082,-31716072.08251953,-29061405.181884766,-9290246.00982666,-16484493.255615234,-15633093.83392334,-64752662.658691406,-143155456.54296875,-19616695.404052734,-22196489.334106445,-26517387.39013672,-16077407.836914062,-5223568.439483643,-530020.7138061523,-127488677.97851562,-71888343.81103516,-37030181.884765625,-18049407.958984375,24168270.111083984,6096488.952636719,-11184395.790100098,-21622776.03149414,9898437.5,3227259.874343872,-41294433.59375,-32111164.093017578,-8967646.598815918,6685973.644256592,8775417.32788086,55099967.95654297,-9168275.833129883,-21972459.79309082,-2748168.706893921,-26768196.10595703,-67685417.17529297,-35386310.57739258,-4851038.932800293,12469841.957092285,36073432.92236328,9559146.881103516,-6399840.831756592,15609582.901000977,-17004907.608032227,-38513587.951660156,-39285984.03930664,-33118942.260742188,31653030.395507812,-25328067.779541016,-24342432.022094727,-18259080.88684082,-34402622.22290039,-35058414.459228516,-39941101.07421875,-27212594.985961914,-11783127.784729004
0.21,-140483947.75390625,-124169677.734375,-132231109.61914062,-87705505.37109375,-66344802.85644531,-113047195.43457031,-107160804.74853516,-67284759.52148438,-38968044.28100586,-35842227.935791016,-17247507.095336914,-23089534.759521484,-25614593.505859375,-72837196.35009766,-144802108.76464844,-23919603.34777832,-27316705.70373535,-30409830.09338379,-19408418.655395508,-7787397.384643555,-3635135.4122161865,-126724754.3334961,-71776054.38232422,-38814601.89819336,-20454090.118408203,21112342.834472656,3155855.894088745,-11657434.463500977,-21526231.76574707,11047139.167785645,4206483.840942383,-36580726.623535156,-33284267.42553711,-10423779.487609863,5304649.829864502,7175551.414489746,55189746.85668945,-7209324.359893799,-20053131.103515625,-980287.7902984619,-23096895.217895508,-65131095.88623047,-33100337.982177734,-4318801.403045654,15670676.231384277,39874050.14038086,12779530.52520752,-4106383.3236694336,19788803.100585938,-11506928.443908691,-32342266.082763672,-33089046.478271484,-28616085.052490234,36182834.62524414,-20427097.32055664,-19598293.30444336,-13240150.451660156,-30095449.447631836,-30529235.83984375,-34087982.177734375,-22228645.32470703,-7678247.451782227
0.215,-163989440.91796875,-159249114.99023438,-165307022.09472656,-100422592.16308594,-82805122.37548828,-114553047.18017578,-98721916.19873047,-68773849.48730469,-43456012.72583008,-41383201.599121094,-23588960.647583008,-26121305.465698242,-31901287.078857422,-75677429.19921875,-133708511.35253906,-19224975.5859375,-28547992.706298828,-32166851.043701172,-22817680.35888672,-9893985.748291016,-6037938.117980957,-119751968.38378906,-65846382.14111328,-33435111.99951172,-15864752.769470215,22315473.556518555,1762334.1083526611,-12161522.86529541,-21245609.283447266,14249342.918395996,7736528.396606445,-25378036.499023438,-28455402.374267578,-5544587.6121521,8596585.273742676,7396133.4228515625,55588016.510009766,-5249090.194702148,-17145467.75817871,3747343.7786102295,-14951709.747314453,-53650279.9987793,-24752517.700195312,276444.673538208,22869331.35986328,46816745.75805664,16683826.446533203,380636.7516517639,26498477.935791016,-426617.47336387634,-18874605.178833008,-19496656.41784668,-19156278.610229492,44590229.03442383,-11980860.710144043,-11055969.23828125,-4852031.230926514,-20747356.414794922,-21036247.25341797,-22911060.333251953,-13536727.905273438,-1226677.2985458374
0.22,-204309432.98339844,-208032852.17285156,-210375717.16308594,-130291763.30566406,-109114028.93066406,-126369796.75292969,-114324012.75634766,-81555450.43945312,-53521354.67529297,-51881904.60205078,-35043632.50732422,-38344215.393066406,-41767215.728759766,-87171676.63574219,-140218368.53027344,-23165092.46826172,-32788211.822509766,-36223785.400390625,-28288566.58935547,-14814133.644104004,-11206404.685974121,-127840881.34765625,-70986824.03564453,-32009593.963623047,-15245010.375976562,23488759.994506836,1487259.030342102,-13857852.935791016,-23087179.18395996,12695664.405822754,7028132.915496826,-24925886.154174805,-24918148.040771484,-1440056.4432144165,12378618.240356445,9956948.280334473,55050373.07739258,-4761899.471282959,-17646488.189697266,5865024.089813232,-10850891.11328125,-49128982.54394531,-21506706.23779297,3664425.1346588135,25681077.95715332,47797573.08959961,17416196.823120117,2046104.4311523438,28707962.036132812,3245918.2739257812,-15666141.510009766,-16213560.104370117,-15295148.849487305,46809272.76611328,-8524712.562561035,-7422599.315643311,-921900.21276474,-16719331.741333008,-17102930.068969727,-17947528.839111328,-10014067.649841309,4706360.340118408
0.225,-261549530.02929688,-269478118.8964844,-265780364.99023438,-177368377.68554688,-143473342.8955078,-153452850.34179688,-157412658.69140625,-106725898.74267578,-69022323.60839844,-66170982.360839844,-50691623.68774414,-59183391.57104492,-56183761.59667969,-108263740.53955078,-168118927.00195312,-39704868.31665039,-41782176.97143555,-43297637.939453125,-34799762.72583008,-21661314.010620117,-18609321.59423828,-151119934.08203125,-88182121.27685547,-38646755.21850586,-22749357.223510742,21510299.682617188,816823.4825134277,-16723514.556884766,-26609922.409057617,6052494.049072266,1147279.2625427246,-37461708.068847656,-26984981.536865234,-3015344.6197509766,12641109.466552734,12448851.585388184,53660514.83154297,-5708809.852600098,-21642683.029174805,3155439.615249634,-14008238.792419434,-56438304.90112305,-26839925.76599121,2648101.568222046,21732789.993286133,41690914.154052734,14906949.043273926,-449874.52030181885,24945018.768310547,-3245690.34576416,-25920295.71533203,-26582775.115966797,-19527042.388916016,41053470.611572266,-12011084.55657959,-10860778.80859375,-3361573.2192993164,-20600234.985351562,-21188442.23022461,-21814971.923828125,-13623824.119567871,8358398.4375
0.23,-295268676.7578125,-306501342.7734375,-298813171.38671875,-204794219.97070312,-163168563.84277344,-169396530.1513672,-179554412.84179688,-121074119.5678711,-78605453.49121094,-74637741.08886719,-59994251.2512207,-70615730.28564453,-65097846.98486328,-120366638.18359375,-181590042.1142578,-49035961.15112305,-47656764.98413086,-47950248.71826172,-38689327.239990234,-25009172.439575195,-22696968.07861328,-162466064.453125,-96599830.6274414,-42247833.251953125,-27457036.9720459,19466697.692871094,-656417.8466796875,-18833900.451660156,-28325256.34765625,2734611.2728118896,-2030319.9291229248,-43579437.255859375,-28565599.44152832,-4936074.256896973,11258463.859558105,12380954.74243164,52927997.58911133,-6110682.487487793,-23546123.504638672,606895.8640098572,-16821775.436401367,-59768013.00048828,-29533557.891845703,1222550.0345230103,19272714.614868164,39100570.67871094,14016039.848327637,-2090390.2053833008,22415029.525756836,-6414703.369140625,-30340309.143066406,-31230831.146240234,-21080051.42211914,38603393.5546875,-13622066.497802734,-12516220.092773438,-4504331.111907959,-21959247.589111328,-22605163.57421875,-23163858.41369629,-15185444.831848145,10864246.368408203
0.235,-284344909.66796875,-300894439.6972656,-293682159.4238281,-192878662.109375,-157828262.32910156,-156592376.70898438,-152202239.99023438,-111580429.07714844,-76530632.01904297,-73232627.86865234,-58041164.39819336,-63213062.28637695,-62573860.16845703,-112412368.77441406,-158463394.16503906,-37642063.14086914,-45111717.224121094,-46931713.10424805,-38885208.12988281,-22756046.295166016,-20703039.169311523,-146672378.54003906,-84279823.30322266,-33890651.70288086,-20375181.198120117,21039926.528930664,-2089767.4560546875,-18752182.006835938,-26415811.53869629,7942531.585693359,2851307.3921203613,-30683807.373046875,-22913824.0814209,-551772.2368240356,12304895.401000977,10331484.7946167,53513950.34790039,-4337672.233581543,-19676149.368286133,3285784.959793091,-11955018.043518066,-46460372.92480469,-20450080.87158203,4421839.714050293,25136909.48486328,47255722.04589844,18156656.26525879,1375328.3023834229,26949155.807495117,3829986.333847046,-14980702.40020752,-15986718.17779541,-11252464.294433594,47971927.642822266,-6068579.67376709,-4930356.979370117,2119581.937789917,-12284290.313720703,-12799159.049987793,-12963419.914245605,-7269246.578216553,14702523.231506348
0.24,-265292663.57421875,-286645263.671875,-280704559.3261719,-174474029.54101562,-148705230.71289062,-138819595.33691406,-119448425.29296875,-98952888.48876953,-72663764.95361328,-70498847.96142578,-54218788.146972656,-53226539.611816406,-58115367.8894043,-101174102.78320312,-131715774.53613281,-23569528.579711914,-41189929.9621582,-45028560.638427734,-38623397.82714844,-20034370.42236328,-17541431.427001953,-128478591.91894531,-70351577.75878906,-23826963.424682617,-11299339.294433594,23355749.130249023,-2852190.0177001953,-17856388.092041016,-23813293.45703125,14436185.836791992,9273357.391357422,-15621994.972229004,-15143759.727478027,5800802.230834961,14790830.612182617,9105437.278747559,53686752.31933594,-1430773.0197906494,-14623884.201049805,8143735.885620117,-4303539.752960205,-30012077.33154297,-9154355.0491333,9661865.234375,32791412.353515625,57077911.376953125,23579477.310180664,6307175.159454346,33626499.17602539,16683242.797851562,3840666.2940979004,2942931.1752319336,1461819.1719055176,59958377.838134766,4100625.514984131,5354026.317596436,11084733.963012695,185035.5565547943,-233387.3063325882,55684.37650799751,3172348.2608795166,19989204.40673828
0.245,-282195434.5703125,-303195770.2636719,-294906524.6582031,-189879714.9658203,-159437759.39941406,-149107254.0283203,-138818801.8798828,-108881088.25683594,-78267578.125,-75302467.3461914,-58972095.48950195,-60422664.642333984,-63630897.521972656,-108830192.56591797,-145537170.41015625,-32200431.82373047,-45378055.572509766,-48158603.66821289,-40667171.478271484,-22103803.634643555,-19175056.45751953,-139682723.99902344,-79165946.96044922,-27808475.494384766,-15705447.19696045,21026096.34399414,-3105499.744415283,-18461046.21887207,-24266996.383666992,12153279.304504395,7729969.9783325195,-21973472.595214844,-15623147.010803223,4655670.642852783,14180578.231811523,10093083.381652832,51519912.71972656,123187.3407959938,-15371069.90814209,8261042.594909668,-4115022.1824645996,-32412361.14501953,-11462094.3069458,10144260.40649414,30917165.756225586,54867309.5703125,23891098.022460938,6082402.70614624,33515945.434570312,14748954.772949219,593647.5992202759,-115480.2218079567,1890686.5119934082,59067790.98510742,4653491.020202637,5928778.648376465,11954739.570617676,669903.3975601196,139958.41145515442,504989.8624420166,3509542.70362854,23715862.274169922
0.25,-322189788.8183594,-338534698.4863281,-325619232.1777344,-227286468.50585938,-181369171.14257812,-179565643.31054688,-194516403.1982422,-133121871.94824219,-88939254.76074219,-83664787.29248047,-68253730.77392578,-78545715.33203125,-75196121.21582031,-129722259.52148438,-188214004.51660156,-57253684.997558594,-54782737.731933594,-54155067.443847656,-43269096.37451172,-26579870.223999023,-23948051.45263672,-171307907.1044922,-103179588.3178711,-42315696.716308594,-30459882.736206055,15178574.562072754,-3167422.294616699,-20183397.29309082,-26895082.473754883,3277394.2947387695,184279.4120311737,-44166450.50048828,-23643930.435180664,-3147608.0417633057,10194061.279296875,11784647.941589355,47938884.73510742,-310892.5223350525,-21046514.5111084,3397634.983062744,-11355955.123901367,-50719623.56567383,-25297304.153442383,5462305.068969727,20717510.223388672,42603561.40136719,19024555.206298828,1122346.9972610474,26894298.553466797,-119571.72304391861,-21383789.0625,-22058742.52319336,-9766132.354736328,46075805.6640625,-4698769.569396973,-3595822.57270813,4238740.44418335,-10643723.487854004,-11388438.22479248,-11306198.120117188,-6325939.655303955,23224449.157714844
0.255,-337529510.4980469,-350972412.109375,-335926696.77734375,-242239379.8828125,-187990997.31445312,-193366317.74902344,-220563354.4921875,-142173828.125,-91632171.63085938,-85247261.04736328,-70162620.5444336,-85040206.90917969,-79129142.76123047,-138974273.68164062,-208936279.296875,-69650863.64746094,-58402008.056640625,-56029689.78881836,-42992668.15185547,-27130437.85095215,-25412597.65625,-186505279.54101562,-113782096.86279297,-49134616.85180664,-37959781.646728516,12131163.597106934,-3185879.707336426,-20518161.77368164,-27721996.307373047,-1041721.7016220093,-3020350.933074951,-55547950.744628906,-28160673.141479492,-7256860.733032227,7572602.74887085,12136774.063110352,45637496.94824219,-956248.0449676514,-24366521.83532715,61131.69714808464,-16116458.892822266,-61245166.77856445,-33589954.3762207,2187026.023864746,14311058.99810791,34927776.33666992,15048588.752746582,-2012911.5581512451,22324346.5423584,-9934992.790222168,-34767791.748046875,-35607902.52685547,-18464715.9576416,36698741.9128418,-12316967.964172363,-11454634.666442871,-2422034.978866577,-19096689.224243164,-19954092.025756836,-20258501.052856445,-14149311.065673828,19654436.111450195
0.26,-319078063.96484375,-334110992.4316406,-320518371.58203125,-225619689.94140625,-176024124.1455078,-180778823.85253906,-199697204.58984375,-130182113.64746094,-84793762.20703125,-79307708.74023438,-63545822.14355469,-75442077.63671875,-73176582.33642578,-130172424.31640625,-194111190.79589844,-61408039.09301758,-54056354.52270508,-52675792.6940918,-39949108.1237793,-23073688.507080078,-22321624.755859375,-175653549.19433594,-104140602.1118164,-43089836.12060547,-33055278.778076172,13468902.587890625,-3438119.888305664,-18992918.014526367,-25860294.342041016,2433619.976043701,811793.2081222534,-48463241.57714844,-24954553.604125977,-4131871.7002868652,8393197.059631348,11123181.343078613,45150630.950927734,-464744.7466850281,-22717048.64501953,1221706.2711715698,-13938876.152038574,-55417167.66357422,-30242341.995239258,3457291.3646698,16271001.815795898,37159534.4543457,15103684.425354004,-1092050.313949585,23437389.373779297,-7471327.304840088,-29227882.385253906,-30235918.045043945,-16697301.864624023,38196475.982666016,-11996280.670166016,-11229981.422424316,-2578884.6015930176,-17347156.524658203,-18202854.15649414,-18911241.53137207,-13642409.324645996,16885803.22265625
0.265,-305297546.38671875,-322415649.4140625,-310454559.3261719,-212929153.4423828,-168542114.2578125,-170115982.05566406,-182005172.7294922,-121039482.11669922,-79961021.42333984,-75332801.81884766,-59445430.755615234,-68438453.6743164,-68975997.92480469,-122695983.88671875,-182066513.06152344,-54590869.90356445,-50819499.96948242,-50037460.32714844,-37568920.13549805,-20111404.418945312,-20184185.028076172,-166939880.37109375,-96276832.5805664,-38339889.52636719,-29272928.23791504,14053518.295288086,-4158042.4308776855,-18021057.12890625,-24525835.037231445,5262196.5408325195,3469351.053237915,-42649745.94116211,-22220985.412597656,-1829458.3559036255,9043190.002441406,10135989.18914795,44295047.760009766,346478.25360298157,-21278860.092163086,2488698.4825134277,-11243668.556213379,-49804351.806640625,-27312837.600708008,4803253.173828125,18044288.635253906,39318042.75512695,15661312.103271484,-1115503.9072036743,24685173.03466797,-4170205.593109131,-23380435.943603516,-24367824.55444336,-13393839.836120605,40915107.72705078,-10173454.284667969,-9290733.337402344,-1150362.0147705078,-14058577.537536621,-14941556.930541992,-16005538.940429688,-11617665.29083252,17150953.29284668
0.27,-317943725.5859375,-333858428.9550781,-321632324.21875,-224870391.84570312,-177605972.29003906,-179659820.55664062,-199810089.11132812,-128676162.71972656,-83446624.75585938,-78357467.65136719,-63923931.12182617,-75420623.77929688,-72938865.6616211,-129460861.20605469,-197139602.6611328,-63446292.877197266,-53900165.55786133,-51532169.342041016,-37697189.33105469,-21553794.860839844,-22462774.2767334,-178653884.8876953,-103669914.24560547,-44382705.68847656,-35438179.01611328,11026543.617248535,-5004513.740539551,-18872714.99633789,-25574338.912963867,1747870.8028793335,-184273.01943302155,-51116096.49658203,-26317100.524902344,-5827176.570892334,6775430.679321289,9781095.504760742,41871532.44018555,259075.52242279053,-23878625.869750977,140722.48339653015,-13684975.624084473,-56476802.825927734,-33265933.990478516,2486263.5135650635,13387347.221374512,34230892.181396484,13178768.157958984,-5317794.7998046875,21558950.424194336,-9114195.823669434,-31335721.969604492,-32161445.61767578,-17157943.725585938,36325595.85571289,-13427959.442138672,-12355137.825012207,-3577177.047729492,-17642217.6361084,-18595829.010009766,-19778871.536254883,-14879418.37310791,18589862.823486328
0.275,-330951171.875,-344749877.9296875,-332269042.96875,-237554473.87695312,-187247650.14648438,-190669128.41796875,-220196807.86132812,-136969833.37402344,-87624015.80810547,-82282974.24316406,-69621238.7084961,-84216468.81103516,-77199829.1015625,-138531402.58789062,-213145446.77734375,-72889274.59716797,-56959541.32080078,-53336715.69824219,-38467487.33520508,-23872217.178344727,-25639877.319335938,-192311035.15625,-111741470.33691406,-51675155.63964844,-41862972.259521484,8563452.72064209,-5276061.534881592,-19483739.852905273,-26649280.548095703,-2539430.3798675537,-4423593.044281006,-60869167.32788086,-31714332.580566406,-9948376.655578613,4553139.209747314,9503050.804138184,39568588.25683594,-339481.2047481537,-27082283.02001953,-3043282.0320129395,-17813184.73815918,-64029945.373535156,-39345844.26879883,-151879.08709049225,8533132.553100586,28840085.983276367,9603903.770446777,-9615652.084350586,17398971.557617188,-15507539.749145508,-40687538.146972656,-41404445.64819336,-22764194.48852539,30414989.471435547,-18332527.16064453,-17197154.998779297,-7603617.191314697,-23123531.341552734,-24017385.482788086,-25168584.8236084,-19804601.669311523,17727149.963378906
0.28,-318428894.04296875,-333408264.16015625,-322485717.7734375,-226555908.203125,-181710922.24121094,-182157348.6328125,-206707870.48339844,-129145187.37792969,-84291549.68261719,-80400642.39501953,-68230110.16845703,-81134628.29589844,-74252151.48925781,-136058197.02148438,-201852813.72070312,-66247177.12402344,-53456176.7578125,-51340175.62866211,-37552795.41015625,-22831176.7578125,-25400541.305541992,-187456085.20507812,-105783187.86621094,-48826473.236083984,-37717193.603515625,10668384.552001953,-4783378.601074219,-17962396.6217041,-25365854.263305664,-1260682.9404830933,-3216699.6002197266,-57936496.73461914,-30860464.096069336,-7142103.672027588,6026348.114013672,9025377.27355957,38974185.943603516,-403161.10849380493,-26802408.21838379,-3427098.274230957,-18756975.173950195,-58987556.45751953,-35760929.107666016,1242666.7213439941,10699990.272521973,30955335.61706543,8208237.648010254,-9571750.64086914,16308433.532714844,-15219905.853271484,-36406734.466552734,-37136375.427246094,-22044752.12097168,31405691.146850586,-19356225.967407227,-18353109.35974121,-9182453.155517578,-22624248.504638672,-23242733.001708984,-24705865.85998535,-20695745.46813965,13618166.92352295
0.285,-297436279.296875,-316087799.0722656,-307050781.25,-207295211.7919922,-170455245.9716797,-165602355.95703125,-180240570.06835938,-115185539.24560547,-77303642.27294922,-75332008.3618164,-62931686.40136719,-72887565.61279297,-69621269.22607422,-129357116.69921875,-180249221.8017578,-53044448.85253906,-47224357.60498047,-47647033.69140625,-35457004.54711914,-19830698.013305664,-23295156.478881836,-176182647.70507812,-96440460.20507812,-40815311.431884766,-28891649.24621582,14579607.963562012,-4032066.3452148438,-15942818.641662598,-23282510.75744629,1921089.6492004395,-417224.1687774658,-51451808.92944336,-26169471.740722656,-1134269.9527740479,9431345.93963623,8887043.952941895,38820976.25732422,-78872.09206819534,-25442518.23425293,-3012708.4255218506,-18886901.85546875,-48854274.74975586,-28554552.07824707,4613150.596618652,15560322.761535645,35582153.3203125,7938963.413238525,-7681597.2328186035,15795154.571533203,-13585887.908935547,-27033721.923828125,-27792938.232421875,-18409223.556518555,35031459.80834961,-19003934.860229492,-18192359.924316406,-10143745.422363281,-19373462.677001953,-19687204.360961914,-21963249.20654297,-20231403.350830078,8642842.292785645
0.29,-296218017.578125,-317011322.0214844,-308298980.7128906,-206179336.54785156,-170275741.57714844,-162969741.82128906,-178961425.78125,-113031349.1821289,-75007217.40722656,-73531196.59423828,-61793731.689453125,-73213851.92871094,-71707107.54394531,-132091064.453125,-178631942.74902344,-51141754.150390625,-45247898.10180664,-46433914.18457031,-34296768.18847656,-18823400.497436523,-23405324.935913086,-180038864.1357422,-100000907.89794922,-38644123.07739258,-26854068.756103516,15729526.51977539,-3480185.9855651855,-16017427.444458008,-23125024.795532227,350782.00697898865,-2385196.4473724365,-56080368.04199219,-24481447.219848633,563624.3224143982,10704240.798950195,9315134.048461914,37152229.30908203,-145293.17617416382,-27330669.403076172,-5352681.1599731445,-22286512.37487793,-47877307.8918457,-28414447.784423828,5525844.097137451,15167678.833007812,34234619.140625,6124511.241912842,-8654461.860656738,12143242.835998535,-18500886.917114258,-28369407.653808594,-29113679.885864258,-19696739.196777344,33093357.08618164,-22073263.16833496,-21317529.678344727,-13673899.65057373,-20802782.05871582,-21026861.1907959,-23941661.834716797,-23384180.068969727,5767444.133758545
0.295,-305672241.2109375,-326503662.109375,-317701934.8144531,-215227249.1455078,-176929153.4423828,-168829147.3388672,-191461990.3564453,-118100433.34960938,-76716583.25195312,-74956764.2211914,-64570541.38183594,-79068588.25683594,-76961120.60546875,-139257522.5830078,-188077148.4375,-56096195.220947266,-45991588.5925293,-47031272.888183594,-34664985.65673828,-19776607.513427734,-25312051.77307129,-191577453.61328125,-109024948.12011719,-40094009.39941406,-28954216.00341797,15335748.672485352,-3158347.3682403564,-17469179.153442383,-24216421.127319336,-3574745.6550598145,-6205096.244812012,-64882591.247558594,-24832847.595214844,-392575.56200027466,10293505.668640137,9619612.693786621,34710639.95361328,-275325.9539604187,-30659866.333007812,-8350863.456726074,-25690687.17956543,-51608524.322509766,-31641365.05126953,5279254.43649292,12150651.931762695,30216485.97717285,4076426.5060424805,-11126152.038574219,8440125.465393066,-24100534.439086914,-34443374.63378906,-35210128.78417969,-22709136.962890625,29337844.848632812,-25092819.213867188,-24218177.795410156,-16428968.42956543,-23662168.502807617,-24008838.653564453,-26803167.34313965,-26514951.705932617,6302775.3829956055
0.3,-296436798.0957031,-318228210.44921875,-310961273.1933594,-207363006.59179688,-173504165.64941406,-161279983.5205078,-178662384.03320312,-112771331.78710938,-75368797.3022461,-74484947.20458984,-64264953.61328125,-76654281.61621094,-75593811.03515625,-135535339.35546875,-177569213.8671875,-50259162.90283203,-43096710.205078125,-45815773.010253906,-35246643.06640625,-19295333.862304688,-24970893.85986328,-187110870.36132812,-104347564.69726562,-34670776.3671875,-24031827.926635742,17604104.99572754,-3179401.8745422363,-17462421.417236328,-23751863.479614258,-2184755.802154541,-3992352.4856567383,-60358119.96459961,-20830955.505371094,3379096.746444702,12028003.692626953,9265772.819519043,33730213.1652832,562697.4701881409,-30064134.59777832,-6995383.262634277,-22821249.00817871,-44788776.39770508,-26705806.732177734,8619992.25616455,15203524.589538574,32836532.592773438,5049869.060516357,-10160807.609558105,10211745.262145996,-19177505.493164062,-27282737.731933594,-28150884.6282959,-17681747.436523438,33609554.290771484,-21158140.182495117,-20142225.26550293,-12846074.104309082,-18476003.646850586,-18952220.916748047,-21513671.875,-22464115.142822266,9707003.593444824
0.305,-271513366.69921875,-295765167.2363281,-290573791.50390625,-185292160.0341797,-160266250.61035156,-142097900.390625,-146121398.92578125,-98642623.90136719,-70568542.48046875,-71301635.7421875,-59542201.99584961,-66207878.11279297,-68167320.25146484,-122764930.72509766,-150735595.703125,-35490081.787109375,-37631656.646728516,-43140102.38647461,-35090129.85229492,-16668544.76928711,-21632898.330688477,-169041183.4716797,-88672508.2397461,-23741998.67248535,-13481616.020202637,21451997.756958008,-4065052.9861450195,-15787609.100341797,-21573871.612548828,4095664.9780273438,3480078.935623169,-45657600.40283203,-13327219.009399414,10996752.738952637,15908661.842346191,8789346.694946289,34031940.46020508,2147657.871246338,-25809652.32849121,-2081597.089767456,-15653142.929077148,-29625354.766845703,-15704996.109008789,14532477.378845215,23037075.04272461,40162994.384765625,7767291.54586792,-6349680.423736572,15201408.386230469,-7618516.445159912,-10122221.946716309,-11031232.833862305,-6659952.163696289,43137561.7980957,-13358548.164367676,-12330840.110778809,-5849102.020263672,-7409915.924072266,-7915244.102478027,-11381216.049194336,-14401243.209838867,13622392.654418945
0.31,-264860198.97460938,-289704742.4316406,-284090240.4785156,-180478103.6376953,-155615966.796875,-137437057.4951172,-141776489.2578125,-96286193.84765625,-69695106.50634766,-70260925.29296875,-57047904.96826172,-63178131.103515625,-65278572.08251953,-119313529.96826172,-144850662.2314453,-33263027.19116211,-37637023.92578125,-43289543.15185547,-34776260.37597656,-15058699.607849121,-19272033.69140625,-165276870.72753906,-84638450.6225586,-21088373.1842041,-11475345.611572266,21125545.501708984,-6099122.524261475,-15298427.58178711,-20408884.048461914,6458479.404449463,6793802.738189697,-42489063.26293945,-11257770.538330078,12920982.360839844,17124158.85925293,8942647.933959961,33010993.95751953,3099209.5470428467,-23996341.705322266,-43884.7653567791,-13033539.772033691,-25724615.0970459,-13545009.61303711,16187269.21081543,24506822.58605957,40468101.501464844,7382180.690765381,-5658351.421356201,15293580.055236816,-5411075.115203857,-6595630.168914795,-7346467.018127441,-3824287.176132202,43987293.2434082,-12814399.719238281,-11878896.713256836,-4894999.980926514,-4481711.864471436,-5006525.51651001,-10533117.294311523,-13760840.41595459,14690096.855163574
0.315,-286604034.4238281,-308604461.6699219,-299864227.2949219,-202272247.31445312,-166340560.91308594,-156116943.359375,-178743927.00195312,-111769828.79638672,-75384407.04345703,-73498970.03173828,-60327270.5078125,-73234077.45361328,-70678573.60839844,-130934326.171875,-171146362.3046875,-50275508.880615234,-44984996.7956543,-47340095.52001953,-35082466.12548828,-16189569.473266602,-20380235.67199707,-184769439.69726562,-98922393.79882812,-31543071.746826172,-22581430.435180664,15392530.44128418,-8577682.495117188,-17309139.251708984,-21355281.829833984,1473783.6122512817,2272527.9331207275,-57033229.82788086,-17961835.861206055,5960456.848144531,13491595.268249512,9465024.948120117,29758600.23498535,3124862.6708984375,-26994415.283203125,-3275689.8403167725,-17385515.213012695,-39404891.96777344,-24288085.9375,11394030.570983887,16130617.141723633,31301231.384277344,3335456.132888794,-9655395.5078125,9042140.007019043,-16358463.287353516,-23838453.29284668,-24333118.438720703,-14126500.129699707,32953842.163085938,-21666978.83605957,-20791133.880615234,-11901488.304138184,-14584421.157836914,-15202359.199523926,-22414724.349975586,-22793554.306030273,11920621.871948242
0.32,-303901916.50390625,-323175811.7675781,-312145416.2597656,-220014129.63867188,-175796386.71875,-172544158.93554688,-208772094.7265625,-124432563.78173828,-80117683.41064453,-76452468.87207031,-63902809.143066406,-82181526.18408203,-75438522.33886719,-140706619.2626953,-193146530.1513672,-65092781.06689453,-50839405.05981445,-50602062.2253418,-35573726.654052734,-17609409.33227539,-22316978.454589844,-201644271.85058594,-110615386.96289062,-41609165.19165039,-32663127.899169922,10612203.598022461,-10147770.881652832,-19447353.36303711,-22231534.957885742,-3436064.7201538086,-2270730.0186157227,-69051216.12548828,-24503379.821777344,-283758.6998939514,9605203.628540039,9558134.078979492,26715106.964111328,3579104.18510437,-29693435.668945312,-6332411.289215088,-20551366.806030273,-51555686.950683594,-32821788.787841797,7046129.22668457,8766747.47467041,24789075.85144043,1058716.6547775269,-12302193.641662598,4801811.695098877,-24898120.880126953,-38586517.333984375,-38965366.36352539,-23606245.040893555,24621179.580688477,-27884582.51953125,-26982036.590576172,-16873285.2935791,-23933164.596557617,-24650146.484375,-31971139.907836914,-29264667.510986328,9326938.62915039
0.325,-289651947.0214844,-310048126.2207031,-300251556.3964844,-208344268.79882812,-169400115.96679688,-163075927.734375,-192543380.7373047,-116786499.0234375,-76981117.24853516,-74680213.92822266,-61981311.7980957,-77704940.79589844,-72514480.59082031,-135146377.56347656,-179878723.14453125,-58660591.12548828,-47788009.64355469,-49064380.64575195,-35207870.48339844,-16914634.704589844,-21807422.637939453,-194700363.1591797,-103389900.20751953,-37974384.30786133,-28677585.60180664,12177803.039550781,-10007496.83380127,-19266897.201538086,-21339048.385620117,-1725934.9822998047,151864.39454555511,-62853500.36621094,-21592203.14025879,3203058.2427978516,10685088.157653809,9277036.666870117,26093446.731567383,5099646.091461182,-27893550.872802734,-4554027.080535889,-16308809.280395508,-45193664.55078125,-26843843.460083008,9551135.063171387,11749877.9296875,29309381.48498535,3650367.498397827,-9351378.440856934,8187044.143676758,-19125108.71887207,-30949583.053588867,-31424160.00366211,-19001535.415649414,30084091.186523438,-22482954.025268555,-21549898.147583008,-12151563.64440918,-19337339.401245117,-20072980.880737305,-26541240.692138672,-23976013.18359375,11722210.884094238
0.33,-264300140.38085938,-287764953.61328125,-280994293.2128906,-186154693.60351562,-157532714.84375,-141821487.4267578,-159950134.27734375,-101180038.45214844,-70205322.265625,-70699043.27392578,-57723983.76464844,-68880523.68164062,-68295875.5493164,-125670280.45654297,-153382827.75878906,-43050910.94970703,-40836963.65356445,-45270805.35888672,-33898979.18701172,-15767305.374145508,-20097450.256347656,-180640869.140625,-91347061.15722656,-27198467.254638672,-18186080.932617188,16611585.61706543,-8726795.196533203,-17776655.197143555,-20274148.94104004,1922491.0736083984,4587163.44833374,-52232406.61621094,-13374107.360839844,11154000.282287598,14803640.365600586,9396550.178527832,26512834.548950195,6133656.024932861,-25510124.20654297,-1878184.5569610596,-10849759.101867676,-31567825.317382812,-16209527.969360352,15041271.209716797,18461271.286010742,35814945.220947266,6197225.570678711,-5837342.739105225,12550971.984863281,-9791396.141052246,-15288490.295410156,-15916024.208068848,-8461894.035339355,39086826.32446289,-14311267.852783203,-13433177.947998047,-5109674.453735352,-8772187.232971191,-9491629.600524902,-15621376.991271973,-15776214.599609375,16930261.611938477
0.335,-266335784.91210938,-289782867.4316406,-284027496.3378906,-189163879.39453125,-160152160.64453125,-141807296.7529297,-167256011.96289062,-102371192.9321289,-69423942.56591797,-70360534.66796875,-58495265.96069336,-72703887.93945312,-72816307.0678711,-131577957.15332031,-157763641.35742188,-44722084.045410156,-40713878.6315918,-44865242.00439453,-32784404.754638672,-17092771.530151367,-20717720.03173828,-188946807.86132812,-98139335.63232422,-27198125.8392334,-19110057.830810547,16044328.689575195,-7794093.132019043,-17552059.173583984,-21221866.607666016,-1099607.229232788,1714776.7543792725,-60233669.28100586,-12458023.071289062,10883606.910705566,15103991.508483887,9873344.421386719,25014209.747314453,5107609.748840332,-28778163.90991211,-5274154.6630859375,-14585451.126098633,-34372375.48828125,-19375240.325927734,14432651.51977539,15853717.803955078,30823144.912719727,2448550.4627227783,-9196150.779724121,7956011.2953186035,-15525639.533996582,-19959833.1451416,-20652626.037597656,-10794804.573059082,34193119.049072266,-18574024.200439453,-17819278.717041016,-8918987.274169922,-10962738.990783691,-11706387.519836426,-18352857.58972168,-19988174.438476562,16758022.30834961
0.34,-295087005.6152344,-314782196.0449219,-307155181.8847656,-216759750.36621094,-176420333.8623047,-167374282.83691406,-213455917.35839844,-121301109.31396484,-76010192.87109375,-74357055.6640625,-64512191.77246094,-87914672.8515625,-83810852.05078125,-150272064.20898438,-194071411.1328125,-65925636.291503906,-48762088.775634766,-48739540.100097656,-32907444.00024414,-20030677.795410156,-23692707.061767578,-216342651.3671875,-120804916.38183594,-41560180.6640625,-33796321.868896484,9186810.493469238,-8172808.647155762,-18718912.12463379,-23165798.18725586,-9620270.729064941,-7341768.264770508,-83684288.02490234,-22074787.139892578,641382.5154304504,9463597.297668457,9586518.287658691,21480470.657348633,3168282.2704315186,-35988403.3203125,-13626050.94909668,-26404127.12097168,-54211894.98901367,-35901252.74658203,6755921.363830566,4201552.391052246,17193487.1673584,-5378396.987915039,-17634641.647338867,-3597048.9978790283,-34792503.356933594,-44622570.0378418,-45312541.96166992,-27225025.177001953,17231002.807617188,-34062793.73168945,-33401626.586914062,-22923048.01940918,-27346046.447753906,-28095861.434936523,-35044227.600097656,-35459354.400634766,8507436.752319336
0.345,-311590179.4433594,-328972473.14453125,-319724029.5410156,-232876510.6201172,-185979904.1748047,-186699050.9033203,-240657363.89160156,-133699386.59667969,-81521263.1225586,-77638076.78222656,-68672813.41552734,-96662612.91503906,-89875137.32910156,-160910995.48339844,-217144271.85058594,-80803199.7680664,-55098308.56323242,-52025974.27368164,-34131511.68823242,-21073568.34411621,-25667457.580566406,-230979904.1748047,-133697982.78808594,-53318859.1003418,-44973098.75488281,3429669.6186065674,-9292322.158813477,-19104633.331298828,-23297788.619995117,-14018508.911132812,-12177612.3046875,-96758155.8227539,-30623733.520507812,-7157211.3037109375,3990688.5623931885,8175908.088684082,18846588.134765625,2994216.6805267334,-39108009.338378906,-18308893.20373535,-34056556.701660156,-66356407.165527344,-45963359.83276367,1266276.240348816,-2677216.2914276123,10994954.109191895,-8786522.86529541,-21710342.407226562,-9773970.603942871,-46495048.52294922,-59331478.118896484,-60035148.62060547,-38097610.47363281,7934619.903564453,-43210048.67553711,-42532104.4921875,-31788314.819335938,-38422672.271728516,-39053016.662597656,-45312248.22998047,-44591445.92285156,661894.9174880981
0.35,-294361877.44140625,-315028533.9355469,-307685760.4980469,-217726333.61816406,-179085876.46484375,-174381271.3623047,-215783035.2783203,-124249206.54296875,-79624732.9711914,-76901130.67626953,-67423484.8022461,-91091720.58105469,-87614257.8125,-155527893.06640625,-197802017.21191406,-70962097.16796875,-52039230.34667969,-50826251.98364258,-35394931.79321289,-19621528.62548828,-25505395.889282227,-219281707.76367188,-125859275.8178711,-47155273.4375,-38989631.65283203,5318050.861358643,-9618239.402770996,-17899072.647094727,-21414949.417114258,-10468961.715698242,-8545034.408569336,-88044181.82373047,-26657840.728759766,-2510895.252227783,5354637.145996094,7160118.579864502,18893928.52783203,5053223.609924316,-35430145.263671875,-15219967.84210205,-30721330.642700195,-55197025.299072266,-37701778.411865234,5025904.178619385,3044403.7914276123,18877996.44470215,-4687417.507171631,-17473575.592041016,-4899005.889892578,-38950813.29345703,-46843112.94555664,-47591571.80786133,-30397747.039794922,16151531.219482422,-36159107.20825195,-35358974.45678711,-26102785.110473633,-30950670.24230957,-31389453.887939453,-36688079.833984375,-37492099.76196289,2223375.5588531494
0.355,-268166473.38867188,-295383209.2285156,-293007446.2890625,-194267715.45410156,-170242340.08789062,-144311065.67382812,-174635162.35351562,-106600830.078125,-73977470.39794922,-74758468.62792969,-65871612.548828125,-84699035.64453125,-86507743.83544922,-150649108.88671875,-161369918.8232422,-49696189.880371094,-43763744.35424805,-47001728.05786133,-35723670.959472656,-19046298.98071289,-26268520.35522461,-205342681.88476562,-116164352.41699219,-29472415.924072266,-23611108.779907227,12325188.636779785,-8324725.151062012,-16956649.780273438,-20437519.073486328,-6632935.523986816,-4718041.41998291,-76431030.2734375,-13845134.735107422,9054699.897766113,12305115.699768066,8203243.255615234,19818136.21520996,6775455.951690674,-31900472.64099121,-10778793.334960938,-24166221.618652344,-35645004.27246094,-23078027.725219727,13439474.105834961,12447523.11706543,28899578.094482422,199663.84768486023,-12152270.317077637,2006519.5560455322,-25795156.478881836,-26368927.001953125,-27148454.666137695,-16063562.393188477,28167240.142822266,-24396839.141845703,-23464185.71472168,-15349481.582641602,-16535478.591918945,-16898206.71081543,-22251121.520996094,-25667648.315429688,10056011.199951172
0.36,-266934051.51367188,-298472808.8378906,-300621551.5136719,-193728363.03710938,-176187133.7890625,-128919509.88769531,-169067581.1767578,-102537246.70410156,-71794784.54589844,-75056510.92529297,-69700729.37011719,-92119827.27050781,-94485534.66796875,-162751770.01953125,-150716201.78222656,-42294589.99633789,-39662387.84790039,-44923461.9140625,-34901821.13647461,-21474269.86694336,-30354413.986206055,-215597930.90820312,-125456298.828125,-19149017.333984375,-16518215.17944336,16600410.461425781,-6170265.674591064,-17940565.10925293,-22254234.313964844,-10612740.516662598,-9350598.335266113,-83794754.02832031,-5513391.017913818,14645565.032958984,17644947.052001953,10741957.664489746,18911134.719848633,5999857.425689697,-35450012.20703125,-13094903.945922852,-25680276.87072754,-31780574.798583984,-20532793.045043945,16788085.9375,12780668.258666992,27418300.62866211,-1403658.8668823242,-14134285.926818848,-274139.7023200989,-26701074.600219727,-25612688.064575195,-26368829.72717285,-14594120.979309082,26557682.037353516,-24371719.360351562,-23402412.41455078,-14565946.578979492,-14708801.26953125,-15182063.102722168,-21741178.512573242,-25633096.69494629,13425113.677978516
0.365,-287107849.12109375,-319142669.6777344,-322912841.796875,-212635055.5419922,-191743682.86132812,-136321975.7080078,-197029953.0029297,-112340499.87792969,-73685867.30957031,-77054008.48388672,-76428367.6147461,-107884857.17773438,-106169364.92919922,-184323287.9638672,-169040618.89648438,-52207324.98168945,-41851795.1965332,-45520938.873291016,-33448314.666748047,-24385194.778442383,-35377082.82470703,-241679748.53515625,-147540283.203125,-22665307.998657227,-21908140.182495117,15057835.578918457,-4539498.329162598,-19752782.821655273,-25090530.395507812,-19617033.004760742,-19068166.732788086,-105042869.5678711,-7000405.311584473,11157586.097717285,17548080.444335938,12501848.220825195,16297967.910766602,3821291.923522949,-43349925.99487305,-21036869.049072266,-34872711.181640625,-44487300.872802734,-30218091.96472168,13151727.676391602,4816289.42489624,17349691.39099121,-7671696.662902832,-21681406.021118164,-10077516.555786133,-41031963.34838867,-42862442.01660156,-43522125.244140625,-25904830.932617188,14229351.997375488,-35028026.58081055,-34125896.45385742,-23931043.62487793,-25731529.235839844,-26373270.03479004,-34071155.5480957,-36373577.11791992,9288176.536560059
0.37,-297380340.5761719,-329283294.6777344,-332558868.4082031,-222101928.7109375,-198469253.54003906,-145169586.18164062,-213473815.91796875,-118160560.60791016,-74444747.92480469,-77196098.32763672,-79105270.38574219,-115023231.50634766,-110918533.32519531,-194901672.36328125,-182207595.8251953,-60429916.38183594,-44271202.087402344,-46050155.63964844,-32264991.760253906,-24270881.65283203,-37290618.896484375,-254373474.12109375,-159860290.52734375,-28395786.28540039,-27791172.02758789,12064130.783081055,-4003020.2865600586,-20068521.49963379,-26106470.108032227,-24463096.618652344,-23889709.47265625,-117592605.59082031,-10731373.78692627,7357962.131500244,15381744.384765625,12330631.256103516,14416778.564453125,2884625.4348754883,-47462371.826171875,-26609937.66784668,-41621646.881103516,-53740776.06201172,-36506092.0715332,9622827.529907227,231555.56619167328,12484675.407409668,-11057496.070861816,-26210170.74584961,-16441837.310791016,-51250858.306884766,-52904083.251953125,-53428813.93432617,-32807826.99584961,8390729.904174805,-41369304.65698242,-40545055.3894043,-30427995.681762695,-32614295.959472656,-33359127.044677734,-41106933.59375,-42838630.67626953,5122807.025909424
0.375,-284314544.6777344,-317918548.5839844,-320725250.2441406,-209983535.76660156,-190641372.68066406,-138622390.7470703,-196581390.38085938,-111045013.42773438,-71734878.54003906,-74838867.1875,-76099403.38134766,-108728019.71435547,-107391777.03857422,-188608596.8017578,-169854461.66992188,-54441440.58227539,-42507877.349853516,-44782573.69995117,-32032703.399658203,-21544878.005981445,-35869972.229003906,-244278503.41796875,-154560516.35742188,-25328882.217407227,-24735921.85974121,12307345.390319824,-4139811.5158081055,-18600070.95336914,-25067026.138305664,-22142566.680908203,-21245929.718017578,-112736228.9428711,-8983199.119567871,10058441.162109375,15853591.918945312,11392225.26550293,14392397.8805542,3836567.6403045654,-45457580.56640625,-26077840.80505371,-40509525.299072266,-48213794.70825195,-31120643.615722656,11502400.398254395,4706048.488616943,18087650.299072266,-8981403.350830078,-24376066.207885742,-14750671.38671875,-48176437.37792969,-43849964.1418457,-44303359.98535156,-26848646.16394043,15516095.161437988,-36754554.748535156,-35946872.71118164,-27312891.006469727,-26788194.65637207,-27588659.286499023,-34732360.83984375,-38259014.12963867,6092340.469360352
0.38,-266669403.07617188,-302157592.7734375,-305227447.5097656,-193840377.8076172,-180649246.2158203,-125595046.99707031,-171852981.5673828,-101148414.6118164,-69004867.55371094,-72959640.50292969,-72491096.49658203,-100681037.90283203,-103624778.7475586,-179002151.4892578,-149612289.42871094,-43399490.35644531,-39229930.87768555,-43251197.814941406,-32629436.492919922,-19514297.485351562,-34447536.46850586,-230612197.87597656,-145349349.97558594,-17540519.71435547,-17733253.479003906,14660395.622253418,-4446094.989776611,-17532791.137695312,-23983619.689941406,-18438817.977905273,-17910659.790039062,-103765441.89453125,-4317203.998565674,15395975.112915039,18594076.15661621,11255351.066589355,14671078.6819458,4997713.088989258,-42757957.458496094,-23629226.684570312,-36534740.44799805,-38153537.75024414,-22783615.112304688,15643080.711364746,11348281.860351562,25432176.58996582,-6433099.269866943,-21447681.427001953,-11552035.331726074,-41133972.16796875,-30634513.85498047,-31140104.293823242,-18430000.30517578,24023656.845092773,-30610652.923583984,-29780229.568481445,-22131662.368774414,-18499656.677246094,-19335754.39453125,-26444204.330444336,-31977272.033691406,7772425.174713135
0.385,-263764770.5078125,-298744689.94140625,-302128723.14453125,-191553695.67871094,-179360534.66796875,-122286933.89892578,-168222549.43847656,-99838562.01171875,-69298400.87890625,-73293449.40185547,-72155166.62597656,-100757545.4711914,-104738334.65576172,-178210510.25390625,-145629211.42578125,-41111743.92700195,-38659526.82495117,-43296611.78588867,-33144618.98803711,-19568273.544311523,-34850574.4934082,-230821655.2734375,-145197494.50683594,-15194160.461425781,-16205343.246459961,15076744.079589844,-4805168.628692627,-18673564.910888672,-23924415.588378906,-18637125.01525879,-18802700.04272461,-103928230.28564453,-3523070.0969696045,16337259.292602539,19798467.6361084,11831233.024597168,13517157.554626465,5211155.414581299,-43727714.53857422,-23871511.459350586,-35936443.32885742,-36711456.298828125,-22316440.58227539,16349742.889404297,11858906.745910645,25523464.20288086,-7992468.83392334,-22556133.270263672,-13419063.568115234,-41631065.368652344,-30137010.57434082,-30717201.232910156,-19048358.917236328,22559188.842773438,-32586719.512939453,-31720462.799072266,-23536058.42590332,-19243154.525756836,-20021619.79675293,-28045637.130737305,-33683105.46875,5001599.311828613
0.39,-270018493.65234375,-302687713.6230469,-306144073.4863281,-197856323.2421875,-182758941.65039062,-127814544.67773438,-179360168.45703125,-103969200.13427734,-70589126.58691406,-73832855.22460938,-73050918.57910156,-104992256.16455078,-107427200.31738281,-182856948.85253906,-154949523.92578125,-46443538.665771484,-40186435.69946289,-44137210.845947266,-32668941.497802734,-19893592.834472656,-35388351.44042969,-239043212.890625,-150641571.04492188,-19182035.446166992,-20212900.161743164,12817320.823669434,-5135877.1324157715,-21198919.29626465,-23887361.526489258,-21080852.508544922,-20793691.635131836,-109929153.44238281,-6935543.537139893,12879582.405090332,18115993.49975586,11934376.71661377,11312183.380126953,5334328.174591064,-46104080.20019531,-25675239.56298828,-37820396.423339844,-41832088.470458984,-28076889.038085938,13453282.356262207,7314682.960510254,20355478.286743164,-11866630.554199219,-25883268.356323242,-18016132.354736328,-47805801.39160156,-38829338.07373047,-39350788.11645508,-25479475.021362305,14716183.66241455,-39246376.037597656,-38297557.83081055,-29063072.204589844,-25813615.798950195,-26415681.838989258,-35428913.11645508,-40076202.392578125,658319.5924758911
0.395,-271002105.7128906,-302034729.00390625,-305451599.12109375,-199265518.18847656,-182461486.81640625,-131295715.33203125,-184291931.15234375,-104889953.61328125,-69794197.08251953,-72443115.234375,-71994857.78808594,-105553398.13232422,-107491767.88330078,-184171966.55273438,-160461288.45214844,-49943557.73925781,-40799438.4765625,-44004310.607910156,-31179546.356201172,-18940038.681030273,-34428600.3112793,-241607345.5810547,-152688796.9970703,-23119117.736816406,-23567207.33642578,10437417.984008789,-5249303.340911865,-22824352.264404297,-22949123.38256836,-21968103.408813477,-19829689.025878906,-112622299.19433594,-10027843.475341797,9700438.499450684,15667917.251586914,11183663.368225098,9393598.556518555,6359075.546264648,-46182804.107666016,-25912258.14819336,-38360836.029052734,-44714767.45605469,-32201847.076416016,10722853.660583496,3778494.358062744,16842798.233032227,-14016429.901123047,-27164318.084716797,-19856658.935546875,-51413917.541503906,-43932537.07885742,-44285095.21484375,-28605468.75,10117531.776428223,-42236293.79272461,-41179271.69799805,-31629125.595092773,-29000221.252441406,-29459966.6595459,-38623413.0859375,-42957401.275634766,-72216.34685993195
0.4,-268431365.96679688,-299021087.6464844,-301566314.6972656,-197241348.26660156,-179598648.07128906,-132708175.65917969,-183811325.0732422,-103549674.98779297,-67990753.17382812,-70317779.54101562,-69996276.85546875,-103563301.08642578,-106144447.32666016,-181800125.1220703,-161153564.453125,-50889900.20751953,-40604640.96069336,-43084568.02368164,-29500577.926635742,-17655467.987060547,-33206821.44165039,-239141296.38671875,-151733261.10839844,-25488618.850708008,-25197561.264038086,9108934.40246582,-5146046.6384887695,-22550510.40649414,-21902061.462402344,-21847213.745117188,-17912239.07470703,-112537628.17382812,-11951882.362365723,7825267.314910889,14101584.434509277,10413339.614868164,7847618.579864502,7499441.623687744,-45078334.80834961,-25224927.90222168,-38039928.4362793,-45928459.16748047,-33819496.154785156,9272360.801696777,2396617.1741485596,15813492.774963379,-14563592.910766602,-26794221.878051758,-19471954.345703125,-52034221.64916992,-44598854.064941406,-44854759.216308594,-28783069.610595703,9330345.153808594,-41908512.115478516,-40865146.63696289,-31502708.435058594,-29087091.44592285,-29587768.5546875,-38212932.58666992,-42760601.04370117,1085251.9273757935
0.405,-274067199.70703125,-303725799.5605469,-303569976.8066406,-202635513.30566406,-180692108.15429688,-141095123.29101562,-193938888.5498047,-107047264.0991211,-68334091.18652344,-69840744.01855469,-69907928.46679688,-105188186.64550781,-105930770.87402344,-180785934.4482422,-169673751.8310547,-56107818.603515625,-41922088.623046875,-42914703.369140625,-28407251.358032227,-17439390.182495117,-33511981.964111328,-241490661.62109375,-153537948.60839844,-30340850.830078125,-29204202.65197754,7511055.946350098,-5013732.91015625,-21476062.774658203,-21964336.395263672,-23684883.11767578,-18764104.84313965,-115845802.3071289,-15649284.362792969,4614327.430725098,12771295.547485352,10406079.292297363,5827090.740203857,7288724.899291992,-46266067.50488281,-26342393.87512207,-39706096.64916992,-52083911.89575195,-37895160.67504883,7064261.436462402,-455952.9423713684,12811444.282531738,-16652858.73413086,-28376705.169677734,-21476095.19958496,-55513442.99316406,-49639533.99658203,-49925083.16040039,-32911933.89892578,5765620.231628418,-44781623.84033203,-43949832.916259766,-34287849.42626953,-33077434.539794922,-33714790.34423828,-41896354.67529297,-45926460.26611328,-1199248.7907409668
0.41,-287176757.8125,-314599761.9628906,-310660339.35546875,-214858978.27148438,-185357803.34472656,-155819992.0654297,-214174560.546875,-114940162.6586914,-70709854.12597656,-70759239.19677734,-71280014.03808594,-110170341.49169922,-105284011.84082031,-181090820.3125,-186489974.97558594,-65567405.700683594,-44433227.5390625,-43657867.431640625,-28009197.235107422,-17719423.294067383,-34435192.1081543,-248817733.76464844,-157182052.6123047,-37494949.34082031,-35568183.89892578,5234107.01751709,-4882627.487182617,-21114185.333251953,-22795438.766479492,-26983072.28088379,-20753488.540649414,-121478080.74951172,-20764276.5045166,260113.12007904053,11085584.64050293,10988423.347473145,3462399.0058898926,5906884.670257568,-49415664.67285156,-28808723.44970703,-42309406.28051758,-61677433.013916016,-44616851.806640625,3821867.2275543213,-5483757.972717285,6943940.63949585,-20673795.700073242,-32238891.6015625,-26309167.861938477,-62224449.157714844,-60163227.08129883,-60437496.185302734,-41090942.3828125,-1730232.4771881104,-51526809.69238281,-50897651.67236328,-40369590.759277344,-41236751.556396484,-41914657.59277344,-50059764.86206055,-52891632.080078125,-6459088.8023376465
0.415,-293875671.38671875,-319052581.7871094,-312584136.9628906,-221152923.58398438,-186562789.9169922,-164515350.34179688,-225242538.45214844,-118862426.7578125,-71988990.7836914,-70870147.70507812,-71084457.39746094,-111955307.00683594,-101490180.96923828,-178178344.7265625,-195990234.375,-70556404.11376953,-45258434.2956543,-43982429.50439453,-28039323.806762695,-16996129.989624023,-33629447.93701172,-250895904.54101562,-156343704.2236328,-40926353.454589844,-38668716.43066406,4067209.243774414,-4700083.7326049805,-21709335.327148438,-22868516.92199707,-28016344.07043457,-19461162.567138672,-122307846.06933594,-22928043.365478516,-1521455.4071426392,10073362.350463867,11453392.028808594,1951582.5510025024,5130872.72644043,-50775527.95410156,-29430727.005004883,-42004524.23095703,-65452095.03173828,-48181934.35668945,2128969.430923462,-8632178.30657959,2954664.468765259,-23328233.71887207,-34749980.92651367,-29541696.548461914,-65880187.98828125,-66919189.453125,-67044471.740722656,-45862041.47338867,-6664759.159088135,-55795909.8815918,-55071968.07861328,-44033729.553222656,-46123664.85595703,-46742584.228515625,-54948894.50073242,-57100917.81616211,-9201228.141784668
0.42,-287482604.98046875,-311769317.6269531,-305190704.3457031,-215371093.75,-181558776.85546875,-161021286.0107422,-217546295.16601562,-115070457.4584961,-70915069.58007812,-69625579.83398438,-68672462.4633789,-107893920.8984375,-96418556.2133789,-171903305.05371094,-189455810.546875,-66818168.64013672,-43673130.03540039,-43423976.89819336,-28343168.258666992,-15344412.803649902,-31107761.38305664,-243590560.91308594,-150330215.45410156,-38029182.43408203,-35904647.82714844,4996440.887451172,-4676689.624786377,-22399864.196777344,-21605504.989624023,-25608608.24584961,-15316885.948181152,-117202293.3959961,-20633398.056030273,521344.06566619873,10616534.233093262,11380501.747131348,1692087.4118804932,5947845.458984375,-49092216.49169922,-27563678.741455078,-38772956.84814453,-60135002.13623047,-45897888.18359375,3232880.3539276123,-7219993.114471436,4325993.537902832,-22554796.21887207,-34050666.80908203,-29020240.783691406,-63853279.11376953,-64412063.59863281,-64423194.885253906,-43707153.3203125,-4827985.2867126465,-54343311.30981445,-53279991.149902344,-42689682.00683594,-44090251.92260742,-44694602.966308594,-52931938.17138672,-55348213.19580078,-7874396.324157715
0.425,-276274139.4042969,-300832153.3203125,-295316040.0390625,-205275390.625,-175318862.91503906,-153073059.08203125,-203025558.4716797,-108953887.93945312,-69364227.29492188,-68544349.67041016,-66695915.22216797,-102762290.95458984,-94801963.80615234,-167698104.85839844,-176326751.70898438,-60193481.4453125,-42107551.57470703,-42905944.82421875,-28720035.552978516,-14360800.743103027,-29587167.739868164,-234910949.70703125,-145714599.609375,-33298290.252685547,-31368511.199951172,6500416.7556762695,-4992413.9976501465,-22400135.040283203,-20200103.759765625,-23110256.19506836,-13311753.273010254,-113185882.56835938,-17355339.05029297,3312884.80758667,11994181.632995605,10914026.260375977,1629091.1436080933,7260727.882385254,-47460906.982421875,-26353242.874145508,-37079551.696777344,-52503452.30102539,-41747596.740722656,5204730.033874512,-3553681.3735961914,8747901.916503906,-20463497.161865234,-32766647.338867188,-27867012.02392578,-61081325.53100586,-57737758.63647461,-57850387.57324219,-39207489.013671875,289472.3415374756,-51251087.1887207,-49996006.01196289,-40419521.33178711,-39628177.642822266,-40263450.622558594,-48918037.41455078,-51970230.10253906,-6655703.067779541
0.43,-269433502.1972656,-294400573.73046875,-289532043.45703125,-199528320.3125,-172496078.49121094,-149031906.1279297,-195536529.54101562,-105908958.4350586,-68582054.1381836,-68147941.58935547,-66814727.783203125,-101401664.73388672,-97529869.07958984,-168499618.53027344,-168726974.4873047,-56929595.947265625,-41899684.90600586,-42650409.69848633,-28531860.3515625,-14778422.355651855,-30730726.24206543,-232862319.94628906,-146639053.34472656,-30921264.6484375,-29183511.73400879,7052126.407623291,-5178724.28894043,-21613756.17980957,-20039009.09423828,-23723613.739013672,-15364143.371582031,-114888954.16259766,-15819186.210632324,4368726.2535095215,13142743.110656738,10503925.323486328,814588.0103111267,7377388.954162598,-48671989.44091797,-28087265.014648438,-39280292.51098633,-48947013.85498047,-39943542.48046875,6068522.930145264,-1333938.1217956543,11508796.691894531,-20496274.948120117,-34012954.71191406,-29482242.584228516,-62081935.88256836,-54010021.2097168,-54319473.26660156,-37390842.43774414,2963354.1107177734,-51182128.90625,-50102691.650390625,-41320880.88989258,-37795516.96777344,-38359931.94580078,-48126995.08666992,-51825313.568115234,-8292080.879211426
0.435,-266415618.89648438,-291180877.6855469,-286464447.0214844,-197586425.78125,-171851852.4169922,-147803390.5029297,-194856887.8173828,-104910263.06152344,-67371337.890625,-67004524.23095703,-67319892.88330078,-102935928.34472656,-100506675.72021484,-170980438.23242188,-167507644.6533203,-56179386.138916016,-41388980.865478516,-41491058.349609375,-27136425.018310547,-15402426.719665527,-32803993.225097656,-235744049.07226562,-150017883.30078125,-30087968.826293945,-28626552.58178711,7245300.769805908,-4527223.587036133,-20539760.58959961,-20937152.862548828,-26506845.474243164,-17970134.735107422,-119094139.0991211,-15219777.10723877,4399569.034576416,13846300.12512207,10441008.567810059,-433645.18880844116,6110649.108886719,-51631568.908691406,-31283044.815063477,-42608207.70263672,-49014476.77612305,-40478958.12988281,5887861.251831055,-1678637.981414795,10377890.586853027,-23555242.53845215,-37499938.96484375,-33423999.786376953,-65308151.24511719,-54846214.294433594,-55194019.31762695,-38737186.431884766,1107508.5401535034,-54148731.23168945,-53365802.76489258,-44730560.302734375,-39114669.79980469,-39521385.192871094,-50635997.7722168,-54883327.48413086,-11084485.054016113
0.44,-263219543.45703125,-286721679.6875,-282139709.47265625,-195426025.390625,-170174743.65234375,-146057861.328125,-194908203.125,-103236389.16015625,-64906845.09277344,-64426849.365234375,-66012565.61279297,-103767082.21435547,-100295593.26171875,-171040695.1904297,-168324005.12695312,-55058940.88745117,-39379131.31713867,-39029449.462890625,-24851472.854614258,-14762939.453125,-32968177.795410156,-237413711.54785156,-151606521.6064453,-29771545.41015625,-28025747.299194336,8087714.195251465,-3288612.127304077,-19967035.2935791,-21464025.497436523,-28390806.198120117,-18190143.585205078,-121495407.10449219,-15374607.08618164,4068646.9078063965,13898406.028747559,10512775.421142578,-1437468.8863754272,4829397.201538086,-53594417.572021484,-33500713.348388672,-44040908.81347656,-50703491.2109375,-42323478.69873047,4925482.749938965,-3760988.95072937,6229897.975921631,-27854879.37927246,-40970775.60424805,-37595378.87573242,-67772293.09082031,-59053058.62426758,-59283512.115478516,-42663696.2890625,-4261581.897735596,-58383403.77807617,-57677433.013916016,-48622806.549072266,-42975654.60205078,-43370212.55493164,-55101123.80981445,-59226131.439208984,-13895534.51538086
0.445,-259383789.0625,-280639404.296875,-275980224.609375,-192430984.4970703,-166969177.24609375,-145244323.73046875,-194204681.39648438,-101149841.30859375,-62466346.740722656,-61889022.82714844,-63295509.338378906,-102456291.19873047,-97761421.20361328,-168835601.80664062,-169881774.90234375,-54000690.46020508,-37376842.4987793,-36739643.09692383,-22928339.0045166,-13013019.561767578,-30865674.97253418,-235705535.88867188,-151383819.58007812,-31611295.700073242,-28218050.003051758,9145236.015319824,-2615323.066711426,-20365386.962890625,-20791633.60595703,-28318542.48046875,-17433996.200561523,-122536460.87646484,-18169509.887695312,2518197.2980499268,12860763.549804688,10278189.659118652,-2259600.1625061035,4715532.7796936035,-53808834.075927734,-34620906.829833984,-44444698.333740234,-54160800.93383789,-45572620.3918457,2776307.8212738037,-6353987.216949463,1531815.8864974976,-31174860.00061035,-43342609.40551758,-41299591.064453125,-69904869.07958984,-65318725.5859375,-65514183.044433594,-49179542.541503906,-10700162.887573242,-63194545.74584961,-62389789.58129883,-52831130.98144531,-49369682.31201172,-49987472.53417969,-61004653.93066406,-64113075.256347656,-18297431.94580078
0.45,-255595916.74804688,-274714813.2324219,-269752319.3359375,-189502319.3359375,-163817535.40039062,-146454116.82128906,-193238632.20214844,-99509277.34375,-61165302.27661133,-60778930.6640625,-61299201.96533203,-100441757.20214844,-95970298.76708984,-167547912.59765625,-171274871.82617188,-53873638.15307617,-36881885.52856445,-35878467.55981445,-22179924.01123047,-11670915.603637695,-28923339.84375,-233202804.5654297,-151843582.1533203,-35343112.94555664,-29669214.248657227,9683723.449707031,-2926656.723022461,-21217710.494995117,-19700492.85888672,-27989862.4420166,-17770013.8092041,-124681022.64404297,-22944801.330566406,323632.5681209564,11434046.745300293,9846179.008483887,-3262154.5791625977,5460290.431976318,-53709556.579589844,-36038478.85131836,-46148040.771484375,-58170654.296875,-49043537.13989258,281063.13943862915,-7893415.927886963,-1343414.1874313354,-32638286.590576172,-45061363.220214844,-44688362.12158203,-73227066.04003906,-70693443.29833984,-71012031.55517578,-55866134.64355469,-14850496.292114258,-67461029.05273438,-66681129.455566406,-57074855.80444336,-55961002.349853516,-56786281.58569336,-66116279.60205078,-68479469.2993164,-24034978.86657715
0.455,-251255310.05859375,-269592926.0253906,-265120208.74023438,-186416961.66992188,-162105453.49121094,-146027923.58398438,-190923263.5498047,-97348846.43554688,-60066654.205322266,-60337268.8293457,-61165668.48754883,-100161682.12890625,-96775466.91894531,-169876785.2783203,-169641967.7734375,-53035549.16381836,-36750656.12792969,-35499805.45043945,-21945318.2220459,-11737035.751342773,-29361463.54675293,-233554290.77148438,-154766738.89160156,-36944969.177246094,-30253974.91455078,10189519.882202148,-3082434.65423584,-21266145.706176758,-19495822.90649414,-29353790.283203125,-18237237.93029785,-128426620.48339844,-25423013.68713379,17293.781042099,11383315.086364746,10027253.150939941,-4239627.361297607,5763053.894042969,-54810703.27758789,-38346961.975097656,-49235366.82128906,-59713359.83276367,-50314769.74487305,-507640.12336730957,-7470045.08972168,-2235165.596008301,-33281028.747558594,-46862209.32006836,-47647335.052490234,-77141761.77978516,-72425086.97509766,-72825363.15917969,-59045326.232910156,-15305844.3069458,-69617462.15820312,-69040229.79736328,-59851623.53515625,-59190032.958984375,-59937339.782714844,-67689033.50830078,-70772079.46777344,-27531597.137451172
0.46,-247752014.16015625,-266347351.07421875,-263787475.5859375,-184261703.49121094,-162694015.5029297,-142128707.8857422,-188757446.2890625,-94583343.50585938,-58053310.39428711,-59114593.505859375,-62325710.29663086,-103305671.69189453,-100052047.72949219,-176432342.52929688,-165871307.37304688,-50906745.91064453,-35201915.7409668,-33867198.9440918,-20917802.810668945,-12614941.596984863,-31817409.51538086,-238910675.04882812,-160940155.02929688,-35014816.28417969,-28969923.01940918,11216747.283935547,-1863665.8191680908,-19894153.594970703,-20287820.81604004,-32656406.40258789,-17376760.482788086,-133481658.93554688,-24257469.177246094,1693997.5023269653,12870731.353759766,11259396.55303955,-4786063.194274902,4844953.536987305,-57594505.310058594,-41374313.35449219,-52567085.26611328,-59837326.04980469,-50124557.49511719,242504.62651252747,-6751754.7607421875,-3854722.9766845703,-35291248.3215332,-49525184.631347656,-50801132.20214844,-80986862.18261719,-73260643.0053711,-73571479.79736328,-59983814.23950195,-15760626.792907715,-71055877.68554688,-70585418.70117188,-61634067.53540039,-60334247.58911133,-60801433.56323242,-67974754.3334961,-72307975.76904297,-27768554.6875
0.465,-247533187.86621094,-265814758.30078125,-265394989.01367188,-184728149.4140625,-164873428.34472656,-138927871.70410156,-189801376.34277344,-92922386.1694336,-55688751.220703125,-57110458.37402344,-63437023.1628418,-108636291.50390625,-104117210.3881836,-184700546.26464844,-164855148.3154297,-49756988.525390625,-32584758.758544922,-30927328.10974121,-18786178.588867188,-12929260.25390625,-34057170.86791992,-247204666.1376953,-169273300.17089844,-33789287.56713867,-28185083.389282227,12071704.864501953,331511.4676952362,-17994258.880615234,-20883026.123046875,-36503978.72924805,-16455862.045288086,-139756973.26660156,-23982990.264892578,1911157.1311950684,13627761.840820312,12718156.814575195,-5073178.291320801,3274300.0984191895,-61451927.185058594,-45118621.826171875,-56174976.34887695,-63361732.482910156,-52131278.99169922,-411999.2256164551,-8274741.172790527,-8098181.72454834,-39583049.77416992,-53561885.833740234,-55397270.20263672,-85774688.72070312,-78567802.42919922,-78769676.2084961,-64062576.29394531,-20837232.58972168,-75249114.99023438,-74612472.53417969,-65342842.10205078,-64653610.22949219,-64937675.47607422,-72365592.95654297,-76499626.15966797,-28947465.896606445
0.47,-248963806.15234375,-265648590.08789062,-265813110.3515625,-186119873.046875,-165861404.4189453,-140177093.50585938,-192191726.6845703,-92794609.06982422,-54130634.30786133,-55400936.126708984,-63537712.09716797,-112259353.63769531,-106892295.83740234,-190218658.44726562,-167637161.2548828,-50814701.080322266,-30700263.97705078,-28324443.817138672,-16615285.873413086,-12243227.005004883,-34716075.8972168,-252586227.4169922,-176248672.48535156,-36689338.68408203,-29911113.739013672,11856132.507324219,1980912.5661849976,-17033725.73852539,-20542121.88720703,-39376876.83105469,-17673299.78942871,-145826782.2265625,-28352710.723876953,-1190697.6699829102,12015905.380249023,13154158.592224121,-5655683.0406188965,2253363.609313965,-65015998.84033203,-49362190.24658203,-60528602.600097656,-70604278.56445312,-56896564.48364258,-3792008.876800537,-11407837.867736816,-12566416.74041748,-44134258.27026367,-58094982.1472168,-60984519.958496094,-91695236.20605469,-87306259.15527344,-87550575.25634766,-72023391.72363281,-28600082.397460938,-81894485.47363281,-80993957.51953125,-71484771.72851562,-72755722.04589844,-73063064.57519531,-80530677.79541016,-83079650.87890625,-33917930.603027344
0.475,-249214294.43359375,-263903015.13671875,-262882415.77148438,-186279174.8046875,-164698974.609375,-145009292.60253906,-193269165.0390625,-93569831.84814453,-53873519.89746094,-54718940.73486328,-63167064.66674805,-112877113.34228516,-108496543.88427734,-191992691.04003906,-171566375.73242188,-53296997.0703125,-30873611.450195312,-27558225.631713867,-15658820.152282715,-11680579.18548584,-34898582.458496094,-253146377.56347656,-180191818.2373047,-41861560.8215332,-33360076.904296875,10581946.37298584,2216375.1125335693,-17434547.424316406,-20216495.513916016,-41409793.853759766,-21167316.436767578,-150455932.6171875,-35066303.25317383,-5380253.791809082,9220512.390136719,12480612.754821777,-6792516.231536865,2229693.1743621826,-67430213.92822266,-53408107.75756836,-65186981.201171875,-76433685.30273438,-61023963.928222656,-7512274.742126465,-13181152.34375,-14020714.75982666,-46205909.729003906,-61336357.11669922,-65473846.435546875,-97273323.05908203,-93175094.60449219,-93528213.50097656,-78294013.97705078,-32692680.35888672,-86508888.2446289,-85512512.20703125,-76607437.13378906,-79024055.48095703,-79404678.34472656,-86043045.04394531,-87646850.5859375,-39164115.90576172
0.48,-251678527.83203125,-264786468.50585938,-262057037.35351562,-188876007.08007812,-165451675.41503906,-152909790.0390625,-199008636.47460938,-97068923.95019531,-55317199.70703125,-55278850.55541992,-64285293.57910156,-115041160.5834961,-111849258.42285156,-195168167.1142578,-178792770.3857422,-58295543.6706543,-33581104.27856445,-28871795.654296875,-16166091.918945312,-12545904.159545898,-36634204.86450195,-255844619.75097656,-184953018.18847656,-47196689.60571289,-37931774.1394043,8393945.693969727,1441663.0268096924,-18271657.943725586,-21257659.912109375,-44344421.38671875,-25717508.31604004,-155942413.33007812,-40538284.30175781,-8775554.656982422,7057456.493377686,11810405.731201172,-8340280.532836914,2557414.5317077637,-69449615.47851562,-57036663.05541992,-69748329.16259766,-79793853.75976562,-63687652.587890625,-9558092.11730957,-13480777.740478516,-14203695.297241211,-46081935.88256836,-62978794.09790039,-68480308.53271484,-102563461.30371094,-95688240.05126953,-96041488.64746094,-80345596.31347656,-32487972.259521484,-87643196.10595703,-86745468.13964844,-78837303.1616211,-80971267.70019531,-81334594.7265625,-86886444.09179688,-88777832.03125,-40445556.640625
0.485,-260249816.89453125,-272094207.7636719,-268238159.1796875,-197599838.25683594,-171188262.93945312,-164391555.7861328,-215027420.0439453,-104733093.26171875,-58292236.328125,-56673645.01953125,-67513450.6225586,-122358047.48535156,-118050201.41601562,-203522506.7138672,-192679611.2060547,-67094749.450683594,-37947483.06274414,-31122695.922851562,-17232748.03161621,-14364739.418029785,-39813289.642333984,-266227355.95703125,-193796035.76660156,-53858409.8815918,-44174209.59472656,5288516.521453857,533065.3190612793,-18417444.229125977,-23126590.728759766,-48809024.810791016,-30390085.220336914,-164706161.49902344,-45403358.459472656,-12563141.822814941,5409991.74118042,11841494.5602417,-9978155.136108398,2555865.76461792,-72085777.28271484,-60575756.07299805,-74358802.79541016,-85806259.15527344,-68100212.09716797,-11373334.884643555,-15335880.279541016,-17450016.021728516,-46619445.80078125,-64609931.94580078,-71930717.46826172,-109074348.44970703,-100990478.515625,-101280525.20751953,-82811126.70898438,-34365928.649902344,-89353469.84863281,-88598228.45458984,-80928855.8959961,-83305870.05615234,-83612022.39990234,-88898605.34667969,-90483085.63232422,-39956203.46069336
0.49,-265630279.54101562,-276839782.71484375,-272946197.5097656,-203710327.1484375,-175461288.45214844,-172873184.20410156,-227642028.80859375,-110351875.30517578,-59999736.78588867,-56954105.377197266,-69552154.54101562,-128757949.82910156,-122195129.39453125,-210690338.13476562,-203589218.13964844,-73889045.71533203,-40598304.748535156,-31971286.77368164,-17417097.091674805,-14849204.063415527,-41567840.576171875,-275028289.7949219,-200542510.98632812,-60578617.095947266,-49395286.560058594,2707551.2409210205,189170.40526866913,-17548456.1920166,-23521095.275878906,-52210098.26660156,-33600082.39746094,-171828872.68066406,-50772727.966308594,-16587150.573730469,3695406.913757324,11988246.91772461,-11181554.794311523,2415091.9914245605,-74169410.7055664,-63309455.87158203,-77768325.80566406,-94273399.35302734,-73827362.06054688,-14335970.878601074,-18697158.813476562,-22524789.810180664,-48821819.30541992,-66845703.125,-75984542.84667969,-114574607.8491211,-108689666.74804688,-109039680.48095703,-88274383.54492188,-40567375.18310547,-93580490.11230469,-92927635.1928711,-84736587.52441406,-88690124.51171875,-89016937.25585938,-94907981.8725586,-94669692.99316406,-42703990.9362793
0.495,-252316940.3076172,-264460906.98242188,-261855072.02148438,-192913528.4423828,-168105102.5390625,-167348663.33007812,-214867584.22851562,-104522789.00146484,-56697521.2097168,-53719848.6328125,-66186119.079589844,-124348030.09033203,-118459136.96289062,-206657669.0673828,-195078247.0703125,-69420440.67382812,-38026988.9831543,-29497270.584106445,-15757327.07977295,-12440452.575683594,-39660343.170166016,-267188842.7734375,-195578018.18847656,-61207122.802734375,-48122627.25830078,3182779.7889709473,807138.6814117432,-16222227.096557617,-21339080.810546875,-51495574.951171875,-33195037.841796875,-168856262.20703125,-53521228.7902832,-17048316.955566406,2980646.1334228516,11499431.610107422,-11520820.617675781,2655009.7465515137,-73417617.79785156,-63647136.68823242,-77488632.20214844,-95872024.53613281,-74657600.40283203,-16307228.088378906,-18982517.24243164,-23129682.540893555,-50445671.08154297,-68049034.11865234,-77662513.73291016,-113657112.12158203,-108980194.09179688,-109518608.09326172,-91246841.43066406,-44503810.88256836,-95793670.65429688,-95209785.46142578,-86988136.2915039,-91681060.79101562,-92134727.47802734,-98494850.1586914,-96845909.11865234,-48022922.51586914
0.5,-224505416.8701172,-238529190.06347656,-237991073.60839844,-169236846.92382812,-151566879.27246094,-150557434.08203125,-183206726.07421875,-90180534.36279297,-49640727.99682617,-47830940.24658203,-58780673.98071289,-111309631.34765625,-109610649.10888672,-193936157.2265625,-171623962.40234375,-56441112.51831055,-32107856.75048828,-24928579.330444336,-12807576.179504395,-8607024.192810059,-35897972.106933594,-246234634.39941406,-182244018.5546875,-54491847.99194336,-41134899.1394043,6458634.853363037,2121723.175048828,-15414911.270141602,-18535907.745361328,-48074584.9609375,-30123725.89111328,-158029724.12109375,-51354248.046875,-12895470.61920166,4080533.981323242,10720152.854919434,-11445237.159729004,3113555.1929473877,-70504028.3203125,-62097824.09667969,-74160606.38427734,-87131576.53808594,-68922996.5209961,-15273156.16607666,-14766974.449157715,-18362003.326416016,-49995559.69238281,-67359138.48876953,-75893020.62988281,-107101409.91210938,-99300415.0390625,-99947776.7944336,-87491111.7553711,-41872535.705566406,-92788452.1484375,-92224884.03320312,-84897811.88964844,-88004501.34277344,-88626968.38378906,-94763870.23925781,-93861755.37109375,-50364345.55053711
