time,Fp1,Fpz,Fp2,AF3,AF4,F7,F5,F3,F1,Fz,F2,F4,F6,F8,FT7,FC5,FC3,FC1,FCz,FC2,FC4,FC6,FT8,T7,C5,C3,C1,Cz,C2,C4,C6,T8,TP7,CP5,CP3,CP1,CPz,CP2,CP4,CP6,TP8,P7,P5,P3,P1,Pz,P2,P4,P6,P8,PO7,PO5,PO3,POz,PO4,PO6,PO8,CB1,O1,Oz,O2,CB2
0.0,-776802.0033836365,-528938.2934570312,-373685.5089664459,-200210.46698093414,-232338.97984027863,-531919.0621376038,-351508.17036628723,-375598.3114242554,-4239.98711630702,153280.94363212585,248495.1913356781,-403915.1966571808,-592706.0842514038,-979002.5353431702,-179621.75607681274,-533283.2336425781,-252583.0864906311,95863.74461650848,248296.6035604477,333803.7431240082,139461.97926998138,-622873.067855835,-751561.3436698914,-545253.8728713989,-337712.3177051544,-283631.3843727112,230812.77310848236,-5158.792715519667,77784.39670801163,-10794.331319630146,-359896.09360694885,-675596.9524383545,-741085.3505134583,-588544.7859764099,-797244.9660301208,-243831.18748664856,19590.88258445263,-94136.72983646393,-733461.7376327515,-414648.02622795105,-1004280.4479598999,-665109.0979576111,-800803.8997650146,-711374.1040229797,-351796.38862609863,-451276.2129306793,-415642.55952835083,-589325.7856369019,-602645.218372345,-894819.3788528442,-1021630.5255889893,-1019206.0470581055,-1292693.7341690063,-593059.8974227905,-636561.393737793,-1328089.4756317139,-1322940.5879974365,-951455.7123184204,-978911.2210273743,-944745.0637817383,-1217382.0734024048,-978123.7840652466
0.005,8999137.878417969,18412206.649780273,11659579.277038574,22527111.053466797,23274766.92199707,525853.4550666809,8315378.189086914,7528327.465057373,21855752.94494629,24414800.6439209,22744117.736816406,12692332.26776123,3895500.898361206,-9843251.22833252,2341606.855392456,814615.8456802368,9411282.539367676,13968564.987182617,14772106.170654297,12967228.889465332,12117446.899414062,2431678.7719726562,-2198809.3852996826,-2958692.0738220215,8092879.295349121,4771520.137786865,8097463.607788086,7543074.131011963,5358345.985412598,5658841.609954834,3150877.7141571045,-2962413.3110046387,-6333907.604217529,-2496147.632598877,608624.8159408569,1324980.9741973877,811518.669128418,2004642.9634094238,5714105.606079102,60751.937329769135,-6044713.497161865,-2259034.3952178955,-1907228.3506393433,-2825823.0686187744,-2353032.350540161,-4248498.439788818,-992988.3480072021,2665041.68510437,2828125.238418579,-3462435.9607696533,-4739816.188812256,-5387587.070465088,-1096065.0444030762,-4105335.7124328613,-2015579.7004699707,-4846444.606781006,-4123346.8055725098,-6137102.127075195,-3192063.570022583,-5461063.385009766,-5891389.3699646,-7440730.571746826
0.01,15210503.578186035,28173040.39001465,19320600.509643555,32772567.749023438,35227581.02416992,2521767.3778533936,13538469.314575195,12479678.1539917,31514284.133911133,35098865.5090332,33926494.59838867,21575374.603271484,9254133.224487305,-9158615.112304688,4979125.499725342,2624961.3761901855,14826474.1897583,20333883.28552246,21179504.39453125,19364944.458007812,18875673.294067383,6525808.334350586,221779.85310554504,-3173485.279083252,12189419.746398926,7743012.428283691,12342164.993286133,10995449.06616211,7953373.908996582,8779429.43572998,6068994.998931885,-1941422.939300537,-7466816.425323486,-2188214.063644409,1714131.474494934,2723070.3830718994,1212643.6233520508,2412065.029144287,8133872.985839844,745884.0012550354,-7205948.352813721,-2699802.1602630615,-1505875.4682540894,-2871014.11819458,-2531011.5814208984,-6397119.998931885,-2772094.964981079,2646331.548690796,3481040.7161712646,-4880587.100982666,-5764769.077301025,-6524039.268493652,-1403114.4380569458,-6032846.450805664,-3859037.399291992,-7300533.771514893,-6197414.398193359,-8287745.475769043,-3891119.2417144775,-7178543.0908203125,-7921743.869781494,-10013755.798339844
0.015,18148481.369018555,30393224.716186523,22854696.27380371,32381889.34326172,36583675.384521484,4800477.027893066,15127580.642700195,14218214.988708496,30656440.73486328,33689342.4987793,34322299.95727539,26138195.037841797,14525053.977966309,-1511922.5978851318,6728368.282318115,4358704.090118408,15779130.935668945,19894411.087036133,20260877.60925293,20122058.868408203,20802322.387695312,10771283.149719238,5123098.373413086,-1269895.1959609985,12332428.932189941,8411775.588989258,12221459.38873291,10874874.114990234,8191611.289978027,9507519.721984863,8389235.496520996,1308057.6658248901,-4917783.737182617,-128433.01892280579,2201641.798019409,3298248.529434204,1291853.7855148315,1825241.5657043457,7292436.599731445,1304630.0411224365,-5582608.222961426,-1685469.150543213,34399.47962760925,-1551069.974899292,-1573412.1799468994,-6847271.919250488,-4638962.268829346,456331.7894935608,2095072.0310211182,-5167039.87121582,-4025032.9971313477,-4558010.101318359,-1500624.2990493774,-6442302.227020264,-5079483.509063721,-7850234.508514404,-6703507.423400879,-6624059.200286865,-2598712.205886841,-5961365.222930908,-7184557.4378967285,-8815688.133239746
0.02,20257209.77783203,32882392.88330078,25500186.920166016,31855743.408203125,36948547.36328125,5616198.0628967285,15171933.1741333,14421246.528625488,29745737.075805664,31935386.657714844,33240978.240966797,28923408.50830078,18151819.229125977,3771597.6238250732,6663703.441619873,5057241.439819336,15284889.221191406,18949083.32824707,18979309.08203125,20209356.3079834,21821840.286254883,13358922.958374023,8406791.687011719,542111.0391616821,12072194.09942627,8185241.69921875,10129113.19732666,10551129.341125488,8245078.086853027,9729347.229003906,10304317.474365234,3532009.1247558594,-3048452.377319336,1519783.3776474,2198818.4452056885,2948353.052139282,1381429.672241211,2093614.101409912,6891308.307647705,1377572.774887085,-4641179.084777832,-4388.516303151846,1176874.8760223389,-889457.0469856262,-1292321.0859298706,-6587860.107421875,-4561091.899871826,-278886.079788208,1492157.5784683228,-4918882.846832275,-1768217.2060012817,-2282674.3125915527,-598634.2430114746,-6430090.427398682,-4368390.083312988,-6706715.106964111,-5620477.199554443,-3431168.0793762207,-359615.35573005676,-4078781.6047668457,-5840418.338775635,-7208682.537078857
0.025,21989175.79650879,37490009.30786133,28233802.795410156,34870906.829833984,40946647.64404297,4547437.66784668,15106450.080871582,14354276.657104492,32926330.56640625,35443866.72973633,36030403.13720703,30834617.614746094,20009809.494018555,3854528.4271240234,5925638.198852539,4847643.3753967285,15636507.987976074,20593502.044677734,20788305.282592773,21590833.66394043,23463821.411132812,13859975.814819336,9092721.939086914,829462.468624115,13315268.516540527,8396244.049072266,9064900.398254395,11250528.335571289,8930302.619934082,10312791.82434082,11606923.10333252,4093758.5830688477,-3595508.337020874,2049424.648284912,2472590.208053589,2854740.858078003,1558516.502380371,3438303.9474487305,8374138.832092285,1325013.7567520142,-4698120.594024658,1442695.2600479126,1535525.0835418701,-1061675.786972046,-1654831.5286636353,-6161375.522613525,-2593479.633331299,1463304.1620254517,2604087.1143341064,-4283131.122589111,-813264.6083831787,-1564768.5527801514,540066.0037994385,-6571642.3988342285,-2478380.4416656494,-5378879.547119141,-4331585.884094238,-2061497.2114562988,1055635.5714797974,-3569980.6213378906,-5759932.041168213,-7543697.834014893
0.03,21597780.227661133,38595668.79272461,28385652.542114258,35859596.252441406,43638622.28393555,3618082.046508789,14981467.247009277,14215870.85723877,34681850.43334961,38474357.60498047,38689331.0546875,30258636.474609375,20650371.551513672,3373158.9317321777,6936483.383178711,5024344.921112061,16375761.032104492,21974496.841430664,22369688.034057617,21562482.833862305,23716197.967529297,13283937.454223633,9418711.66229248,923953.0563354492,15007224.082946777,9128076.553344727,9782317.161560059,11158446.311950684,9179561.614990234,10592218.399047852,11919869.422912598,4760039.806365967,-3693428.9932250977,2757298.9463806152,3447060.5850219727,3924780.84564209,1567984.2233657837,4415520.668029785,9977060.317993164,1812329.4115066528,-3401252.7465820312,2721065.5212402344,2310018.301010132,-656885.4451179504,-1155474.1859436035,-5473810.67276001,-822314.0239715576,3207425.594329834,3793315.4106140137,-3277934.5512390137,-833949.5658874512,-1668748.2595443726,401874.1250038147,-6708307.266235352,-1540393.352508545,-5212198.257446289,-4233224.868774414,-3467237.2341156006,797985.7325553894,-4352524.757385254,-6595481.872558594,-8822399.139404297
0.035,18444021.224975586,32868137.35961914,24001031.87561035,31186311.721801758,39552001.953125,4671038.627624512,14485023.498535156,13767915.725708008,30371519.088745117,34632591.247558594,35496929.16870117,26362340.927124023,19659864.42565918,4796191.692352295,9981197.357177734,6037092.208862305,15764326.095581055,19792581.55822754,19873210.906982422,18057247.161865234,21215526.580810547,12335664.749145508,10351194.381713867,2650376.558303833,15625529.289245605,9411187.171936035,10544543.266296387,9019531.25,8292802.810668945,10139925.003051758,11398979.187011719,5895550.25100708,-923735.0821495056,4141209.602355957,4155015.9454345703,5084485.054016113,1231883.2874298096,4329213.619232178,10353162.76550293,2864230.3943634033,-575115.7402992249,4289091.58706665,4020792.4842834473,389496.773481369,26092.128828167915,-4615231.037139893,-415685.11724472046,3155055.284500122,3908778.9058685303,-2393687.4866485596,-635667.0260429382,-1277339.220046997,-1151108.2649230957,-6698598.861694336,-2017392.635345459,-5746657.848358154,-4895259.380340576,-5279842.376708984,-326484.5311641693,-4890005.111694336,-6560392.8565979,-8709315.299987793
0.04,14136503.219604492,24501914.978027344,17416486.740112305,24690452.575683594,30969789.505004883,5903440.475463867,13029874.801635742,12301330.56640625,23108955.38330078,26159591.674804688,27622848.510742188,21131227.493286133,16447654.724121094,5137235.164642334,11734404.563903809,6051578.998565674,13016717.910766602,15011375.427246094,14695373.53515625,13197857.856750488,17583990.0970459,10817786.21673584,10289155.006408691,4462882.518768311,14712309.837341309,8204459.190368652,9680983.543395996,6210735.321044922,7079032.897949219,9536809.921264648,10599576.950073242,5849000.453948975,1932337.2840881348,4185210.704803467,2981206.178665161,4562897.682189941,730871.4985847473,4067027.5688171387,10397820.472717285,3774579.5249938965,951264.1429901123,5246609.687805176,4831818.580627441,204508.76653194427,-524695.7540512085,-4058418.7507629395,-432306.6473007202,2618926.763534546,3828564.6438598633,-2126009.225845337,-497491.15109443665,-1011201.7393112183,-2977986.0973358154,-6640947.341918945,-2117947.3400115967,-5539670.944213867,-4813160.8963012695,-5251809.597015381,-1218073.2488632202,-4352735.51940918,-4982272.624969482,-6992305.755615234
0.045,10224357.604980469,19380174.63684082,13060992.240905762,20913516.998291016,24843910.217285156,3068830.728530884,9649770.736694336,8827389.71710205,18496824.264526367,20066850.662231445,21515075.68359375,17505142.211914062,12270468.711853027,2584754.228591919,8541057.586669922,2836862.325668335,9087653.160095215,11193329.811096191,11422031.40258789,10543478.012084961,15088807.106018066,8773285.865783691,8346233.367919922,2260415.79246521,12195590.019226074,5514311.790466309,7930531.024932861,4773687.839508057,6523945.331573486,9214149.475097656,9659591.674804688,4029657.3638916016,-192433.58075618744,922227.2634506226,-165748.2534646988,2687230.348587036,431868.43395233154,4284607.887268066,10897771.835327148,3775126.4572143555,-566459.9537849426,3494444.1318511963,2441998.4817504883,-2207747.459411621,-3740668.535232544,-4207819.46182251,-72797.45489358902,3068547.010421753,4171869.7547912598,-2595548.391342163,-2102514.2669677734,-2736920.5951690674,-4720277.786254883,-6827920.913696289,-1129423.3798980713,-4805770.8740234375,-4180693.1495666504,-4638518.810272217,-2143494.3675994873,-3737152.576446533,-3602381.706237793,-6136453.628540039
0.05,6989680.767059326,18811115.264892578,13003743.171691895,19317625.045776367,24823036.193847656,-5031011.10458374,4449002.742767334,3634318.8285827637,17703737.258911133,19524192.810058594,21227210.998535156,17047241.2109375,9941581.726074219,193684.6822500229,802180.4094314575,-3002148.389816284,5957825.183868408,10456491.470336914,12245267.868041992,11222807.884216309,14418886.184692383,7246083.2595825195,6178747.653961182,-5028194.427490234,8272531.509399414,2738685.131072998,7474010.944366455,5156466.007232666,6644295.215606689,8888188.362121582,8374628.067016602,1993034.3627929688,-7692771.434783936,-4260173.797607422,-3271710.3958129883,1663605.0939559937,531991.6605949402,4325356.006622314,10837207.794189453,2568450.2124786377,-3699151.2775421143,-1470645.0700759888,-2663193.2258605957,-5357568.740844727,-6559249.401092529,-5147782.802581787,-262335.3898525238,3154260.1585388184,3539405.107498169,-4138412.9524230957,-6030998.229980469,-6754405.498504639,-7181338.310241699,-7922806.739807129,-1353797.6741790771,-5803660.3927612305,-5291021.347045898,-6509467.124938965,-4223067.283630371,-4743505.954742432,-4798646.450042725,-8387730.598449707
0.055,4778787.136077881,20879455.56640625,15937952.995300293,17787809.371948242,29065946.578979492,-14241678.237915039,-545056.3430786133,-1156240.3440475464,18385778.427124023,22346738.815307617,25216011.04736328,19714731.216430664,11167873.38256836,935345.9477424622,-7333729.267120361,-8228410.720825195,4871325.492858887,12068835.258483887,15285050.392150879,13944711.685180664,15487591.743469238,7388514.518737793,5701344.966888428,-12915467.262268066,4129017.8298950195,1302767.6343917847,8654050.827026367,6473178.386688232,7072178.840637207,8596329.689025879,7224756.240844727,1122654.5572280884,-15191483.497619629,-7874250.411987305,-4569531.9175720215,2253782.033920288,877431.6310882568,3696452.1408081055,9520630.836486816,669098.7348556519,-6306358.337402344,-6977707.862854004,-7241095.066070557,-7361699.104309082,-5154847.145080566,-6454000.949859619,-1617177.4864196777,1178074.9559402466,931158.6022377014,-7091794.013977051,-10323144.912719727,-10866409.301757812,-10223228.454589844,-10286013.60321045,-4598887.4435424805,-9459764.48059082,-9012853.622436523,-10965509.414672852,-7303600.788116455,-7549619.197845459,-8425965.309143066,-12847013.473510742
0.06,4448593.616485596,24216485.97717285,19530157.0892334,17004480.361938477,33879001.61743164,-19698841.094970703,-3527998.685836792,-3918345.6897735596,18954524.993896484,25290412.90283203,29534311.294555664,24154483.795166016,14972302.436828613,3696256.399154663,-12491570.472717285,-10891390.800476074,4801697.731018066,13535145.75958252,17267890.93017578,16887460.708618164,18191017.150878906,9277021.408081055,6990677.356719971,-16397413.25378418,1168977.4990081787,777476.966381073,8938510.89477539,7605157.852172852,7694667.339324951,9217660.903930664,7523953.914642334,1309794.1875457764,-17977111.81640625,-8676524.16229248,-4745126.247406006,2473744.6308135986,1069300.889968872,3366192.34085083,8709703.44543457,-415364.6528720856,-7527256.965637207,-9662904.739379883,-8819972.038269043,-8222966.194152832,24136.289954185486,-6978941.917419434,-2286436.080932617,-865381.9561004639,-1354299.3068695068,-10129541.397094727,-12271705.627441406,-12589563.369750977,-11853046.417236328,-12512690.544128418,-8071535.110473633,-12792697.90649414,-12236119.270324707,-14127358.436584473,-9354367.25616455,-9999612.808227539,-11183650.970458984,-15918322.563171387
0.065,5632721.424102783,27515190.12451172,21846078.872680664,18086845.39794922,36351524.353027344,-20856657.028198242,-4977145.671844482,-5335235.595703125,19100923.538208008,26368074.417114258,31187232.971191406,27221836.09008789,18391843.795776367,5852679.72946167,-14517548.561096191,-12162153.244018555,3524323.2250213623,12508715.629577637,16305677.41394043,18127237.31994629,20968257.904052734,11585360.527038574,8836419.105529785,-15613564.491271973,-405882.41815567017,-528848.3500480652,6270768.165588379,7485237.121582031,8109968.185424805,11057964.324951172,9691967.964172363,2157760.8585357666,-16866878.509521484,-8550110.816955566,-5553199.291229248,687968.7309265137,810616.0759925842,4329430.58013916,10492328.643798828,755772.8290557861,-6972801.208496094,-8971088.409423828,-7997918.128967285,-8835949.897766113,4533567.428588867,-5706707.000732422,-85377.60376930237,845836.5797996521,77786.00603342056,-10402773.8571167,-11215989.112854004,-11571044.921875,-10626528.7399292,-12025588.989257812,-7039203.16696167,-11809266.090393066,-11023193.359375,-12757698.059082031,-8609003.067016602,-9574983.596801758,-10031838.417053223,-14860617.637634277
0.07,6277187.347412109,28225475.311279297,21332107.543945312,19267740.24963379,34708740.234375,-20192436.21826172,-6101160.049438477,-6583383.560180664,18335062.02697754,24454420.08972168,28807775.497436523,25370828.62854004,18399600.982666016,6419552.803039551,-14497630.11932373,-13431669.235229492,831540.3461456299,8984419.822692871,12832127.571105957,16048885.345458984,20761926.651000977,12328407.287597656,9853651.04675293,-14148761.749267578,-1080358.624458313,-2697581.2911987305,2567191.6007995605,5659708.023071289,7455139.16015625,12707115.173339844,11915553.092956543,3421039.581298828,-15453435.897827148,-8892310.14251709,-6805175.78125,-1527630.2099227905,245992.10917949677,5679953.098297119,13747976.303100586,3530029.296875,-4516015.05279541,-7150383.472442627,-6832911.014556885,-8978492.736816406,5240660.667419434,-3431128.978729248,3723111.391067505,5978007.793426514,4715225.2197265625,-7001684.665679932,-9031908.988952637,-9559734.344482422,-8115032.196044922,-8453323.364257812,-1663150.1913070679,-6824721.336364746,-5966940.402984619,-8492185.592651367,-5904924.392700195,-6390226.364135742,-5982316.017150879,-10730108.261108398
0.075,5151575.088500977,25339429.85534668,18137922.286987305,18227073.669433594,29558984.756469727,-18908615.112304688,-6499533.653259277,-7096739.292144775,16516725.540161133,19935184.478759766,23169599.533081055,18842657.0892334,14377079.963684082,5430163.383483887,-12783671.379089355,-13668865.203857422,-672925.6510734558,5844130.039215088,9143715.858459473,11402221.6796875,16690429.6875,10599003.791809082,9092739.10522461,-13549054.145812988,-544600.8443832397,-3458914.5183563232,1824770.450592041,3325505.495071411,5658264.636993408,12556096.076965332,11892668.724060059,4145003.7956237793,-15098516.464233398,-8651758.193969727,-6583911.418914795,-1451206.5649032593,-115224.6966958046,5637746.810913086,15097776.412963867,5178296.089172363,-1683724.284172058,-6250433.921813965,-6242764.949798584,-7957145.214080811,3399277.925491333,-2447335.2432250977,5394065.380096436,9479577.06451416,8124059.677124023,-2923964.500427246,-7980925.0831604,-8461883.544921875,-7301554.203033447,-5049791.8128967285,2455560.9226226807,-2482781.8870544434,-1834459.0663909912,-5855122.5662231445,-3912704.9446105957,-3390687.942504883,-3065599.9183654785,-7202083.587646484
0.08,3661331.89201355,22267986.297607422,15712450.981140137,15776302.337646484,25105648.040771484,-16924999.237060547,-5572958.946228027,-6210619.4496154785,14698605.53741455,15622374.534606934,17975128.173828125,13493723.86932373,10018514.633178711,3815471.887588501,-10389651.29852295,-11772738.456726074,676495.0752258301,5800352.573394775,7704200.267791748,7990525.722503662,12659534.454345703,8327983.856201172,7522711.753845215,-12728104.591369629,1447975.0394821167,-1571792.721748352,4602910.51864624,2641378.402709961,4252901.554107666,11310911.178588867,10189879.417419434,3759585.8573913574,-14891945.838928223,-7118237.018585205,-4656362.056732178,643620.6102371216,61622.049659490585,4285765.171051025,13716019.630432129,4335156.440734863,-619947.0162391663,-6355887.889862061,-5892982.006072998,-6565052.9861450195,1891891.1218643188,-3599517.1070098877,3810050.4875183105,8424311.637878418,7884667.873382568,-1422321.2003707886,-8492558.479309082,-8699921.607971191,-8589149.475097656,-4883806.228637695,1920044.0645217896,-1737230.1816940308,-1301568.2697296143,-6691159.248352051,-3957493.543624878,-2907528.877258301,-3270359.992980957,-6408483.028411865
0.085,3840211.868286133,23459945.678710938,18201293.9453125,14490411.758422852,26083862.3046875,-15712958.335876465,-4920283.317565918,-5544728.2791137695,13922292.709350586,14696961.402893066,17652297.973632812,15327150.344848633,10916986.465454102,4560341.835021973,-9843338.012695312,-9683210.372924805,2759333.848953247,7954683.780670166,9034551.620483398,9091053.96270752,13481363.296508789,9045636.177062988,8338546.7529296875,-11666497.230529785,3355052.947998047,728470.5638885498,6905447.483062744,4140388.011932373,4801905.155181885,11421215.057373047,10066687.58392334,4002507.6866149902,-14606673.240661621,-6094746.5896606445,-3437382.221221924,1735265.9702301025,533778.965473175,3579592.704772949,12690589.904785156,3248121.2615966797,-873016.7150497437,-6504717.3500061035,-5512707.710266113,-6411854.267120361,1324856.162071228,-4880041.122436523,1929802.0601272583,6024581.9091796875,6671550.750732422,-1715011.5966796875,-9098143.577575684,-9161075.592041016,-9174664.497375488,-6760672.569274902,30836.820602416992,-2483673.095703125,-1936567.6641464233,-8418512.344360352,-4600362.777709961,-3893962.860107422,-4312727.451324463,-6936494.35043335
0.09,5665624.618530273,28365310.668945312,24905698.776245117,15258772.850036621,32250823.974609375,-16995220.184326172,-6121711.254119873,-6649562.358856201,14398158.073425293,17609964.37072754,22781696.319580078,22952571.868896484,17859184.26513672,9669353.485107422,-11928453.44543457,-9888519.287109375,2970663.547515869,9426835.060119629,11606349.94506836,13445059.776306152,18466659.545898438,13252833.366394043,12940521.240234375,-11717707.633972168,3407180.070877075,876900.3748893738,5954168.796539307,5897778.9878845215,6686909.198760986,13405320.167541504,12720137.596130371,6745870.590209961,-14726863.861083984,-7023248.195648193,-4348130.702972412,598994.6126937866,770447.7906227112,4261325.836181641,14199161.529541016,4382821.083068848,-60216.132551431656,-6097826.00402832,-5103287.220001221,-7355639.457702637,236780.43484687805,-4490692.138671875,1939207.911491394,6145930.767059326,7283452.987670898,-1262187.8385543823,-8445393.562316895,-8675593.376159668,-7265598.773956299,-7467625.617980957,765393.316745758,-2079931.9744110107,-1213440.5374526978,-8272092.819213867,-4136776.924133301,-4025755.4054260254,-3760024.5475769043,-6746521.472930908
0.095,7653635.025024414,31691503.524780273,29659538.26904297,17308292.388916016,37811691.28417969,-18686262.130737305,-6974504.9476623535,-7301161.289215088,16527189.254760742,22202373.504638672,28957754.135131836,28205593.10913086,23822376.251220703,14891799.926757812,-13082554.817199707,-10774384.498596191,2848642.349243164,10030207.633972168,14003939.628601074,16578014.373779297,21537738.800048828,16098709.106445312,16897048.950195312,-12127140.045166016,2762608.289718628,251760.45298576355,4558933.258056641,6098996.639251709,7530228.614807129,14230207.443237305,14383728.981018066,9554634.094238281,-14411473.274230957,-7850752.353668213,-5240714.550018311,-296519.2496776581,568077.2662162781,4497767.925262451,15616909.02709961,5798481.9412231445,1374354.2432785034,-5190159.320831299,-4461079.120635986,-7514477.729797363,-2032918.2147979736,-3960622.787475586,1780382.0371627808,6930380.344390869,7464962.482452393,-1050899.3864059448,-7154673.5763549805,-7645431.5185546875,-5274419.784545898,-7052652.835845947,1885124.2065429688,-2337828.6361694336,-1372708.4398269653,-7331261.63482666,-3482883.6917877197,-3651962.0418548584,-3286565.5422210693,-6651608.943939209
0.1,8931525.230407715,30009906.768798828,27839822.76916504,19787420.27282715,37739681.243896484,-16753080.368041992,-4166437.1490478516,-4304440.021514893,20476251.60217285,26174295.42541504,31453969.955444336,25654447.555541992,21378074.645996094,12969389.915466309,-9747723.579406738,-8632270.812988281,5600956.439971924,12098049.16381836,16128952.026367188,16178108.215332031,18849786.75842285,12709856.033325195,14180932.998657227,-10450126.647949219,4092874.050140381,2013799.1905212402,6828722.953796387,5307236.671447754,6192137.718200684,11188315.391540527,10950643.539428711,7548847.675323486,-12625446.319580078,-5995150.566101074,-3699901.819229126,1308828.7115097046,197358.05690288544,2747051.239013672,13314418.79272461,3505359.888076782,-156953.8712501526,-4441480.63659668,-3766639.9478912354,-6382744.312286377,-4461200.23727417,-5890445.232391357,-1057345.7479476929,4217028.617858887,3625174.045562744,-4194568.634033203,-7322069.16809082,-7917978.763580322,-6965625.286102295,-8512028.694152832,-1150800.9433746338,-6234193.801879883,-5530819.892883301,-8716293.334960938,-5029873.371124268,-5306715.01159668,-6014694.2138671875,-8858767.50946045
0.105,9117913.246154785,25628898.62060547,22454988.479614258,21149913.787841797,33388904.571533203,-12577406.883239746,-6800.651084631681,-121765.03241062164,23787229.537963867,28114286.422729492,30116336.822509766,19241355.895996094,12882761.95526123,4692746.162414551,-5035317.897796631,-4740919.589996338,9483853.340148926,15193807.601928711,17872732.162475586,14465341.567993164,14078861.236572266,5769125.461578369,6559805.870056152,-7836480.140686035,6450300.216674805,5070025.444030762,11189915.657043457,5076142.311096191,4484464.168548584,6659540.65322876,4870331.764221191,1369656.3243865967,-11226100.92163086,-3466138.3628845215,-1519559.7410202026,3634923.9349365234,-15683.874487876892,574905.3955078125,9071959.495544434,-1403546.3333129883,-4940318.584442139,-5053940.773010254,-4279707.908630371,-6141917.705535889,-6052037.715911865,-9396049.499511719,-4517894.268035889,-525123.7750053406,-1892424.3450164795,-9255815.505981445,-9998217.582702637,-10592359.54284668,-12143199.920654297,-12192064.28527832,-6544823.64654541,-11362730.979919434,-10953001.976013184,-12711645.126342773,-8812052.726745605,-9130538.940429688,-10646572.11303711,-12588143.348693848
0.11,7492286.682128906,23427579.879760742,21128511.428833008,19301940.91796875,30788970.947265625,-13713514.32800293,-1429020.2856063843,-1650442.4810409546,22731508.255004883,27571809.768676758,28837497.71118164,17548477.172851562,9210882.186889648,1179465.0554656982,-6682439.32723999,-5591496.467590332,8681819.915771484,15260306.358337402,18384740.829467773,14982930.183410645,14179248.809814453,4153696.060180664,4035805.7022094727,-9624509.811401367,5185110.092163086,4421444.416046143,11849813.461303711,5523096.084594727,5162280.082702637,6466290.473937988,3819557.6667785645,-1064170.3605651855,-13609798.431396484,-5089215.278625488,-2753262.519836426,3123931.646347046,-21733.04744064808,793259.9186897278,8825349.807739258,-2334405.6606292725,-7103520.87020874,-7732564.449310303,-6989801.88369751,-8604601.860046387,-6979071.617126465,-10834897.994995117,-4372243.881225586,-1191952.8245925903,-2410680.7708740234,-10107693.672180176,-13560912.132263184,-14217535.018920898,-16384742.736816406,-14371137.619018555,-7547422.885894775,-11749167.442321777,-11353387.832641602,-15871779.441833496,-11691506.385803223,-11485072.135925293,-12004689.21661377,-13943709.373474121
0.115,4351365.566253662,25622743.606567383,27474121.09375,14943508.14819336,33951927.185058594,-23803407.669067383,-10059279.441833496,-10322937.965393066,17997888.565063477,25961469.650268555,30803611.755371094,23625415.802001953,16640275.955200195,10198279.38079834,-16639120.101928711,-13543333.053588867,2270185.4705810547,11133475.303649902,17748197.555541992,18368837.356567383,20806190.490722656,12118802.070617676,12604240.417480469,-17613130.569458008,-1032216.9065475464,-1158866.8823242188,7316453.93371582,5735491.752624512,8492755.889892578,12642612.45727539,11076501.846313477,5660125.732421875,-19251575.469970703,-11025510.787963867,-7423774.242401123,-346623.59952926636,61952.71760225296,3415205.240249634,14388715.744018555,3947269.4396972656,-1970434.069633484,-11165802.955627441,-10427662.84942627,-11994010.925292969,-7637463.569641113,-9129219.055175781,-688530.8623313904,3748147.487640381,3627109.0507507324,-4537843.704223633,-15122713.088989258,-15884387.016296387,-16310052.871704102,-12753021.240234375,-2603896.141052246,-6621143.341064453,-6059755.802154541,-15328232.765197754,-11107522.964477539,-9594503.402709961,-8154540.061950684,-11091167.449951172
0.12,2076602.2205352783,30204797.744750977,37175067.90161133,12398965.835571289,40568153.381347656,-35575019.83642578,-18140996.9329834,-18309139.251708984,15387665.748596191,25836116.790771484,34894317.626953125,31737764.358520508,28626367.568969727,24678817.749023438,-26746524.810791016,-21655021.66748047,-2854710.578918457,7636663.913726807,17455453.872680664,21765808.10546875,28115859.985351562,22991914.749145508,25448246.002197266,-25190345.764160156,-6611686.706542969,-6012894.630432129,2935047.149658203,5590305.328369141,11630570.411682129,20067403.79333496,20450977.325439453,16310129.165649414,-22676546.096801758,-14979835.510253906,-10570756.912231445,-3082781.0764312744,161561.17618083954,5613402.366638184,20266674.041748047,11934381.484985352,6638820.171356201,-12504339.218139648,-11346482.276916504,-12570774.07836914,-7539704.7996521,-7043180.9425354,2266999.7215270996,8653912.544250488,9923515.319824219,1721127.986907959,-13444616.317749023,-14183955.192565918,-13107486.724853516,-9733238.220214844,2276615.619659424,-2066835.4034423828,-1430772.1853256226,-12132219.314575195,-8141287.803649902,-5317863.941192627,-3279767.0364379883,-7001375.198364258
0.125,2243101.119995117,33106521.606445312,42668632.50732422,13839759.826660156,44213737.48779297,-39119010.92529297,-18481460.571289062,-18559017.181396484,17670698.165893555,27071180.34362793,36598709.10644531,34172420.501708984,33744632.720947266,31174953.46069336,-28313943.86291504,-22289468.76525879,-1511798.1433868408,8548552.513122559,17643768.310546875,21670578.002929688,29359645.84350586,26850406.646728516,31107532.501220703,-24749650.955200195,-5975088.596343994,-5181050.777435303,3088919.6395874023,5462694.16809082,11687398.910522461,22192081.451416016,23622148.513793945,21398281.09741211,-20063463.21105957,-12195791.244506836,-8927298.545837402,-2646780.014038086,255692.09456443787,5827567.577362061,20911750.79345703,14464527.130126953,11140222.549438477,-10343997.955322266,-8430251.121520996,-9370868.682861328,-5981705.188751221,-6305507.183074951,2875152.587890625,9356862.06817627,11303779.602050781,3059565.0672912598,-10050190.925598145,-10619832.038879395,-10085449.21875,-8064452.171325684,3193078.04107666,-1887144.684791565,-1306354.284286499,-9350291.25213623,-5690354.824066162,-2310147.762298584,-1617125.8687973022,-5273268.222808838
0.13,2519036.054611206,31569751.739501953,40615474.700927734,14954020.500183105,40908061.98120117,-35035774.23095703,-14670301.43737793,-14793866.157531738,19411031.72302246,25750846.86279297,32762462.615966797,29562757.49206543,29333984.375,26999513.626098633,-23285894.3939209,-17846483.23059082,1714880.5856704712,10177155.494689941,15956668.853759766,17388832.092285156,24211164.474487305,22470666.885375977,27791017.532348633,-18266828.536987305,-1580838.4418487549,-1710605.7405471802,4965391.635894775,4914672.374725342,8970729.82788086,18732259.75036621,20283138.275146484,19363315.58227539,-14743901.252746582,-6383722.78213501,-5651952.743530273,-973987.2217178345,334839.22481536865,5734614.849090576,17983310.69946289,12149616.241455078,10238938.331604004,-6961047.172546387,-4549101.829528809,-5867205.619812012,-3565363.883972168,-5098588.943481445,4404135.227203369,9058789.253234863,10581439.971923828,1865488.6484146118,-7776170.253753662,-8239803.314208984,-8847966.194152832,-6814816.951751709,3954117.0597076416,-2071214.9143218994,-1527635.8127593994,-8458004.95147705,-4996172.904968262,-1431098.3419418335,-1980942.726135254,-5519017.696380615
0.135,-156493.57438087463,26990842.819213867,34758102.41699219,10972638.130187988,33918655.39550781,-33019439.697265625,-15535925.86517334,-15767831.802368164,14973686.218261719,20250099.182128906,26155452.728271484,23850444.793701172,23252422.332763672,21666696.548461914,-21130638.122558594,-17185764.31274414,-664311.3493919373,7202272.891998291,11744543.075561523,12480225.563049316,18779718.39904785,17652954.1015625,23770879.7454834,-15160888.671875,-723576.2476921082,-2097317.934036255,3584418.0583953857,3667071.81930542,6664366.245269775,15245511.054992676,17224149.703979492,16768945.693969727,-13381134.986877441,-5251511.573791504,-5986809.253692627,-1267778.8734436035,446549.80301856995,7178788.661956787,16977582.931518555,11004110.336303711,8877579.689025879,-6498961.448669434,-4200348.377227783,-6281117.4392700195,-2371454.954147339,-2481345.1766967773,8581069.946289062,11803787.231445312,12506545.066833496,3346934.0801239014,-8694586.753845215,-9304101.943969727,-9389048.57635498,-4836675.643920898,7967804.908752441,1562050.700187683,2129288.673400879,-9147637.367248535,-5614760.398864746,-1608032.3457717896,-1438192.7251815796,-5521271.705627441
0.14,-3323663.7115478516,24818035.125732422,32306411.743164062,5517366.886138916,31385656.356811523,-37339702.60620117,-21455715.17944336,-21695035.934448242,8901304.244995117,16471412.658691406,24253532.40966797,23734701.15661621,23063478.469848633,22281188.96484375,-25646007.537841797,-22355226.516723633,-6973549.365997314,2389778.1372070312,9371877.670288086,12188295.364379883,18976848.602294922,18393884.658813477,24602806.091308594,-19697265.625,-5130899.906158447,-6417302.60848999,-54195.161908864975,3302917.957305908,7315076.3511657715,15675498.962402344,18453733.444213867,17411005.0201416,-17659406.661987305,-10524013.51928711,-10059400.55847168,-3549027.442932129,646150.2909660339,9101671.21887207,18910779.95300293,12634575.843811035,9218842.506408691,-10487695.693969727,-8632907.86743164,-10924183.84552002,-3999423.027038574,-1729369.5211410522,11280421.257019043,14683006.286621094,15113381.385803223,5959887.981414795,-12775908.470153809,-13703565.59753418,-11811297.416687012,-4916499.137878418,10527826.309204102,5020612.716674805,5605414.390563965,-11155485.153198242,-7453042.030334473,-3321087.121963501,-1244698.8821029663,-5894867.420196533
0.145,-637550.5924224854,29372510.91003418,37226863.861083984,7306730.270385742,37673389.43481445,-40968204.498291016,-23463937.759399414,-23586078.643798828,11150919.914245605,21596387.86315918,31203756.33239746,29647336.959838867,27861082.077026367,25581068.03894043,-30500261.306762695,-25678236.00769043,-8170837.40234375,3618058.919906616,13351182.93762207,17887559.89074707,24628612.518310547,22354629.516601562,26917537.689208984,-25688690.185546875,-8740921.974182129,-8339894.2947387695,-673721.1346626282,5522859.0965271,10161044.120788574,18259040.83251953,20936080.932617188,18032228.469848633,-22622978.21044922,-16094863.891601562,-13069522.857666016,-5105244.6365356445,819080.8892250061,9286785.125732422,19911516.189575195,12807879.447937012,8135295.867919922,-15732030.868530273,-14166648.864746094,-15833411.21673584,-7399810.791015625,-5592278.480529785,8370793.342590332,12382177.352905273,13128717.422485352,3917582.9887390137,-17506425.857543945,-18646535.873413086,-15366815.567016602,-9703360.557556152,5829240.322113037,1863787.4126434326,2491861.10496521,-14010580.062866211,-10404086.112976074,-7430304.050445557,-4373236.179351807,-8732773.780822754
0.15,8391429.901123047,37826290.130615234,46240139.00756836,17164426.803588867,47424110.412597656,-37128898.62060547,-16932836.532592773,-16937385.55908203,22005393.981933594,32599075.317382812,41244537.353515625,35085830.68847656,31643465.042114258,26216650.009155273,-29154369.354248047,-21556703.567504883,-1475337.6245498657,11387931.823730469,20778167.724609375,24282546.997070312,29933160.78186035,24045270.919799805,26332551.956176758,-25660972.595214844,-6613010.406494141,-4780790.328979492,2764095.3063964844,8648547.172546387,12114155.769348145,19183202.743530273,20702054.977416992,16025953.29284668,-23212005.615234375,-16135059.356689453,-11912381.172180176,-4395077.228546143,714172.7805137634,7836005.687713623,18221149.444580078,9709747.314453125,4552090.167999268,-17354970.932006836,-15722090.721130371,-16780717.849731445,-9296685.218811035,-10595504.760742188,2849045.991897583,6764169.216156006,7773637.294769287,-2033267.9748535156,-19201911.92626953,-20274990.08178711,-17076694.48852539,-15399468.421936035,-2083029.03175354,-5385828.018188477,-4596532.821655273,-15641098.976135254,-12484007.835388184,-11258341.789245605,-8735029.220581055,-12421364.784240723
0.155,15087137.222290039,41950260.162353516,52000999.450683594,24723451.614379883,50723079.681396484,-30019945.14465332,-8942540.168762207,-8924057.006835938,29477735.51940918,37324066.162109375,43596698.76098633,33318622.589111328,31217844.009399414,25450313.568115234,-23657852.172851562,-14744588.851928711,5022673.1300354,16492162.704467773,23247068.405151367,24321420.669555664,29422973.6328125,22348583.221435547,24904413.2232666,-20438138.961791992,-1350045.084953308,-149903.19311618805,5443737.506866455,8621577.262878418,11086482.048034668,17561056.13708496,18673301.696777344,14736287.117004395,-19582197.189331055,-11402212.142944336,-8423110.008239746,-2530803.2035827637,279713.06443214417,6756324.768066406,16712984.085083008,7471918.58291626,2933484.7927093506,-13668466.567993164,-11710292.81616211,-13093358.993530273,-7433477.878570557,-10617807.388305664,1412060.022354126,5194481.372833252,6192432.880401611,-4001068.115234375,-16000490.188598633,-16837581.634521484,-14355763.43536377,-15055531.50177002,-3312797.5463867188,-7214149.951934814,-6227251.052856445,-13672286.987304688,-10940334.32006836,-10123069.763183594,-8426224.708557129,-12194233.894348145
0.16,12167086.601257324,37722400.6652832,50909778.5949707,21597921.37145996,44661735.53466797,-28056617.736816406,-8137817.3828125,-8169266.700744629,24923004.150390625,29729974.7467041,35240848.541259766,24832689.28527832,28307224.27368164,26889251.708984375,-20128385.543823242,-12870313.64440918,3847642.421722412,12627986.907958984,17505767.822265625,17422719.955444336,23407930.374145508,20072317.123413086,26404628.75366211,-16051990.509033203,1620529.1748046875,585864.7227287292,4141558.6471557617,4462484.836578369,7972233.295440674,15205217.361450195,17805553.436279297,17305862.426757812,-15252739.906311035,-6452953.815460205,-5824316.024780273,-1126588.3445739746,-164089.3667936325,6657012.462615967,17454208.374023438,9195741.653442383,6059179.782867432,-7578286.170959473,-5319049.835205078,-7738892.555236816,-3225039.005279541,-5421947.956085205,5146314.1441345215,9588463.78326416,10646677.017211914,1236544.0130233765,-10005579.948425293,-10684322.357177734,-9088911.056518555,-8242473.602294922,3764837.5034332275,-802166.7003631592,191833.58550071716,-8704547.882080078,-5969731.330871582,-3863436.460494995,-2449754.476547241,-7001857.280731201
0.165,4415698.051452637,31138593.673706055,47094696.044921875,13073842.04864502,37310840.60668945,-30808498.38256836,-12592412.948608398,-12682634.353637695,15042974.472045898,18877061.84387207,25674478.53088379,17449563.98010254,26098625.18310547,29039014.81628418,-19608385.08605957,-15494112.014770508,-1712939.739227295,5338132.858276367,10170400.619506836,10732131.004333496,17599294.662475586,18906745.91064453,28999631.881713867,-14760006.90460205,1486257.553100586,-1465196.2518692017,1589527.3685455322,321130.03730773926,5492357.25402832,13471705.436706543,17861557.006835938,20319355.010986328,-12379250.526428223,-3724232.6736450195,-4838489.532470703,-491257.3993206024,-226470.85785865784,6196789.264678955,18228265.7623291,11652324.676513672,9528185.844421387,-3152003.049850464,-1112680.5543899536,-4226170.063018799,-297454.1187286377,-1045938.0149841309,8574049.949645996,13671349.52545166,14921289.443969727,6824706.554412842,-5313127.517700195,-6017405.5099487305,-6081292.629241943,-2139719.009399414,10280055.99975586,5773231.983184814,6533299.922943115,-4092662.811279297,-1050295.7105636597,1989814.9967193604,3090692.7585601807,-1771454.930305481
0.17,2709981.4414978027,30848957.061767578,46916286.46850586,10818623.542785645,37814044.95239258,-30838386.53564453,-13971035.957336426,-14098885.536193848,12593135.833740234,17656723.022460938,25709972.381591797,17845832.82470703,25996860.50415039,27911516.189575195,-18923831.939697266,-16481897.354125977,-3575582.74269104,3863767.8623199463,9218079.566955566,10744039.535522461,17055332.18383789,18150079.72717285,28014547.34802246,-14309093.475341797,1103949.5468139648,-2399692.2969818115,1495594.9783325195,287636.6376876831,5414816.856384277,12403763.771057129,16543031.692504883,18645500.18310547,-10981513.977050781,-2856207.1323394775,-4593991.756439209,-274340.74878692627,141952.17192173004,4880047.798156738,16689533.233642578,10560780.52520752,7971270.0843811035,-1941485.5241775513,-944251.0604858398,-3783509.0160369873,-416919.9764728546,-1305235.2666854858,8043382.64465332,12572978.973388672,13711089.134216309,5778445.720672607,-3968594.0742492676,-4766098.499298096,-7115945.339202881,-1806407.4516296387,9797417.640686035,5302202.7015686035,5820431.232452393,-2190128.3264160156,984266.9367790222,3101725.3398895264,3316301.8226623535,-1030294.2991256714
0.175,8821951.866149902,36766357.421875,50828765.869140625,16947246.551513672,45128566.74194336,-27136241.912841797,-10737785.339355469,-10880447.387695312,19358062.744140625,26333948.135375977,34233646.392822266,24200065.61279297,27374216.079711914,24439020.15686035,-18306362.15209961,-14600241.661071777,-693813.681602478,8576428.413391113,14117379.188537598,15847212.791442871,21097175.59814453,17588727.951049805,23990560.53161621,-14188977.241516113,1145698.3089447021,-1846843.3618545532,3040877.103805542,3212960.720062256,7126088.1423950195,12186106.68182373,14347517.967224121,13873524.66583252,-11182349.20501709,-3559866.9052124023,-4968831.0623168945,-414244.23456192017,652964.0555381775,4195643.424987793,14615022.659301758,7556323.528289795,3374782.3238372803,-2919264.316558838,-3207325.9353637695,-5183429.718017578,-1856222.152709961,-3364698.886871338,6193911.552429199,9382378.578186035,10054114.34173584,811800.7779121399,-4811830.043792725,-5623819.828033447,-9135016.441345215,-4319002.151489258,6142373.085021973,883322.4177360535,1378174.901008606,-2451841.5927886963,525563.8360977173,1247172.7132797241,710819.7212219238,-3424153.5663604736
0.18,13065217.971801758,40367797.8515625,53284976.959228516,21963104.248046875,49996669.76928711,-27618875.50354004,-9964165.687561035,-10106224.060058594,25162631.98852539,33308273.315429688,40330017.08984375,28888708.114624023,28732725.143432617,23598827.362060547,-21554573.05908203,-14938111.305236816,917137.4440193176,12095839.500427246,17867546.08154297,19276874.542236328,24861249.923706055,18532794.952392578,22598371.505737305,-16704423.904418945,-305534.36279296875,-2135624.408721924,3236053.705215454,4908468.246459961,8729070.663452148,13437051.773071289,14648676.872253418,12661081.314086914,-13362197.875976562,-5832109.451293945,-6028470.516204834,-727325.0222206116,1012885.332107544,5155406.475067139,15045545.57800293,7682073.593139648,2398892.879486084,-4621788.501739502,-5229582.3097229,-6507290.840148926,-2052518.1293487549,-3216246.6049194336,6606545.925140381,9282365.798950195,9907089.233398438,-491229.92157936096,-6008212.566375732,-6764944.553375244,-9056249.618530273,-4733297.824859619,5489781.856536865,-330727.6964187622,308168.08342933655,-3412619.8291778564,-605810.9402656555,477012.42566108704,264755.12981414795,-4828616.142272949
0.185,8229593.276977539,36239231.10961914,50559253.69262695,18292873.38256836,46989551.54418945,-36146419.525146484,-15920590.4006958,-16076810.836791992,22353996.27685547,30703357.696533203,37389854.431152344,27659118.65234375,29094364.166259766,27033479.690551758,-28320318.2220459,-19848703.384399414,-1933734.8937988281,10426049.23248291,16633914.947509766,17791406.631469727,25248985.290527344,21575492.85888672,26688991.54663086,-21358678.817749023,-3084398.5080718994,-3322299.2420196533,2050715.2080535889,3979336.2617492676,9129959.106445312,15966795.921325684,18867330.55114746,17728233.337402344,-16123197.555541992,-8012338.638305664,-6624104.976654053,-606368.1840896606,1119522.4523544312,6503407.955169678,17389341.354370117,11985789.29901123,7220524.787902832,-5939522.743225098,-5541850.0900268555,-6712079.048156738,-727772.7723121643,-1424547.1954345703,8359310.150146484,11896699.905395508,13614473.342895508,3666652.202606201,-6861617.565155029,-7596466.064453125,-7573818.683624268,-3180614.709854126,7273130.416870117,2575446.367263794,3297426.93901062,-4201655.387878418,-1310589.075088501,1603822.2312927246,2454995.632171631,-3936167.001724243
0.19,-899038.8512611389,28686834.33532715,45646972.65625,9467320.442199707,40476562.5,-45350227.35595703,-23693416.595458984,-23922897.338867188,14414175.033569336,22786027.908325195,30112606.048583984,23607011.795043945,29115949.630737305,31343275.07019043,-32614162.44506836,-24870286.94152832,-5760444.641113281,6934804.439544678,13151026.725769043,14381929.397583008,23720764.16015625,25291296.005249023,32875446.319580078,-23644351.959228516,-4233105.182647705,-3273106.098175049,1780726.0751724243,2715407.133102417,8782683.372497559,18488681.79321289,24275150.299072266,25017919.540405273,-16669883.728027344,-7866300.106048584,-5728397.846221924,70165.85767269135,1007513.4038925171,6632616.996765137,18503890.991210938,16715518.951416016,13635581.016540527,-5758749.008178711,-4291612.62512207,-5993806.838989258,453475.62432289124,-678892.2548294067,8761568.069458008,13565408.706665039,17163022.994995117,8810036.659240723,-6936432.838439941,-7704699.993133545,-6727025.985717773,-2442016.839981079,7807398.796081543,5532784.938812256,6157820.224761963,-3533719.062805176,-718030.9891700745,3213368.4158325195,4731483.936309814,-1877278.208732605
0.195,-5842803.001403809,24686511.993408203,43662246.70410156,3279495.95451355,37468620.30029297,-47582225.79956055,-27065500.259399414,-27427869.79675293,8745879.173278809,17779750.82397461,26413286.209106445,21625688.552856445,30268791.19873047,33623607.63549805,-31682838.439941406,-25978534.698486328,-7035381.317138672,5360017.776489258,11069975.852966309,12767668.724060059,22945003.509521484,27666942.596435547,36613910.67504883,-21901588.439941406,-2972389.6980285645,-2123779.058456421,2631427.28805542,2758825.3021240234,8562524.795532227,19771646.49963379,27213102.340698242,29599372.86376953,-14510985.374450684,-6150050.163269043,-4557737.350463867,410752.14743614197,769617.6767349243,5954824.447631836,17382228.85131836,18873447.41821289,17320915.22216797,-4087888.240814209,-2807117.462158203,-5399049.282073975,415797.8594303131,-798315.167427063,8318539.619445801,13827793.12133789,18878204.345703125,11704075.813293457,-5811642.169952393,-6579648.017883301,-6501156.806945801,-2222650.2895355225,7878955.841064453,7111269.950866699,7562450.885772705,-284820.88446617126,1786007.6427459717,5194241.046905518,6679507.255554199,882117.748260498
0.2,-6474507.3318481445,24486137.39013672,44720348.3581543,1249697.8044509888,38378849.029541016,-46193805.69458008,-27207828.521728516,-27693054.19921875,6872642.040252686,17242919.921875,27229408.264160156,21819353.103637695,32066810.607910156,34126178.74145508,-30712583.541870117,-25572175.979614258,-7340685.844421387,4565359.115600586,10253921.508789062,12669409.75189209,22754713.05847168,27561420.440673828,36787414.55078125,-20656429.290771484,-2591244.697570801,-2618260.383605957,2391314.0296936035,2919330.835342407,8482902.526855469,19383888.244628906,26522638.32092285,30144027.709960938,-12806334.495544434,-6250418.663024902,-5224320.888519287,-261876.82151794434,546021.2826728821,5877545.8335876465,15755819.320678711,18702672.958374023,17487396.240234375,-3165992.7368164062,-2702024.9366760254,-5882594.585418701,-276544.451713562,205480.62026500702,9285243.98803711,14839183.807373047,19966947.555541992,12626589.77508545,-4544011.116027832,-5220240.592956543,-5988789.081573486,-534330.9640884399,10457975.387573242,8741754.531860352,9134709.358215332,3643495.0828552246,4622314.453125,7698696.613311768,9141412.734985352,3655312.7765655518
0.205,-8309501.647949219,23236833.572387695,44192508.697509766,-248756.72161579132,37910034.1796875,-48182163.23852539,-28469154.357910156,-28989097.595214844,5691036.224365234,17146993.63708496,27628927.23083496,20378538.131713867,30962697.982788086,32470428.466796875,-34165084.83886719,-27201871.871948242,-9222108.840942383,2414874.0768432617,9049313.54522705,11802231.788635254,21033494.94934082,24479814.529418945,33764453.88793945,-23527729.034423828,-5203930.377960205,-5296370.983123779,499916.136264801,1927636.0273361206,7876982.688903809,17403743.743896484,23053909.301757812,26876516.342163086,-14235119.819641113,-9170089.721679688,-7350632.667541504,-1110711.932182312,480394.3932056427,6295617.10357666,14547966.003417969,16811351.776123047,14323038.101196289,-5233609.676361084,-4326797.962188721,-7181899.070739746,-606839.4780158997,1812616.8251037598,10978966.71295166,15974212.646484375,19901777.267456055,11158124.923706055,-5351906.776428223,-5913725.852966309,-5937458.9920043945,1202164.649963379,13428570.747375488,9140840.530395508,9665578.842163086,3770817.279815674,4371106.6246032715,8391755.104064941,9986033.43963623,3390815.019607544
0.21,-10859833.717346191,19851922.9888916,39580196.380615234,-1274333.8346481323,33426395.416259766,-50049030.30395508,-28948516.845703125,-29422595.977783203,4923671.722412109,15824230.194091797,25102283.477783203,15456182.479858398,23884870.529174805,25842094.42138672,-36722927.09350586,-28100652.69470215,-10537135.124206543,803102.7317047119,8020024.299621582,9966550.827026367,17444211.959838867,18374485.01586914,26696191.787719727,-26220260.620117188,-7370091.915130615,-6602723.121643066,-462008.86368751526,847568.3331489563,6506225.109100342,14233736.038208008,17678342.819213867,19409456.253051758,-16589019.775390625,-11210125.923156738,-7984909.534454346,-596094.1314697266,621624.4697570801,5726971.14944458,12614060.401916504,12577035.903930664,7413929.462432861,-8682667.73223877,-5797914.028167725,-7710088.25302124,-297769.0398693085,1449297.6665496826,10333778.381347656,13905892.372131348,16290107.727050781,5586595.53527832,-8236232.757568359,-8777382.850646973,-7421835.899353027,-596454.4415473938,11211950.302124023,4936306.476593018,5647062.7784729,-1112789.7500991821,351794.2428588867,4941682.815551758,5967842.578887939,-2093413.1145477295
0.215,-6850348.949432373,19033880.23376465,34150306.701660156,2824832.9162597656,28579866.409301758,-41263145.446777344,-22212520.599365234,-22650527.954101562,7960049.629211426,15899833.679199219,22309499.740600586,9652887.344360352,12878676.414489746,13740979.194641113,-29696920.39489746,-22591724.395751953,-7012018.68057251,3231165.647506714,8870415.687561035,8855267.524719238,14115191.459655762,10564381.59942627,15724019.050598145,-21899652.4810791,-4268002.033233643,-3535553.6937713623,1683062.4341964722,1286246.2997436523,4882435.321807861,10812053.680419922,11287230.491638184,8976052.284240723,-15109381.675720215,-8709774.9710083,-5520241.260528564,1510534.5249176025,887346.2677001953,3718159.4371795654,9295424.461364746,6492432.594299316,-1674762.6066207886,-9048085.21270752,-4891095.6382751465,-6312119.483947754,261159.59882736206,-1208024.8594284058,6808986.186981201,8204726.219177246,9607186.317443848,-2630994.0814971924,-9942106.246948242,-10586847.305297852,-9327213.287353516,-5719040.870666504,3465419.5308685303,-2872970.3426361084,-2146216.630935669,-5995256.423950195,-3236917.25730896,-459811.2106323242,-1358280.3010940552,-9451017.379760742
0.22,5699184.417724609,23684436.798095703,32509155.2734375,12949957.847595215,27970031.73828125,-22062257.766723633,-8698623.657226562,-9175266.26586914,15356557.846069336,18972974.77722168,22134309.768676758,6815897.9415893555,4409876.823425293,1524544.4774627686,-15100790.977478027,-12065704.345703125,557679.4147491455,8914584.159851074,11176798.820495605,9095471.382141113,12836277.00805664,4062453.7467956543,4960102.081298828,-11943848.609924316,2709785.9382629395,1728902.2207260132,5435397.624969482,2760713.577270508,3605348.1101989746,8450073.2421875,5872911.9300842285,64359.232783317566,-9408021.926879883,-3575420.379638672,-2288296.937942505,3537219.524383545,1110572.6957321167,1702154.278755188,6051883.220672607,1440436.1248016357,-8681085.586547852,-5306220.054626465,-2474156.8565368652,-4224609.851837158,481840.8489227295,-3542543.649673462,3599024.534225464,3037755.012512207,4036819.9348449707,-8581223.487854004,-8521561.622619629,-9311256.408691406,-9998281.478881836,-9770627.02178955,-3371182.918548584,-8541396.141052246,-8027563.095092773,-5960303.30657959,-2685045.2423095703,-3171234.607696533,-6336619.853973389,-12862808.227539062
0.225,17578308.10546875,29680274.963378906,34670513.15307617,22009126.663208008,31213270.18737793,-7558316.230773926,1250548.1243133545,699271.3212966919,21937253.952026367,22619014.739990234,23939168.93005371,8310699.462890625,3276844.263076782,-4094545.364379883,-5812826.633453369,-5654831.886291504,5669927.597045898,12781069.7555542,12722698.211669922,9839144.706726074,13449338.912963867,1863140.58303833,-82599.75165128708,-5790396.213531494,6462262.153625488,4035545.3491210938,7147907.257080078,3527691.125869751,2972291.7079925537,8112194.061279297,3899110.5556488037,-3031833.8871002197,-5127982.616424561,-1469189.5246505737,-2039562.9405975342,3509502.649307251,1133393.5260772705,1214453.6972045898,4815679.550170898,43281.25715255737,-10608958.24432373,-2498259.3059539795,-2371007.9193115234,-4230944.633483887,-76664.63404893875,-3801707.7445983887,3414303.5411834717,2178162.3363494873,2588514.0895843506,-9678546.905517578,-7024226.665496826,-7907950.878143311,-10353464.126586914,-10208415.031433105,-4314015.3884887695,-8922388.076782227,-8642059.326171875,-3396857.738494873,-429517.00091362,-2567438.6024475098,-6510751.247406006,-11770936.965942383
0.23,18560918.8079834,30599411.010742188,36347480.77392578,22483795.166015625,33951004.02832031,-9380207.061767578,-592806.8161010742,-1174916.0289764404,22433389.66369629,23705612.182617188,25465782.165527344,12341353.416442871,7906705.379486084,-2288809.5378875732,-9494396.209716797,-9034662.246704102,3814030.408859253,11599102.973937988,12632702.827453613,10634016.036987305,14908293.724060059,4288962.841033936,1717103.8389205933,-8838173.866271973,3139130.8307647705,1414956.6888809204,5225097.65625,3127980.2322387695,3118489.0270233154,9650210.3805542,5891641.616821289,-604048.6097335815,-6939453.125,-4611831.188201904,-5413431.167602539,1205825.8056640625,929997.6825714111,2122458.9347839355,5872665.882110596,1914870.7389831543,-8703057.289123535,-5323668.956756592,-6374380.588531494,-7178086.757659912,-1220214.605331421,-3012230.87310791,5340211.391448975,4803237.438201904,4066949.8443603516,-8362154.960632324,-9527905.464172363,-10445543.28918457,-12403340.339660645,-9093467.712402344,-1459730.3867340088,-6988208.770751953,-6718253.135681152,-4600142.478942871,-1675198.6742019653,-2460554.1229248047,-5213968.276977539,-11173023.223876953
0.235,9670807.838439941,25312852.85949707,34255134.58251953,15573593.139648438,33045291.900634766,-20361545.56274414,-9376873.016357422,-9957884.788513184,17748798.370361328,21960342.407226562,25476947.784423828,15355154.037475586,12242157.936096191,1536095.8576202393,-18310813.903808594,-16628129.959106445,-1768401.9804000854,7672764.301300049,11954538.345336914,11409707.069396973,16065687.17956543,8176066.3986206055,5870678.424835205,-15157074.928283691,-2386984.5867156982,-2660263.2999420166,1843323.4691619873,2508624.0768432617,3799402.2369384766,11608098.030090332,9280777.931213379,3175185.6803894043,-11896913.528442383,-8841835.975646973,-9036776.542663574,-1422178.7452697754,682934.4034194946,2982371.0918426514,7872079.849243164,4495010.3759765625,-6153091.907501221,-10917225.83770752,-10828258.514404297,-10288319.58770752,-1913609.6239089966,-2580019.950866699,6747619.152069092,7405561.923980713,5791612.148284912,-7536150.4554748535,-14525517.463684082,-15453237.533569336,-15159909.24835205,-8863301.277160645,341209.38181877136,-6346699.7146606445,-5880946.636199951,-9933588.981628418,-6231328.010559082,-4454453.468322754,-5548181.533813477,-13376789.093017578
0.24,967903.8524627686,18470916.748046875,29427030.563354492,9215228.080749512,28972614.288330078,-24478015.899658203,-13268835.067749023,-13905823.707580566,13336082.458496094,18978498.458862305,23437707.901000977,14277696.60949707,11792212.48626709,2354009.8667144775,-19352630.615234375,-18585166.931152344,-4259130.001068115,5402640.342712402,11191926.002502441,10965317.726135254,15434632.301330566,9441119.194030762,7448210.716247559,-15384918.212890625,-2660438.299179077,-3571787.118911743,380363.01732063293,2106441.9746398926,4094192.9817199707,12169976.234436035,10596647.262573242,4899038.791656494,-12985246.658325195,-8970802.307128906,-9406745.910644531,-2056362.8673553467,643400.7287025452,2659957.17048645,9229726.791381836,5827102.6611328125,-4448353.7673950195,-12027521.133422852,-10611998.558044434,-10254335.403442383,-1336599.588394165,-2361024.856567383,6589774.131774902,8054949.760437012,6928763.389587402,-6592079.639434814,-16231834.411621094,-17126859.664916992,-15428228.378295898,-8917642.593383789,-129141.74795150757,-6206521.987915039,-5577836.990356445,-12676779.747009277,-8309103.965759277,-5295436.382293701,-5915333.7478637695,-14409455.299377441
0.245,-575926.9595146179,15008704.18548584,25565662.384033203,8412161.827087402,24321983.337402344,-17742044.44885254,-8575487.13684082,-9320876.121520996,12653701.782226562,15996222.496032715,19424652.099609375,9555529.594421387,7627123.832702637,534747.0045089722,-11440385.818481445,-13254728.317260742,-1743412.2562408447,6007960.796356201,9668717.384338379,8327054.977416992,12669313.430786133,7338793.2777404785,6202605.247497559,-8958404.541015625,2559091.806411743,-930854.0225028992,1619132.8763961792,1522615.3135299683,3413165.807723999,11145367.622375488,9230667.114257812,4659884.452819824,-8624795.913696289,-5350568.2945251465,-6934076.309204102,-500993.7882423401,854766.1900520325,1400705.6951522827,9508722.305297852,5958827.972412109,-3285759.449005127,-7049656.867980957,-6015523.433685303,-7580151.081085205,-317523.4794616699,-2097158.670425415,5762242.794036865,7532994.747161865,7981676.10168457,-4030530.4527282715,-12761882.781982422,-13531714.43939209,-13007901.191711426,-8210374.83215332,-828737.1397018433,-4302915.096282959,-3683209.180831909,-8824126.243591309,-5094538.688659668,-2695717.3347473145,-3909214.973449707,-10963962.55493164
0.25,2952176.332473755,15905135.154724121,25241371.154785156,10865477.561950684,21573843.002319336,-11177798.2711792,-3284089.0884399414,-4032340.0497436523,14460543.632507324,14171551.704406738,15833844.184875488,5876724.720001221,4405148.983001709,-533514.3208503723,-5584265.232086182,-8495130.53894043,1241057.03830719,7362025.737762451,8074840.545654297,5883009.433746338,10549935.340881348,5362403.392791748,5228714.466094971,-4369010.925292969,6052835.464477539,1353170.394897461,3193409.9197387695,1064030.7664871216,2893759.7274780273,10615051.26953125,7928039.55078125,4165773.868560791,-5072336.673736572,-3218369.245529175,-5348940.372467041,976070.1656341553,1098390.817642212,412501.36494636536,9729809.761047363,5982150.077819824,-2817625.7610321045,-2597301.483154297,-2818288.803100586,-6170243.263244629,-832066.2975311279,-2789985.8951568604,5227484.703063965,7191994.667053223,8697282.791137695,-1553766.131401062,-9156435.012817383,-9769059.181213379,-11836644.172668457,-8282999.9923706055,-976508.5577964783,-1987426.4001846313,-1451278.2096862793,-3287437.915802002,-1152676.2247085571,50292.91659593582,-1419544.5775985718,-6689823.627471924
0.255,5681917.190551758,18651407.24182129,27994205.474853516,12100400.924682617,21922060.012817383,-13953910.827636719,-5031264.781951904,-5566437.721252441,16189460.754394531,15249259.948730469,16645475.387573242,7632872.104644775,4982216.835021973,139806.8368434906,-9488082.885742188,-10637204.17022705,641450.822353363,8051050.186157227,9187502.86102295,7960810.661315918,12709409.713745117,6798237.323760986,5718251.2283325195,-7742848.873138428,2937327.3849487305,215524.95658397675,2921025.037765503,1936725.9740829468,4443788.051605225,12468682.289123535,8875355.72052002,3723627.805709839,-7889783.3824157715,-5861948.490142822,-7118911.266326904,294661.1940860748,1182235.9561920166,467435.747385025,11054764.747619629,6292829.513549805,-3923383.4743499756,-4461316.108703613,-4772339.344024658,-8283712.387084961,-3553507.3280334473,-5110175.609588623,4971496.58203125,7121270.656585693,8224024.772644043,-2363374.948501587,-10404758.45336914,-11014181.137084961,-14481000.900268555,-10898314.476013184,-1936311.960220337,-2748626.470565796,-2233477.5924682617,-3099398.136138916,-1835788.0115509033,-1275349.0209579468,-2102295.8755493164,-7316917.896270752
0.26,4957671.642303467,19979534.149169922,31209497.451782227,11163699.15008545,24439817.428588867,-21719799.041748047,-11116983.413696289,-11375677.108764648,17205131.53076172,19440366.744995117,22503173.828125,13208615.30303955,7551985.740661621,230868.98028850555,-17819555.282592773,-16454044.342041016,-1816811.203956604,8975364.685058594,13938568.115234375,14550565.719604492,18197025.299072266,10177873.611450195,5546638.488769531,-15167672.157287598,-2840895.652770996,-2728529.930114746,1634320.9743499756,4187393.6653137207,7748642.921447754,15510230.06439209,10560770.034790039,2357683.6585998535,-14135680.198669434,-10402616.500854492,-10401046.752929688,-1788145.4229354858,1178371.787071228,1015872.7169036865,12977568.626403809,6130436.897277832,-6280079.8416137695,-9807520.866394043,-8690287.590026855,-11489101.40991211,-6495714.18762207,-7531347.274780273,4654959.678649902,6605213.642120361,6802082.538604736,-6220201.015472412,-14634943.008422852,-15479263.305664062,-18159421.920776367,-14200824.737548828,-3949944.7345733643,-6589990.615844727,-6039993.2861328125,-7808689.594268799,-5683827.877044678,-5041000.3662109375,-5350377.559661865,-12026977.5390625
0.265,2181610.345840454,18481199.264526367,32556030.2734375,9901853.561401367,26490020.751953125,-24530136.108398438,-13595830.917358398,-13801810.264587402,17862550.735473633,23506368.63708496,28350654.60205078,16354894.638061523,8543491.36352539,-1519128.0841827393,-20186981.201171875,-18293500.900268555,-2015445.9476470947,10574147.22442627,18435707.092285156,19363386.154174805,21188358.306884766,11246165.27557373,3590626.2397766113,-17926614.76135254,-3865435.3618621826,-3435633.420944214,1628767.1327590942,5783790.111541748,9676422.119140625,16587533.950805664,10195720.672607422,571983.7546348572,-15964465.141296387,-11263797.760009766,-11249555.587768555,-2574923.9921569824,1254320.740699768,968526.0653495789,13644454.002380371,5042767.04788208,-7534103.870391846,-11420514.106750488,-8776347.160339355,-11630988.121032715,-6823052.883148193,-7654142.8565979,4437955.856323242,5722897.052764893,6049758.434295654,-8901406.288146973,-16014984.130859375,-17137332.916259766,-18302930.83190918,-14254535.675048828,-4729950.428009033,-9152472.496032715,-8590090.75164795,-10754348.754882812,-6825895.309448242,-5698912.143707275,-6591466.903686523,-14436522.483825684
0.27,-157878.90553474426,16056810.37902832,32233127.59399414,9454802.513122559,26493810.653686523,-20357160.568237305,-10386008.262634277,-10828185.081481934,17694000.244140625,23674676.8951416,28957128.524780273,14279829.978942871,7571153.64074707,-2353847.026824951,-14426302.909851074,-14212835.311889648,392181.8435192108,11137883.186340332,17911180.49621582,17171953.201293945,18284740.447998047,9224999.42779541,2866514.4443511963,-12973363.876342773,1393946.7668533325,-592446.4464187622,3106288.9099121094,5001166.820526123,7992026.805877686,14845863.342285156,8367518.424987793,1137166.976928711,-10542419.43359375,-6678677.082061768,-8268112.1826171875,-879663.5866165161,1376584.4106674194,247729.79319095612,12436753.273010254,4285091.400146484,-5315925.598144531,-7308585.166931152,-3995132.4462890625,-7754486.083984375,-3884060.859680176,-5162871.360778809,4761750.6980896,5699357.509613037,7274279.1175842285,-7134696.960449219,-12464987.754821777,-13639042.854309082,-14298542.976379395,-10279143.333435059,-2468363.2850646973,-7121357.9177856445,-6582052.230834961,-8231162.071228027,-3025264.263153076,-1583068.4900283813,-3520198.345184326,-11472168.922424316
0.275,-535833.2395553589,16136428.833007812,32488353.729248047,9648433.685302734,25932241.439819336,-15677432.0602417,-6600546.360015869,-7299347.877502441,16385969.161987305,20509792.32788086,25601280.212402344,11422756.19506836,7724519.729614258,1032923.698425293,-7816507.339477539,-9461431.503295898,2201311.5882873535,9613917.350769043,13285176.277160645,11156935.691833496,13544281.005859375,8150959.014892578,6682039.260864258,-5703539.848327637,7488500.595092773,3088893.8903808594,4066957.473754883,3013250.5893707275,4643695.35446167,13009662.628173828,8540868.759155273,5585145.950317383,-3193875.789642334,-474635.2732181549,-4061664.581298828,1541944.146156311,1361485.7196807861,-94923.59310388565,11016204.833984375,5474990.8447265625,-276547.25313186646,-2344722.9862213135,1193840.8613204956,-2969480.276107788,14333.195984363556,-2344044.9237823486,5519555.09185791,7155016.4222717285,9656021.118164062,-2689729.4521331787,-7488678.932189941,-8507657.051086426,-9714075.088500977,-6046334.743499756,1056056.7378997803,-2568548.6793518066,-2060382.1277618408,-3283538.341522217,2147818.088531494,2979381.799697876,930855.6318283081,-6948765.754699707
0.28,1092942.9531097412,19404842.376708984,34510799.407958984,10438327.78930664,27163459.77783203,-15363765.716552734,-6253509.044647217,-6944724.082946777,15355194.091796875,18584861.755371094,24134143.829345703,13100793.838500977,10748902.320861816,7090998.17276001,-6893398.761749268,-8790081.977844238,1954590.3205871582,8191622.734069824,10703261.375427246,9202530.860900879,13236341.47644043,10954554.557800293,12933761.596679688,-3094284.0576171875,9228812.217712402,4592404.365539551,3641614.9139404297,2660253.7631988525,3622598.648071289,13584103.58428955,11668182.373046875,10848868.370056152,-665856.8382263184,2176357.9845428467,-2228582.3822021484,2284440.9942626953,1180951.3568878174,553190.7677650452,10857336.044311523,7778444.766998291,3457353.8303375244,-1314372.6587295532,2457317.352294922,-1110398.6501693726,1729237.7948760986,-1638533.9498519897,5894347.190856934,8578166.007995605,10510729.789733887,-614613.4734153748,-5310620.7847595215,-6265795.2308654785,-8105241.775512695,-5565636.157989502,1942425.25100708,-676079.511642456,-212056.15997314453,-674601.1972427368,4397300.720214844,3557230.4725646973,2499514.579772949,-5760242.938995361
0.285,3583488.702774048,22603282.928466797,36723327.63671875,12011716.842651367,29843128.204345703,-17267349.243164062,-7446140.766143799,-7905446.529388428,16445764.541625977,20796360.01586914,27041332.244873047,18218492.50793457,14267953.872680664,10502080.917358398,-10379217.147827148,-10972977.638244629,1692025.7806777954,9646492.958068848,13798051.834106445,13691837.310791016,17546510.696411133,15217189.78881836,15871662.139892578,-6376303.672790527,6868759.632110596,3891573.905944824,3371240.3774261475,4802774.429321289,6052140.712738037,15643759.727478027,14356837.272644043,11942152.976989746,-3952123.1651306152,-268255.3231716156,-3878907.9189300537,966484.8446846008,1027409.9111557007,1490676.1646270752,11094162.940979004,8289054.870605469,2091350.0785827637,-3988373.7564086914,-374718.0998325348,-3489065.408706665,-83094.47020292282,-3422486.0668182373,5288362.503051758,7815255.165100098,8052106.857299805,-3599907.875061035,-6948247.43270874,-8092226.028442383,-10361041.069030762,-8986610.412597656,-1278214.3354415894,-3788094.0437316895,-3374805.688858032,-1718423.1281280518,2806708.812713623,448791.65291786194,297198.47440719604,-8120897.29309082
0.29,5511591.911315918,22715024.948120117,37049263.00048828,13721692.085266113,31353435.516357422,-17182950.973510742,-6766846.179962158,-7063609.600067139,19249986.64855957,24881731.033325195,30774360.65673828,21422719.955444336,15153120.994567871,9070739.74609375,-12877084.732055664,-11997835.159301758,3083913.564682007,13001978.874206543,19099456.787109375,18910554.885864258,21045007.705688477,16856773.376464844,13723449.70703125,-11215785.98022461,3934406.042098999,2923638.343811035,4468341.827392578,7245297.908782959,9166316.986083984,16780015.94543457,13743459.701538086,8338509.559631348,-8786721.229553223,-4978338.718414307,-7196996.212005615,-893049.2997169495,1050164.4611358643,1776349.7829437256,10239998.817443848,6063333.511352539,-3244438.1713867188,-7355669.4984436035,-4579811.096191406,-8235358.238220215,-4064019.203186035,-6192464.828491211,4131958.484649658,5111374.378204346,3862803.2207489014,-8896546.363830566,-10740632.057189941,-12128691.673278809,-15040857.315063477,-13375836.372375488,-5866785.049438477,-8965054.512023926,-8557173.728942871,-4756795.406341553,-982309.7586631775,-3218498.945236206,-3317339.4203186035,-10982744.216918945
0.295,6269326.210021973,21118383.407592773,36319438.93432617,14443261.14654541,30875074.38659668,-15319359.77935791,-4784499.168395996,-5162544.250488281,21311914.443969727,26614938.735961914,31410106.658935547,20878074.645996094,14064686.77520752,6923003.196716309,-12360844.612121582,-10964902.877807617,4741469.860076904,14507169.723510742,20804122.924804688,19163967.13256836,20590805.053710938,15876875.877380371,11227007.865905762,-13482639.31274414,2687258.720397949,2745591.163635254,5778044.700622559,7652742.385864258,10201545.715332031,16795448.303222656,11709229.469299316,5201511.383056641,-11171710.014343262,-7955267.429351807,-9498208.045959473,-1792945.9810256958,1185173.8691329956,1484913.4683609009,8979585.647583008,4052316.188812256,-6901848.793029785,-9418334.9609375,-7500125.885009766,-11734787.940979004,-7313488.960266113,-8195986.747741699,3367427.110671997,3243485.689163208,1655685.7824325562,-11308752.059936523,-14092869.758605957,-15514052.391052246,-19252811.431884766,-16110467.910766602,-8170704.8416137695,-11543627.738952637,-11096139.907836914,-7581855.297088623,-4639564.990997314,-5349258.4228515625,-5681583.404541016,-12186291.694641113
0.3,5700070.381164551,20828546.52404785,37004596.71020508,13487681.38885498,30158414.840698242,-15782176.01776123,-5007666.110992432,-5565928.4591674805,20717117.309570312,24476251.60217285,29203205.108642578,19483943.939208984,13908558.84552002,8571712.493896484,-11845670.700073242,-10746552.467346191,4414094.4480896,12574415.20690918,17739963.53149414,15343297.958374023,18487134.93347168,15291532.516479492,12649689.674377441,-13315678.596496582,2674298.048019409,2672621.488571167,5653048.515319824,6193521.976470947,9356129.64630127,17306018.829345703,11714982.986450195,6635444.164276123,-10950514.793395996,-7749171.257019043,-9570382.118225098,-1414546.6089248657,1273903.489112854,1279092.6694869995,9154516.220092773,5225560.188293457,-5083194.255828857,-9799818.992614746,-7978757.858276367,-11447417.259216309,-7706036.09085083,-8482344.627380371,3468834.87701416,4059413.433074951,3092559.814453125,-9033008.575439453,-14729632.377624512,-15991487.503051758,-20165159.225463867,-16394880.294799805,-7542737.4839782715,-10162225.723266602,-9736973.762512207,-8271911.62109375,-5830964.088439941,-5413964.748382568,-5498870.372772217,-11380869.86541748
0.305,3504476.547241211,21420307.159423828,39030731.201171875,10810232.162475586,30058773.040771484,-20930337.90588379,-9003580.093383789,-9576527.59552002,17578088.760375977,20168502.807617188,26442174.911499023,19199258.80432129,15026874.542236328,12422463.417053223,-14696634.292602539,-13729925.155639648,1882932.5437545776,9303540.229797363,13421319.007873535,11837296.485900879,17630426.40686035,15985635.757446289,15789479.25567627,-13808875.08392334,2048160.3145599365,1505295.991897583,4278314.590454102,4639636.039733887,8373436.92779541,18607116.69921875,13478919.02923584,10241013.526916504,-10757450.103759766,-6575766.086578369,-8719398.498535156,-593692.0642852783,1222718.1196212769,1393705.3680419922,10618943.214416504,8276494.026184082,-514002.4423599243,-9169703.483581543,-6876176.357269287,-8661422.729492188,-5771916.86630249,-7046287.059783936,4491067.886352539,6347730.1597595215,6030318.737030029,-5359897.136688232,-12657411.575317383,-13787872.314453125,-17826324.462890625,-14642195.701599121,-5885742.664337158,-7382087.707519531,-7088131.427764893,-6096001.625061035,-3713941.5740966797,-3475651.264190674,-2982500.3147125244,-9006525.993347168
0.31,304458.4393501282,20322505.950927734,39600601.19628906,7166020.87020874,29264076.232910156,-28078882.217407227,-14548479.080200195,-14915766.716003418,13402305.603027344,16224336.624145508,24112476.348876953,18708852.767944336,15069832.801818848,13461585.04486084,-20252149.58190918,-18760551.45263672,-1492398.5004425049,6990809.440612793,10906805.038452148,10498176.574707031,17634178.161621094,16148197.174072266,16016473.770141602,-16815542.221069336,-596978.485584259,-1171406.7459106445,2740349.292755127,3962378.0250549316,7983409.881591797,19290258.407592773,13934442.520141602,11075331.687927246,-12616827.011108398,-7759185.791015625,-9519316.673278809,-730211.6751670837,1006456.6135406494,1751969.337463379,11395881.652832031,9562760.353088379,1213295.578956604,-9366344.451904297,-6740155.220031738,-7767625.331878662,-4285295.9632873535,-4802835.464477539,6545217.990875244,7990314.483642578,7654753.684997559,-4196352.481842041,-11128421.783447266,-12242208.480834961,-15999536.514282227,-12147182.46459961,-4441677.570343018,-5950650.215148926,-5740143.775939941,-3121728.8970947266,-729056.1199188232,-842326.9391059875,71612.20163106918,-6577144.145965576
0.315,-1571350.8129119873,18200029.373168945,37574066.162109375,4318733.692169189,27371065.139770508,-32370620.727539062,-18397439.95666504,-18544483.184814453,9939218.521118164,14344481.468200684,22504751.205444336,17302572.25036621,13419084.548950195,10847167.015075684,-24733238.220214844,-22658584.594726562,-4617105.484008789,5565032.958984375,10203281.40258789,10338229.179382324,17170219.42138672,15211871.147155762,13562067.031860352,-20807189.94140625,-4736772.060394287,-4504396.438598633,1106607.437133789,3863384.72366333,7870364.665985107,18833625.79345703,12456881.523132324,9007471.084594727,-15749522.20916748,-11759421.348571777,-12781128.883361816,-2562384.3669891357,651579.6184539795,2523308.277130127,10957244.873046875,8429734.230041504,-969856.2026023865,-12037081.718444824,-9274630.546569824,-11199038.5055542,-5329675.197601318,-3248963.8328552246,9285629.272460938,8815776.824951172,7976861.000061035,-5343746.185302734,-13305276.870727539,-14407114.98260498,-17950132.369995117,-10962963.104248047,-2853296.7567443848,-5910673.61831665,-5559249.8779296875,-2942112.684249878,-646795.8688735962,-72061.26302480698,1173637.866973877,-6492034.912109375
0.32,-487746.80495262146,18519338.607788086,35244136.810302734,3728951.6925811768,26265027.99987793,-32301338.19580078,-19627855.30090332,-19729026.794433594,8306416.5115356445,14748748.779296875,22416137.6953125,16731000.900268555,12366096.496582031,8695600.509643555,-25767837.524414062,-23767042.16003418,-6840914.249420166,4247401.237487793,10103851.318359375,10702894.21081543,16793052.673339844,14763358.116149902,12491599.082946777,-22820079.803466797,-7869966.983795166,-6756319.046020508,-836861.3123893738,3958772.1824645996,7932478.427886963,18353790.283203125,11579758.644104004,8159555.435180664,-17645692.825317383,-15275946.617126465,-15988056.182861328,-4936920.166015625,286312.4907016754,3612291.5744781494,10930567.741394043,7645269.393920898,-2875809.669494629,-15840209.9609375,-12559594.15435791,-15718294.143676758,-7765238.7619018555,-3328677.4158477783,11198694.229125977,9772730.827331543,8678707.122802734,-5776648.044586182,-17586908.3404541,-18604927.06298828,-21714927.673339844,-12295530.319213867,-1214916.9445037842,-5852096.5576171875,-5244752.883911133,-6222493.1716918945,-3730168.581008911,-2087523.2219696045,-460575.6103992462,-9318249.702453613
0.325,1789722.5618362427,21527122.497558594,34871105.1940918,4688666.820526123,26995016.09802246,-31023382.18688965,-19734405.517578125,-19905263.900756836,8381115.913391113,15935458.183288574,23650365.829467773,17677566.528320312,13214247.703552246,9479578.971862793,-24827245.712280273,-23193222.045898438,-7435377.12097168,3567347.764968872,10084737.777709961,11587310.791015625,17311681.747436523,15258169.174194336,13754681.587219238,-21987253.189086914,-7919037.818908691,-6694114.685058594,-1949066.162109375,4194446.086883545,8215593.338012695,18368755.340576172,12392556.190490723,9818033.218383789,-17224859.2376709,-15127057.075500488,-15937037.467956543,-5550366.8785095215,94257.96568393707,4012151.2413024902,11948931.694030762,8534783.363342285,-1786567.5687789917,-17000965.118408203,-12639326.095581055,-15933038.711547852,-8492530.822753906,-4419402.122497559,10732674.598693848,10408717.155456543,9698451.99584961,-4473907.947540283,-18834119.79675293,-19782697.677612305,-22119407.653808594,-14647603.988647461,-781984.3292236328,-5424681.663513184,-4771785.736083984,-9136898.040771484,-5887184.619903564,-4177853.584289551,-2670981.1687469482,-12080891.609191895
0.33,2105522.1557617188,23209535.598754883,35846008.30078125,5069623.947143555,27883743.286132812,-31702100.75378418,-20038799.285888672,-20215909.957885742,9047000.885009766,15957177.16217041,24316463.470458984,17975002.28881836,14149953.842163086,10789668.083190918,-24718400.955200195,-22817752.838134766,-6345513.820648193,4227541.446685791,10057696.342468262,12031012.535095215,17678384.78088379,14954906.463623047,13994634.628295898,-20277221.6796875,-5809263.706207275,-4998867.511749268,-903647.3631858826,4300912.857055664,8222883.224487305,17755880.35583496,12589353.561401367,10430669.784545898,-16143239.974975586,-12288700.103759766,-12861262.321472168,-3641261.100769043,128848.43349456787,2765834.5699310303,12106484.413146973,8826831.817626953,-336320.9366798401,-14180867.195129395,-8719434.73815918,-11329084.396362305,-6409900.188446045,-5095064.163208008,8279899.597167969,9238432.884216309,9252017.974853516,-3562025.0701904297,-15189317.70324707,-16202342.987060547,-17786823.272705078,-15165055.274963379,-1968884.7064971924,-5335928.916931152,-4962840.557098389,-8137283.3251953125,-4085369.110107422,-3199565.649032593,-2798118.3528900146,-11510430.335998535
0.335,716812.7298355103,21932508.46862793,36778728.48510742,4627784.729003906,27724447.25036621,-32774101.25732422,-19707532.88269043,-19829256.057739258,9639840.126037598,14881411.5524292,23624940.872192383,16569507.598876953,13543605.80444336,10025964.736938477,-25378292.083740234,-22658014.29748535,-4680997.371673584,5517589.569091797,9962227.821350098,11065464.01977539,16763225.555419922,13151399.612426758,11657172.203063965,-19569782.257080078,-4139371.871948242,-3529720.0679779053,1387510.895729065,3965956.449508667,7470395.088195801,15819255.828857422,10417629.24194336,7748379.707336426,-16099145.889282227,-10383722.305297852,-10248558.044433594,-1230203.8669586182,251031.2795639038,510673.04611206055,9954145.431518555,6584574.6994018555,-1871592.0448303223,-10741617.202758789,-4721987.247467041,-7093508.720397949,-3946943.521499634,-5074443.817138672,5893346.309661865,6402377.128601074,7052938.938140869,-4593472.003936768,-10860328.674316406,-12074121.475219727,-13199377.059936523,-13447115.898132324,-3327496.5286254883,-5673360.824584961,-5620533.466339111,-4704421.520233154,-493835.12139320374,-123987.13827133179,-1007931.2324523926,-8407470.703125
0.34,1097652.9121398926,21314908.981323242,37672542.572021484,5509582.042694092,28013404.846191406,-29986368.17932129,-17026233.673095703,-17228353.50036621,10559726.71508789,14725517.272949219,23402578.353881836,15898455.619812012,12571181.297302246,8265819.549560547,-23888969.42138672,-21069049.835205078,-3529838.0851745605,6262928.009033203,10032339.096069336,9688729.286193848,15519211.769104004,11614820.48034668,9452029.22821045,-18995624.542236328,-3516824.0070343018,-3092790.6036376953,2413441.8964385986,3477174.2820739746,6401236.057281494,13787313.461303711,7675466.537475586,4586910.247802734,-16080547.332763672,-10665945.053100586,-10379104.614257812,-855067.3127174377,298858.1657409668,-1004958.987236023,7176037.788391113,3528685.8081817627,-5167253.017425537,-10317349.433898926,-4356430.0537109375,-7380754.470825195,-4033382.8926086426,-5572193.622589111,4775649.070739746,4026229.8583984375,5096585.273742676,-6336234.569549561,-10487226.486206055,-11929225.92163086,-12824298.858642578,-12418670.654296875,-3584597.587585449,-5873957.15713501,-5862900.733947754,-3151514.0533447266,668231.5468788147,1053378.3435821533,122920.12572288513,-6626551.151275635
0.345,4498620.510101318,23820062.6373291,38051788.330078125,8559291.83959961,29555055.618286133,-22849151.611328125,-12374200.820922852,-12856981.27746582,12013204.574584961,16224443.435668945,24813438.415527344,17545528.411865234,12440227.508544922,7024946.212768555,-19029922.485351562,-17610998.153686523,-2850017.786026001,6443440.4373168945,10462744.71282959,9557220.458984375,15207195.281982422,11335634.231567383,9013096.809387207,-16567663.192749023,-2373455.286026001,-2937132.8353881836,1251490.2353286743,3287703.275680542,5763485.431671143,12998152.732849121,6683731.0791015625,3849581.241607666,-14260691.64276123,-10960861.206054688,-11970272.064208984,-2685903.310775757,251547.12796211243,-1101313.9486312866,6308532.71484375,2277677.7744293213,-6854663.848876953,-12069773.67401123,-6673871.5171813965,-10591953.27758789,-6604697.227478027,-7196834.564208984,4265088.5581970215,3484220.027923584,4634042.739868164,-7326216.697692871,-13332332.611083984,-14895730.972290039,-15896533.012390137,-14277977.94342041,-3434803.9627075195,-6183413.028717041,-6015144.824981689,-4844670.295715332,-1320418.119430542,-1184786.081314087,-845936.4771842957,-7979879.856109619
0.35,7531903.266906738,25615041.732788086,35373184.20410156,11135329.246520996,29277666.091918945,-16404388.427734375,-8757228.85131836,-9488994.598388672,12888007.164001465,17196680.068969727,25434041.97692871,18170166.015625,11089292.526245117,4274257.183074951,-14018374.4430542,-14646441.459655762,-2365690.9465789795,6553879.261016846,10623345.375061035,10023749.351501465,14652569.770812988,10183959.9609375,7171010.0173950195,-12963088.035583496,-673599.898815155,-2708786.4875793457,-485061.79451942444,2984606.7428588867,5294815.0634765625,12706903.457641602,6270727.157592773,3230825.424194336,-11906476.020812988,-9943967.819213867,-12948466.300964355,-4780963.897705078,177483.90138149261,-888267.0402526855,6950890.064239502,2144817.113876343,-7192445.278167725,-12731005.668640137,-8367458.343505859,-12744282.722473145,-9071137.428283691,-8397708.892822266,3702701.8070220947,3834372.5204467773,4376221.179962158,-8389411.926269531,-15352012.634277344,-16849079.132080078,-18638790.130615234,-16950830.459594727,-4014168.2624816895,-7438235.282897949,-7273393.154144287,-6955035.68649292,-3498805.7613372803,-3865633.726119995,-2473007.2021484375,-10240288.734436035
0.355,6643795.490264893,21877458.572387695,28288961.41052246,10256906.509399414,23988107.681274414,-15325194.358825684,-8758313.179016113,-9472139.358520508,11735321.044921875,15332408.905029297,22254562.377929688,13614318.84765625,5876566.410064697,-2396526.81350708,-12968768.119812012,-14985918.998718262,-2794804.096221924,6061845.779418945,9489115.715026855,8773128.509521484,11723881.721496582,6130300.045013428,977978.8255691528,-11485783.576965332,-980754.7330856323,-3443332.1952819824,-1212040.901184082,1738859.6534729004,4096198.558807373,11362336.158752441,3737404.8233032227,-1031144.7381973267,-12394506.454467773,-9534117.698669434,-13410311.698913574,-5637607.574462891,133444.04101371765,-1410096.526145935,6620273.590087891,609855.2346229553,-9283135.414123535,-11770203.590393066,-8654314.041137695,-12858037.948608398,-9493066.787719727,-7184288.97857666,3865456.3426971436,3792119.5030212402,2981925.2490997314,-10678670.883178711,-14993732.452392578,-16273521.423339844,-19316663.74206543,-16544996.26159668,-4655451.774597168,-9129354.476928711,-9249043.464660645,-6671002.8648376465,-3557343.006134033,-3721160.650253296,-2587560.8921051025,-10522674.560546875
0.36,2473193.1686401367,14338792.80090332,20089727.4017334,6226526.737213135,15803684.23461914,-18467054.36706543,-11924989.700317383,-12444358.825683594,8218321.800231934,11037373.542785645,16196746.826171875,5541888.236999512,-1475120.5444335938,-10317105.293273926,-15631775.856018066,-18444660.186767578,-5151125.907897949,3767768.383026123,6871210.57510376,5314320.087432861,6920151.233673096,1136150.2408981323,-6363785.743713379,-13511940.956115723,-4384943.962097168,-5802301.88369751,-1432495.8324432373,-184011.23583316803,2256725.311279297,9424355.506896973,-191141.7692899704,-7116364.9559021,-15940435.409545898,-11398951.530456543,-14330877.304077148,-5406764.030456543,167159.7808599472,-2042622.8046417236,4924512.3863220215,-1931189.1794204712,-12973604.202270508,-11452915.19165039,-9141381.26373291,-12574408.531188965,-8078217.506408691,-4015425.682067871,5523690.700531006,3956418.037414551,1708776.831626892,-12721141.815185547,-13962024.688720703,-15022895.812988281,-18769706.72607422,-12659817.695617676,-3761172.05619812,-9298954.010009766,-9675645.82824707,-4334628.582000732,-1991756.796836853,-1239756.1073303223,-933601.0813713074,-8655931.47277832
0.365,-1872331.976890564,9170629.501342773,16097166.061401367,1582711.3389968872,10467970.848083496,-21199607.849121094,-15798733.711242676,-16218276.977539062,3152912.8551483154,6345139.026641846,11158138.275146484,383090.0490283966,-5580462.455749512,-13367247.581481934,-17914148.330688477,-21967166.900634766,-9001383.781433105,-292311.9068145752,3672091.9609069824,1895517.349243164,3387230.396270752,-601892.7097320557,-8534132.957458496,-16041614.532470703,-7859101.295471191,-8480019.569396973,-2433939.4569396973,-1407335.5197906494,1097182.9891204834,9108169.555664062,-1515469.9087142944,-8943837.16583252,-18408241.271972656,-13518249.51171875,-15093944.549560547,-4902235.03112793,295656.7406654358,-1544382.929801941,4335282.325744629,-2166616.201400757,-13914634.704589844,-12445572.853088379,-9941172.59979248,-12356422.424316406,-6029407.978057861,-1714716.6728973389,7564114.093780518,5629161.357879639,2626847.0287323,-12024990.08178711,-13407235.145568848,-14379402.160644531,-17660650.2532959,-9174024.58190918,-1629875.5407333374,-7337151.527404785,-7614038.944244385,-2069371.4618682861,-326779.21652793884,695139.7061347961,914683.6400032043,-6452851.295471191
0.37,-4172173.023223877,9531002.044677734,18372804.641723633,-1497005.820274353,11129909.51538086,-21171960.830688477,-18181278.228759766,-18666099.548339844,-1494444.1318511963,3040434.1220855713,9787271.499633789,2211799.144744873,-3102445.125579834,-8992038.72680664,-17184892.654418945,-22813398.361206055,-11918824.195861816,-3803101.7780303955,1386452.7940750122,975888.729095459,3553438.663482666,2476560.592651367,-3842622.756958008,-15345071.792602539,-7685480.117797852,-9294347.763061523,-3908039.5698547363,-1048799.2763519287,1586488.7237548828,11315446.853637695,1674856.3051223755,-4430027.961730957,-16729946.13647461,-12710002.899169922,-14373281.478881836,-4594134.80758667,428488.96980285645,-71788.92940282822,6297708.988189697,937415.2421951294,-9981890.678405762,-12633088.111877441,-9207389.831542969,-11236840.24810791,-4400224.685668945,-2445982.9330444336,7845753.192901611,7962848.663330078,4907777.309417725,-9205881.118774414,-12607205.390930176,-13630956.649780273,-16045270.919799805,-9720848.083496094,-925064.3253326416,-5662414.55078125,-5569616.317749023,-1217961.5497589111,582459.2113494873,535557.1508407593,1358970.4036712646,-5317115.306854248
0.375,-3260480.8807373047,13778372.764587402,24540407.180786133,-1307573.5569000244,16254415.512084961,-19320758.819580078,-17614044.189453125,-18163946.1517334,-2367761.8503570557,3047998.9051818848,12199898.719787598,9208674.430847168,3967440.605163574,-957106.4710617065,-14766918.182373047,-20558135.986328125,-10990679.740905762,-3470328.3309936523,1754155.0397872925,3187768.2209014893,7042248.725891113,7942304.1343688965,3243040.8000946045,-11649647.71270752,-4056651.5922546387,-7322362.899780273,-4026921.272277832,539623.5585212708,3180405.378341675,14258397.102355957,6457455.158233643,1672674.6559143066,-13007699.966430664,-9211574.55444336,-12530209.5413208,-4592595.100402832,436771.0053920746,824443.3403015137,8710800.170898438,3885270.118713379,-5126470.08895874,-10773530.960083008,-6684525.966644287,-9614347.457885742,-4033120.1553344727,-5633801.460266113,5696862.697601318,8127402.305603027,5199920.654296875,-7889308.452606201,-11349931.716918945,-12502436.637878418,-14958741.188049316,-13982567.78717041,-3697647.5715637207,-7038183.212280273,-6687810.42098999,-1816126.1081695557,363630.7120323181,-1002451.6582489014,-13217.325322329998,-5571619.033813477
0.38,1308670.7592010498,19336503.982543945,30663063.049316406,3256654.5009613037,22519367.218017578,-16683361.053466797,-13519012.451171875,-14040691.375732422,3020557.8804016113,7980011.463165283,17280500.411987305,16639213.562011719,10720245.361328125,5091994.762420654,-12928390.502929688,-16403417.587280273,-5386249.542236328,1962530.016899109,5713360.786437988,7504740.238189697,11551371.574401855,12365283.966064453,7822040.557861328,-8462431.907653809,-199558.60078334808,-3408427.7153015137,-1793135.166168213,2722790.241241455,4524572.849273682,15622597.694396973,8737519.264221191,4148643.970489502,-11172905.921936035,-6133222.1031188965,-11110894.203186035,-4750236.511230469,366199.40400123596,156424.52239990234,8647008.895874023,3193038.4635925293,-4317040.44342041,-8567553.520202637,-4751377.582550049,-9285675.048828125,-5209538.459777832,-8960178.37524414,2702795.7439422607,4998541.355133057,2151824.2359161377,-9851050.37689209,-10794203.758239746,-12110281.944274902,-15696862.22076416,-18734962.463378906,-8571823.120117188,-10693688.39263916,-10386511.80267334,-3207945.5852508545,-887480.1993370056,-2645778.8944244385,-2269192.934036255,-6914883.613586426
0.385,7102437.496185303,24083242.416381836,33430763.244628906,10046546.936035156,26801277.16064453,-13605060.577392578,-7798873.9013671875,-8286149.978637695,12034429.550170898,15703999.519348145,22493181.228637695,20638315.200805664,13447062.492370605,6540084.8388671875,-12018535.614013672,-12132918.357849121,2003906.7268371582,9467522.621154785,11429038.047790527,11686228.75213623,14457453.727722168,13983676.91040039,8769092.559814453,-8114863.395690918,1858192.801475525,624170.9589958191,1464179.8734664917,5077035.903930664,4789317.1310424805,15029358.863830566,7827291.488647461,3154782.772064209,-11811843.872070312,-5157958.984375,-10476461.410522461,-4652702.331542969,439232.08117485046,-1356242.299079895,6197963.714599609,133146.15190029144,-7052100.18157959,-8116103.172302246,-5047638.416290283,-10493464.469909668,-6967675.20904541,-10584274.291992188,1001965.0459289551,1354519.1287994385,-1304340.7201766968,-12422886.848449707,-11455317.497253418,-12923076.629638672,-17556322.09777832,-21127237.31994629,-11704857.82623291,-12850721.35925293,-12691489.219665527,-4504837.512969971,-2178713.56010437,-3704636.0969543457,-3753448.247909546,-8501271.24786377
0.39,8886749.267578125,25121057.510375977,31233215.33203125,13267748.832702637,26493114.471435547,-11715384.483337402,-4875889.301300049,-5375360.488891602,17265235.900878906,19813285.82763672,23936628.341674805,19581747.05505371,11615695.95336914,4315823.078155518,-11666308.403015137,-9894727.70690918,6073893.5470581055,13399871.826171875,14561114.311218262,12923643.112182617,14094973.56414795,12924607.276916504,7412654.876708984,-9809425.354003906,2317229.747772217,2723533.868789673,3298998.8327026367,6625643.730163574,4105278.968811035,13760392.189025879,6044930.458068848,1957890.272140503,-12774774.551391602,-5375261.7835998535,-9816041.946411133,-4122087.4786376953,718483.2692146301,-2356100.559234619,3954249.620437622,-1266968.1310653687,-8847131.729125977,-9257926.940917969,-6317812.919616699,-11372856.140136719,-7804549.694061279,-10256038.665771484,1206284.0461730957,793388.9627456665,-1597694.8738098145,-12146883.010864258,-12419506.072998047,-13936023.712158203,-18543277.740478516,-20536050.79650879,-10915090.560913086,-11501935.958862305,-11327738.761901855,-5280832.767486572,-2584322.452545166,-4034898.281097412,-3588097.57232666,-9377380.37109375
0.395,4516839.981079102,21199039.459228516,26103643.4173584,9598795.890808105,21965915.67993164,-12856287.956237793,-7177116.394042969,-7657238.960266113,14387068.748474121,16521257.400512695,20360782.623291016,15121072.769165039,7887861.251831055,1275220.7517623901,-12182618.141174316,-10846233.367919922,4264156.341552734,11047482.49053955,12600551.60522461,10317425.727844238,11228632.926940918,10843999.862670898,5476544.380187988,-11437187.194824219,1663123.8460540771,1881070.613861084,2684662.103652954,6084573.745727539,3189182.5199127197,13029972.076416016,5354816.436767578,2047197.8187561035,-13002995.491027832,-5771762.847900391,-9103657.722473145,-3682289.8387908936,938192.1887397766,-2411091.5660858154,3506068.706512451,349416.5241718292,-7579812.049865723,-10250635.147094727,-6621999.740600586,-10810935.974121094,-7361242.771148682,-8961437.225341797,2162736.177444458,3129148.244857788,904045.045375824,-9276499.74822998,-12860177.040100098,-14298130.03540039,-18245086.669921875,-18326242.446899414,-8129448.890686035,-8826298.713684082,-8480169.296264648,-5792405.605316162,-2415263.4143829346,-3792304.754257202,-2570457.696914673,-9287838.93585205
0.4,-1283154.845237732,15846385.00213623,22957185.745239258,3282928.228378296,17998237.60986328,-15391560.554504395,-11284460.067749023,-11696668.62487793,8007909.774780273,10410357.475280762,16137075.424194336,11811477.661132812,6184144.973754883,559676.6471862793,-12971793.174743652,-13264422.416687012,-295038.6106967926,6002290.725708008,8273965.835571289,6673731.803894043,8886610.03112793,10201664.924621582,5029589.1761779785,-11350812.911987305,259597.18227386475,-422343.10507774353,998392.8203582764,3713453.0544281006,2739308.8340759277,13194890.022277832,5983695.983886719,2985237.1215820312,-12789392.471313477,-6177237.033843994,-9092084.884643555,-3829709.529876709,844916.1648750305,-2089594.1257476807,4177150.249481201,2662177.562713623,-5096704.959869385,-9645404.815673828,-5755486.965179443,-9754832.26776123,-6493414.402008057,-7749479.7706604,2649315.357208252,4832089.424133301,2880719.4232940674,-6712566.375732422,-12587477.684020996,-13955761.909484863,-17832509.994506836,-16301258.087158203,-6730113.506317139,-7710622.310638428,-7251973.628997803,-5821226.596832275,-2105381.0119628906,-2978349.208831787,-1755042.6721572876,-8386108.3984375
0.405,-2467912.6739501953,14009102.821350098,24191406.25,1381776.8096923828,18919223.78540039,-14884486.198425293,-11441969.871520996,-11859615.325927734,6164551.734924316,9060313.22479248,16445806.503295898,12868232.727050781,8082995.414733887,3431746.482849121,-11597918.510437012,-13517165.184020996,-1870181.5605163574,4246666.90826416,6488471.984863281,5767271.518707275,9229034.423828125,12170454.978942871,7710381.984710693,-8811454.772949219,-359701.4546394348,-1003338.098526001,415891.5579319,1805839.7769927979,2902134.656906128,14036679.2678833,7515259.265899658,4981595.039367676,-11539326.667785645,-5766474.24697876,-9402419.090270996,-4024596.691131592,573951.5423774719,-1907630.3243637085,4950643.062591553,3662638.6642456055,-3085154.7718048096,-7047588.82522583,-4445269.584655762,-9133035.659790039,-5716002.941131592,-6783844.947814941,2918142.795562744,4138228.416442871,3011080.265045166,-5544205.188751221,-11154615.40222168,-12596559.524536133,-17396535.873413086,-15056161.880493164,-7008476.257324219,-7520280.361175537,-7123690.128326416,-4053388.1187438965,-674744.9040412903,-1079396.2478637695,-546544.3730354309,-6264424.800872803
0.41,702205.8963775635,15699716.567993164,26396217.346191406,4840262.889862061,22490480.422973633,-10055910.110473633,-6856008.052825928,-7394102.573394775,10020936.012268066,12836610.794067383,19950130.462646484,15987135.887145996,10949648.8571167,7644380.569458008,-7128475.666046143,-10143848.419189453,1451767.921447754,7175388.813018799,8308359.146118164,7658042.430877686,10885054.588317871,14982890.129089355,12345961.570739746,-4774752.616882324,1453971.8627929688,1661284.9235534668,1705482.1252822876,2209485.2924346924,3182814.598083496,14960150.718688965,9424944.877624512,8336799.621582031,-8750597.953796387,-3449592.8287506104,-8606698.989868164,-3245718.7175750732,469582.05103874207,-1895611.4053726196,5722527.027130127,3958725.2140045166,-1024250.2689361572,-3677769.422531128,-3020753.3836364746,-8508487.701416016,-4855216.979980469,-5814169.883728027,3838829.99420166,3186275.7205963135,3242343.4257507324,-4330537.31918335,-8637738.227844238,-10202548.98071289,-16053863.525390625,-14129054.069519043,-6487357.139587402,-5802871.7041015625,-5547390.460968018,-424842.9834842682,2386543.5123443604,1734202.9809951782,1902330.994606018,-2995767.831802368
0.415,3875852.584838867,17583961.486816406,26044416.427612305,8612371.444702148,23116632.46154785,-5393202.781677246,-2543315.649032593,-3159651.9947052,13519701.957702637,15218972.206115723,20795846.939086914,16483745.574951172,11381216.049194336,9737901.68762207,-3168348.550796509,-5897866.249084473,6059767.246246338,10778556.823730469,10484563.827514648,9081028.938293457,11143399.238586426,15931109.428405762,15410972.595214844,-2338941.3356781006,4680213.928222656,5511832.714080811,3804124.116897583,4157002.4490356445,3163225.6507873535,15308798.789978027,10787239.074707031,11280903.816223145,-6724383.83102417,-405918.9558029175,-6687900.066375732,-1644900.2027511597,601961.6723060608,-2048024.1775512695,6382235.050201416,4619544.982910156,1160980.8206558228,-2380574.4647979736,-2120178.9379119873,-7719113.349914551,-4376559.257507324,-5521251.201629639,4734872.341156006,3988337.278366089,4680559.158325195,-2699175.3578186035,-7215304.374694824,-8741825.103759766,-14872391.700744629,-13922224.044799805,-4930894.374847412,-3308636.9037628174,-3153668.4036254883,1822542.3097610474,4407491.207122803,3162740.707397461,3703990.4594421387,-1022715.2109146118
0.42,6301643.371582031,19836299.896240234,26202503.204345703,9840479.850769043,20862682.342529297,-6042274.951934814,-2747364.7594451904,-3270221.471786499,12932520.866394043,13266377.449035645,17916721.34399414,14477872.848510742,10047292.709350586,9296356.201171875,-4781061.172485352,-4907779.693603516,7582040.786743164,11590984.344482422,10824111.938476562,8637482.643127441,10157290.4586792,14930663.108825684,15024880.409240723,-4558991.9090271,5759492.874145508,7061083.793640137,5129277.229309082,5559023.857116699,3203800.4398345947,15061216.354370117,10783242.225646973,11213851.928710938,-8973411.560058594,-29785.32202541828,-5850723.2666015625,-771654.7250747681,719007.0748329163,-2506606.340408325,6256115.913391113,4945566.177368164,1466636.5385055542,-5369826.316833496,-3238908.052444458,-8064759.254455566,-5478117.4659729,-7226796.627044678,3628787.040710449,4790633.201599121,4969013.214111328,-2908209.5623016357,-9528376.579284668,-10850230.21697998,-16769346.237182617,-16116930.00793457,-5896704.67376709,-4018062.5915527344,-3932853.6987304688,-998983.3831787109,1705628.3950805664,415009.9754333496,1397573.9479064941,-3613718.9865112305
0.425,10582799.911499023,25624330.520629883,32392284.393310547,10720089.91241455,21780717.849731445,-12121082.305908203,-6648153.305053711,-7001310.348510742,11403035.163879395,11767864.227294922,17023244.857788086,15048742.294311523,10738427.16217041,9192360.877990723,-12469621.658325195,-8670149.803161621,5248207.569122314,10411328.315734863,10831778.526306152,8645628.929138184,10575911.521911621,14419919.967651367,13013001.441955566,-11165598.86932373,2342146.396636963,4753815.650939941,4677881.717681885,5673275.947570801,3951205.4920196533,14938182.830810547,9750203.132629395,8262984.275817871,-15370184.898376465,-4114997.386932373,-8038105.9646606445,-1840427.1602630615,662365.3769493103,-2989074.230194092,5397791.862487793,3888554.811477661,-1242246.5085983276,-11288202.285766602,-6931421.279907227,-10504966.735839844,-8092989.921569824,-10371212.95928955,672852.5161743164,3141084.4326019287,1957255.9595108032,-6354430.675506592,-14830658.912658691,-15997520.446777344,-22147693.634033203,-20684267.044067383,-10935671.80633545,-9069811.820983887,-9076748.847961426,-7852158.069610596,-4970290.660858154,-5705760.0021362305,-4721139.907836914,-10219662.6663208
0.43,15373235.702514648,33349098.205566406,42676326.751708984,12544805.526733398,27980375.289916992,-19806638.717651367,-11344238.28125,-11610548.973083496,12382421.493530273,14853325.843811035,21595079.42199707,20400953.29284668,14611616.134643555,11291122.436523438,-21461139.678955078,-15341810.22644043,952420.5923080444,9267736.434936523,12113872.528076172,10876615.524291992,13163713.455200195,15695797.92022705,12041954.99420166,-18557743.072509766,-4152070.999145508,-331396.57974243164,2191998.243331909,5315953.254699707,5293147.087097168,15500259.399414062,8961323.738098145,5479907.512664795,-21624164.581298828,-10500104.904174805,-12593448.638916016,-4393377.304077148,576623.4993934631,-2558738.946914673,5345071.792602539,2407835.7219696045,-4547610.759735107,-16120079.040527344,-11372476.577758789,-13870099.067687988,-10148419.380187988,-11657201.766967773,-366877.0492076874,958494.6632385254,-1779698.8487243652,-10371625.900268555,-19101877.212524414,-20272094.7265625,-27063377.380371094,-23926343.91784668,-15078465.461730957,-13612072.944641113,-13686061.85913086,-13317619.323730469,-10142354.011535645,-10289273.262023926,-9217206.954956055,-15596747.398376465
0.435,15132553.100585938,36174129.486083984,48315166.47338867,12435931.205749512,33341148.376464844,-26064373.016357422,-15730177.879333496,-15992346.76361084,13653701.782226562,19012479.782104492,27087779.998779297,26245353.69873047,18454885.482788086,14208207.130432129,-27143854.14123535,-21809455.87158203,-3582672.357559204,7889273.643493652,13241930.961608887,13467569.351196289,15644853.591918945,17536701.202392578,12659879.684448242,-23365287.78076172,-10171134.948730469,-5936568.737030029,-1718568.4442520142,5095819.473266602,6488370.418548584,16675109.86328125,9479240.417480469,5374008.1787109375,-24449165.34423828,-15429350.852966309,-17014045.71533203,-6941661.357879639,633367.5384521484,-565268.1589126587,7440351.0093688965,2762508.1539154053,-4882030.963897705,-17673145.294189453,-14121709.823608398,-16170286.178588867,-9933110.237121582,-8665584.564208984,3610293.6267852783,2788545.608520508,-1272305.6077957153,-10773122.787475586,-19901197.43347168,-21101694.107055664,-27616950.98876953,-22237920.7611084,-12428624.153137207,-12386236.190795898,-12406641.006469727,-13977805.137634277,-10097313.88092041,-9702657.699584961,-7874409.198760986,-15580503.463745117
0.44,8998905.181884766,31803945.541381836,45502136.23046875,8562033.653259277,32322849.27368164,-30096124.64904785,-19577838.897705078,-19837244.033813477,11477223.39630127,18593597.412109375,27560125.35095215,28121072.76916504,19526931.762695312,16033418.655395508,-29160436.630249023,-25546133.041381836,-7067053.318023682,5450450.897216797,12311637.878417969,14030812.26348877,16499715.805053711,18858186.721801758,14232098.579406738,-24951347.35107422,-13122686.386108398,-9665882.110595703,-5332352.638244629,4920242.786407471,7293222.904205322,18327753.0670166,11588994.979858398,7708817.005157471,-24723297.119140625,-17010076.52282715,-19181207.65686035,-8297458.648681641,761780.9176445007,2255939.722061157,10824337.95928955,5635382.652282715,-1897567.7490234375,-17480998.992919922,-14620180.130004883,-16792322.158813477,-8257963.180541992,-3683263.3018493652,10008370.399475098,8854297.637939453,4042921.0662841797,-7124850.749969482,-18881523.13232422,-20028099.060058594,-24479219.436645508,-17373760.223388672,-5110772.609710693,-6837357.997894287,-6708602.9052734375,-11957513.809204102,-7124931.812286377,-6049195.766448975,-3394896.0304260254,-12119208.335876465
0.445,3924340.24810791,26894433.975219727,40471393.58520508,4416685.581207275,28147127.151489258,-31647171.020507812,-21443273.544311523,-21711456.298828125,7344791.889190674,14590953.826904297,24232080.459594727,27494211.196899414,19173824.310302734,16919912.338256836,-29447704.315185547,-25504863.739013672,-7906957.626342773,3567301.2733459473,10543858.528137207,13487472.534179688,17089118.95751953,20332111.358642578,16679365.158081055,-24359708.786010742,-12541332.244873047,-9731295.585632324,-6608440.87600708,5056650.161743164,8147080.421447754,20373485.565185547,14717213.63067627,10737550.735473633,-24407979.96520996,-15620453.834533691,-18486000.061035156,-8075462.341308594,784299.7312545776,4102146.625518799,13073617.935180664,9067418.098449707,1338925.4808425903,-17515596.389770508,-13763175.010681152,-16304759.979248047,-7234846.115112305,-1670992.0167922974,12588083.267211914,13483777.99987793,8835019.1116333,-3422488.9278411865,-18324651.71813965,-19432184.21936035,-21188911.43798828,-14980825.424194336,-1649606.704711914,-3486907.720565796,-3260518.5508728027,-10807963.371276855,-5500912.189483643,-4165366.6496276855,-1765724.539756775,-10234623.908996582
0.45,5437251.091003418,27756177.90222168,40079830.169677734,4325773.239135742,27493339.53857422,-30614484.786987305,-20113065.719604492,-20437366.485595703,6235332.012176514,12990331.649780273,22980464.935302734,28225978.85131836,19729513.16833496,17548784.255981445,-28529376.983642578,-22585700.98876953,-5547311.782836914,4601015.090942383,10764852.523803711,14240878.105163574,18551155.09033203,22093189.239501953,19309255.599975586,-22414556.5032959,-9578887.939453125,-6425415.0390625,-4948881.149291992,6171716.690063477,9064211.84539795,21831693.649291992,17086708.068847656,12767456.0546875,-23027082.443237305,-12506719.589233398,-15792357.444763184,-6633438.587188721,666370.5110549927,3715598.5832214355,12659637.451171875,10332349.77722168,2117093.086242676,-17256694.793701172,-12040873.527526855,-15066063.88092041,-7729095.935821533,-4398715.019226074,8840415.000915527,11984195.709228516,8231013.298034668,-3277856.5883636475,-17765821.45690918,-18964572.90649414,-19595783.233642578,-17547483.444213867,-5899089.336395264,-5671183.5861206055,-5471285.820007324,-10657670.974731445,-5836540.222167969,-5435942.17300415,-4344928.26461792,-11381207.466125488
0.455,9944864.273071289,31541908.264160156,42633007.04956055,7481113.910675049,30679214.477539062,-28020433.42590332,-16823234.55810547,-17179651.260375977,9612406.730651855,16156009.674072266,25730997.08557129,30202558.517456055,20556732.177734375,17307373.046875,-25605583.19091797,-19028999.32861328,-1907188.2963180542,7952530.384063721,13314273.834228516,16160726.547241211,19286392.211914062,22280748.36730957,19871084.213256836,-19487422.943115234,-6324813.365936279,-2531880.1403045654,-1841635.2272033691,8043638.229370117,9296589.851379395,21083507.537841797,16537857.055664062,12592052.459716797,-19347501.754760742,-9193701.74407959,-12988524.436950684,-4988416.1949157715,511590.71922302246,1548512.1011734009,10190743.446350098,8549638.748168945,667732.7156066895,-15449398.040771484,-9589635.848999023,-13314967.155456543,-9020176.887512207,-8718903.541564941,2772809.0286254883,6493473.052978516,3565628.0517578125,-5937785.625457764,-15919920.921325684,-17251346.588134766,-19036840.438842773,-21646219.25354004,-12304604.530334473,-9943508.14819336,-9790864.944458008,-9642831.802368164,-5866108.8943481445,-7018739.223480225,-6960076.808929443,-12594898.223876953
0.46,10645765.30456543,31723625.18310547,42617530.822753906,9832645.416259766,32679225.92163086,-25514602.661132812,-14022314.071655273,-14314733.505249023,13900886.535644531,20483768.463134766,29001449.584960938,30755733.489990234,19959970.474243164,16039752.960205078,-21365905.76171875,-16551132.202148438,314050.6148338318,10548215.866088867,15686480.522155762,17096765.518188477,17775979.99572754,20009433.74633789,17481927.8717041,-16369935.989379883,-4619595.527648926,-783338.4275436401,598187.0293617249,9411507.606506348,8540393.829345703,18204442.977905273,13241702.07977295,10444352.149963379,-14760791.778564453,-7149647.235870361,-11701709.747314453,-4185153.9611816406,413299.3519306183,-703055.4413795471,7442176.342010498,5582921.981811523,-829435.2889060974,-12869505.882263184,-7299723.6251831055,-11840296.745300293,-10061015.129089355,-10878077.507019043,-429472.1186161041,2852775.3353118896,189692.34824180603,-7772294.521331787,-13698234.558105469,-15041715.621948242,-18604579.92553711,-22954872.131347656,-14033161.163330078,-11270265.579223633,-11069856.643676758,-7784662.72354126,-4785729.40826416,-6449516.296386719,-6305359.840393066,-11508258.819580078
0.465,7401196.002960205,28426822.662353516,40303493.49975586,9934501.647949219,31776737.213134766,-23835138.32092285,-12735336.303710938,-12958651.542663574,15470893.859863281,22148626.32751465,29966548.919677734,30335638.04626465,19017093.658447266,15823394.775390625,-18388050.079345703,-15294829.368591309,458394.1400051117,10640845.29876709,15896478.652954102,16502504.348754883,15837941.16973877,17963302.612304688,15358321.189880371,-14057393.074035645,-4557005.882263184,-1050392.8661346436,1384684.9203109741,9518054.962158203,7657148.361206055,15892560.005187988,10784501.075744629,8953769.68383789,-12143676.7578125,-6516557.216644287,-11710894.584655762,-4240455.627441406,412199.7058391571,-1606481.432914734,5786309.719085693,4454375.267028809,-482333.9283466339,-11097208.976745605,-6125051.021575928,-11121095.657348633,-10046032.905578613,-10310111.045837402,11811.383999884129,3496401.071548462,950645.8044052124,-6583578.109741211,-12638279.914855957,-13877200.12664795,-17851808.547973633,-21152263.641357422,-11436701.774597168,-8997535.705566406,-8715358.73413086,-6373849.391937256,-3617358.2077026367,-4197217.94128418,-3574720.621109009,-9065883.63647461
0.47,5880169.39163208,27445358.276367188,40788009.64355469,9700722.694396973,31311134.338378906,-22519695.281982422,-12297311.782836914,-12576331.13861084,14170756.340026855,21186811.447143555,29494453.43017578,31899614.334106445,20238121.032714844,18643074.03564453,-17844089.50805664,-14464902.877807617,-58975.17874836922,9209155.082702637,14340084.075927734,15866087.913513184,16271301.26953125,19365242.00439453,17756181.716918945,-12639654.159545898,-4218991.756439209,-1078633.3084106445,839842.2002792358,8935458.183288574,7524860.858917236,16486694.3359375,12584663.391113281,11245769.500732422,-11587302.207946777,-5613746.643066406,-11171276.092529297,-4148630.142211914,526155.948638916,-1044506.0729980469,5553059.101104736,6520708.084106445,2184679.5082092285,-9537842.750549316,-5412085.056304932,-10227801.322937012,-8531013.488769531,-8454511.642456055,1666141.5100097656,6005449.295043945,3932599.3061065674,-3344923.496246338,-11608538.627624512,-12760264.39666748,-15911681.175231934,-18343996.047973633,-9169648.170471191,-6028684.616088867,-5777531.623840332,-4661465.644836426,-2101622.5814819336,-1450616.1212921143,-1058677.7925491333,-6783600.807189941
0.475,8522833.824157715,30396825.790405273,44913852.69165039,10247184.753417969,32726116.180419922,-20963754.653930664,-11863448.143005371,-12265251.159667969,11736702.919006348,19254808.42590332,28792160.034179688,34946086.88354492,22979303.35998535,22958745.9564209,-17396451.950073242,-13413211.822509766,-135290.9505367279,7752523.422241211,12349788.665771484,15704626.083374023,18331464.767456055,23107372.283935547,23980504.989624023,-11013836.860656738,-1878311.3956451416,189437.43407726288,-232367.17283725739,8387008.6669921875,7796427.249908447,18803035.736083984,17308897.018432617,16827371.59729004,-10055014.610290527,-2973292.112350464,-9044127.464294434,-3295887.4702453613,705401.0033607483,-35814.788192510605,6210604.667663574,10039375.305175781,6054563.999176025,-6263038.158416748,-3607069.0155029297,-8014639.854431152,-6179224.967956543,-6167931.55670166,3222259.044647217,7636998.653411865,5990211.486816406,-357544.06452178955,-8240050.315856934,-9381471.633911133,-12481678.96270752,-15394638.061523438,-8552165.985107422,-4337430.953979492,-4216062.545776367,-787051.6180992126,1202072.5011825562,1709429.0256500244,1224122.405052185,-4402947.902679443
0.48,11348690.9866333,32165382.385253906,47325603.48510742,10280720.710754395,32698516.845703125,-19314346.313476562,-11165967.94128418,-11601416.58782959,9412640.571594238,16941392.89855957,27240695.95336914,35209751.12915039,23736349.10583496,25015539.169311523,-14365644.454956055,-12176751.136779785,-149530.18724918365,6641392.707824707,10701182.36541748,14846098.899841309,18679357.528686523,24836404.80041504,28308227.5390625,-8439270.01953125,1414368.2718276978,1268010.7355117798,-1068266.51096344,7672735.691070557,7623172.760009766,19785087.58544922,20054475.784301758,21049961.09008789,-6237740.993499756,147628.93319129944,-6817043.781280518,-2430802.822113037,800478.2199859619,347626.35827064514,6955617.427825928,12001302.719116211,8854958.534240723,-1941544.1751480103,-1037673.4733581543,-5390291.213989258,-4779709.815979004,-3978504.419326782,5034283.16116333,8355442.047119141,6269831.18057251,1006512.2842788696,-3560477.2567749023,-4722069.74029541,-9709576.606750488,-12378761.291503906,-7452664.852142334,-3740682.601928711,-3659648.656845093,3887721.7769622803,5236978.054046631,4689065.933227539,3594430.446624756,-1868505.1202774048
0.485,9864123.344421387,28601602.55432129,44250331.87866211,8491082.191467285,28864725.11291504,-18752529.14428711,-10673485.75592041,-11068350.791931152,7753531.932830811,14593638.42010498,24765563.96484375,31281911.849975586,21159456.253051758,23225862.503051758,-10466687.202453613,-11731707.572937012,-929310.4410171509,5791546.821594238,9802639.00756836,13035321.235656738,16415662.76550293,22672037.12463379,26582521.438598633,-6381755.352020264,2321919.9180603027,324095.6664085388,-1215692.2817230225,6456795.215606689,7063853.2638549805,18638824.462890625,18274116.51611328,19966733.932495117,-3475354.9098968506,604418.5161590576,-6863179.683685303,-2631163.3586883545,684579.1935920715,-93161.9331240654,7266517.639160156,11277076.721191406,8641809.463500977,-380267.1432495117,-277206.9275379181,-4749665.260314941,-5169884.68170166,-3092542.886734009,6658886.432647705,9046144.485473633,5694131.851196289,667009.2940330505,-2022946.5961456299,-3192879.1999816895,-10500015.258789062,-10684274.673461914,-5818167.209625244,-4006309.986114502,-3779218.6737060547,4840820.789337158,6110908.031463623,5320247.173309326,4313421.249389648,-1267615.0798797607
0.49,4164515.972137451,21685838.69934082,38193778.99169922,5059235.095977783,23677564.62097168,-20959930.419921875,-11761861.801147461,-12202926.635742188,6711876.86920166,13033458.709716797,22894662.857055664,27093904.495239258,17564897.537231445,19212219.23828125,-10761257.17163086,-13514488.220214844,-2681004.762649536,5200337.886810303,9749456.405639648,11734721.183776855,14032613.754272461,18966424.9420166,20610757.82775879,-7678840.637207031,-1007870.4357147217,-2365235.5670928955,-959139.5258903503,5345786.571502686,6777596.473693848,17159944.534301758,14280258.178710938,14621437.072753906,-5695890.426635742,-2852392.4350738525,-9340218.544006348,-3697327.136993408,401606.61935806274,-732462.7637863159,6993850.7080078125,9191059.112548828,5448483.943939209,-3834475.27885437,-2760528.326034546,-6716587.066650391,-5732813.835144043,-4014766.6931152344,6695950.984954834,9185327.529907227,4655888.080596924,-1006126.6422271729,-5768601.417541504,-6931838.512420654,-14321817.398071289,-11622362.13684082,-6272164.344787598,-5569105.14831543,-5164464.950561523,224379.65869903564,2059367.6567077637,2438447.952270508,1898693.0847167969,-4353766.441345215
0.495,-2437806.1294555664,15587275.505065918,33259361.267089844,838710.4868888855,20154809.951782227,-25934045.791625977,-15303451.538085938,-15888744.354248047,5340590.000152588,12020780.563354492,21882331.84814453,25973279.95300293,14873485.565185547,14946906.089782715,-16644424.438476562,-17419544.219970703,-4864112.854003906,4482856.750488281,9738091.468811035,11615873.336791992,13196494.102478027,16206872.940063477,15127538.681030273,-12596641.540527344,-6165385.2462768555,-4706552.028656006,-1149258.017539978,5274036.884307861,6748788.356781006,16348615.646362305,11399755.477905273,9350340.843200684,-11399824.142456055,-7500710.010528564,-11792217.254638672,-4369685.173034668,130167.12665557861,-937687.4566078186,6142917.156219482,7221554.279327393,1255958.1995010376,-9345837.593078613,-6337981.700897217,-8954224.586486816,-4558145.999908447,-5180549.144744873,5097047.805786133,7770002.365112305,2736400.604248047,-3573903.799057007,-11142369.270324707,-12291390.419006348,-17014692.306518555,-13825257.301330566,-9148577.690124512,-7973812.580108643,-7579458.713531494,-5765452.3849487305,-3353565.454483032,-1682683.3486557007,-1694769.7401046753,-9150424.95727539
0.5,-6775381.565093994,11850959.777832031,29982799.530029297,-2887760.1623535156,17652593.6126709,-30206754.684448242,-19280847.549438477,-19930286.407470703,3045327.4250030518,10191243.171691895,19787496.56677246,26218685.150146484,12338676.452636719,11268867.492675781,-22364780.42602539,-20476137.161254883,-6328699.111938477,3303338.5276794434,8711276.054382324,11477862.358093262,12768869.400024414,14272571.563720703,12624757.766723633,-16891292.572021484,-8542148.59008789,-5032875.537872314,-2120997.905731201,6164831.638336182,6473578.453063965,15424691.200256348,10240804.672241211,7013940.334320068,-14495568.27545166,-9268428.802490234,-12081321.716308594,-4082942.008972168,-197.33539375010878,-627216.5775299072,5070856.57119751,5651631.3552856445,-1685869.0977096558,-11626858.711242676,-7585331.916809082,-9113281.25,-2596322.0596313477,-4794321.537017822,3650577.5451660156,5535270.690917969,382255.882024765,-6109058.380126953,-12772930.145263672,-13941116.333007812,-15846916.198730469,-14612581.253051758,-11080898.28491211,-9450609.20715332,-9253153.800964355,-7318206.310272217,-4986281.394958496,-3323155.164718628,-2884478.0921936035,-11316989.89868164
