time,Fp1,Fpz,Fp2,AF3,AF4,F7,F5,F3,F1,Fz,F2,F4,F6,F8,FT7,FC5,FC3,FC1,FCz,FC2,FC4,FC6,FT8,T7,C5,C3,C1,Cz,C2,C4,C6,T8,TP7,CP5,CP3,CP1,CPz,CP2,CP4,CP6,TP8,P7,P5,P3,P1,Pz,P2,P4,P6,P8,PO7,PO5,PO3,POz,PO4,PO6,PO8,CB1,O1,Oz,O2,CB2
0.0,4457373.61907959,8014743.804931641,7184907.913208008,3275787.830352783,4350730.895996094,-1444563.9848709106,-1365558.0282211304,-1398071.4082717896,906514.048576355,456402.3017883301,2579749.345779419,2608452.796936035,2691563.844680786,4571121.692657471,-1480751.1568069458,-811139.1067504883,-1020278.2154083252,-203684.62800979614,2307381.1531066895,2434836.1492156982,2380747.5566864014,2673311.471939087,4536019.325256348,-1515916.347503662,-1585375.428199768,-1945955.8725357056,-1787802.4578094482,173137.8734111786,148896.82829380035,8373.351767659187,1382093.7871932983,4523942.947387695,-1571206.3312530518,-1551150.2027511597,-1839962.8400802612,-2631007.9097747803,90822.05593585968,-1513792.634010315,-33246.4724779129,-1079478.0254364014,4576685.428619385,-1621549.4871139526,-1565164.8044586182,-1575602.0545959473,-1574009.1800689697,-1603205.2040100098,-1565729.260444641,-1149191.6179656982,-1151046.7529296875,-1154643.5356140137,-1652660.608291626,-1728036.5228652954,-1787628.0546188354,-1603616.1184310913,-1318943.1428909302,-1364982.2473526,-1298561.453819275,-1678602.5762557983,-1552175.9986877441,-1543951.8690109253,-1385182.499885559,-1428588.7479782104
0.005,52172786.712646484,50391319.274902344,36750640.869140625,39261878.967285156,31289958.953857422,-1196125.9841918945,-188817.45636463165,-1090557.4560165405,21867389.678955078,17548002.243041992,18057878.494262695,17611032.485961914,18059310.913085938,10919355.392456055,-2068881.0348510742,11485098.838806152,9556664.46685791,8994238.85345459,16190128.326416016,17224569.32067871,16735185.623168945,17368387.22229004,10565213.203430176,-3381782.5317382812,1867923.4981536865,883418.4408187866,-849193.811416626,2549537.8971099854,1539018.988609314,4788042.068481445,7754259.10949707,10322450.637817383,-4162366.3902282715,-4523320.67489624,-1092650.055885315,-5325139.999389648,1302047.1334457397,-6021891.5939331055,4324166.774749756,-8552930.83190918,11013339.99633789,-4831486.225128174,-4697748.184204102,-4659804.821014404,-12712942.123413086,-13086934.089660645,-7042445.182800293,-9674072.265625,-9530858.993530273,-9231170.654296875,-6138191.223144531,-7398804.187774658,-7695367.813110352,-13243383.407592773,-11174921.989440918,-12130039.21508789,-10944695.472717285,-6358032.703399658,-4337132.453918457,-12849177.360534668,-11703256.607055664,-12477696.418762207
0.01,98598686.21826172,93085098.26660156,70529960.63232422,68130996.70410156,53517105.10253906,3968163.49029541,5531227.588653564,4379697.799682617,37453510.28442383,30838872.9095459,26482925.415039062,25940999.98474121,26468776.70288086,11566615.104675293,2352916.2406921387,22653942.108154297,18846183.77685547,16241983.413696289,23783096.313476562,25133415.22216797,24506013.870239258,25532007.217407227,11096154.21295166,201626.21140480042,7408881.187438965,5754494.667053223,2120901.584625244,3389475.3456115723,2104549.1695404053,4577727.317810059,8553433.418273926,10813986.778259277,-1439933.5384368896,-2057938.3373260498,1766557.8126907349,-3979037.046432495,1685194.730758667,-8104323.387145996,3927574.872970581,-13151659.965515137,11671161.651611328,-2418685.9130859375,-2368495.7027435303,-2293183.0883026123,-18026481.62841797,-18579206.466674805,-9450864.791870117,-14586719.512939453,-14485352.516174316,-14172258.377075195,-4365611.0763549805,-6120586.395263672,-6519855.02243042,-18738372.802734375,-16435575.485229492,-17932132.720947266,-16373750.686645508,-4803809.16595459,-2012335.7772827148,-18267551.42211914,-17072105.407714844,-17955739.974975586
0.015,128286285.40039062,120905143.73779297,95317184.44824219,81579856.8725586,64879890.44189453,12810529.708862305,14382658.004760742,13495250.701904297,43989746.09375,37021293.64013672,27134740.829467773,26868974.685668945,27210531.23474121,9436207.77130127,10795777.320861816,31266275.40588379,25285135.26916504,20147752.76184082,24404146.194458008,25579851.150512695,25090019.22607422,26435935.974121094,9087529.182434082,8428704.261779785,14724233.627319336,12045196.533203125,6410039.42489624,2870778.0838012695,1835721.3735580444,1358951.3301849365,6193364.143371582,8882751.46484375,6147039.413452148,5426123.61907959,6750676.63192749,981024.7421264648,1329761.9819641113,-7051038.74206543,770825.3860473633,-12782721.519470215,9529175.758361816,5157293.319702148,5145386.219024658,5202388.286590576,-16023159.02709961,-16499385.833740234,-8170020.10345459,-13916824.340820312,-14105012.893676758,-13872351.64642334,3360239.7441864014,1707299.2324829102,1323470.8309173584,-16630901.336669922,-15234172.821044922,-16851837.158203125,-15583497.047424316,2708758.83102417,5164648.532867432,-16269582.748413086,-15729045.867919922,-16205459.594726562
0.02,125942176.81884766,118274818.42041016,94554626.46484375,76362113.95263672,62436893.463134766,19100702.2857666,20297838.21105957,19611200.3326416,41359035.49194336,35014457.70263672,24549249.64904785,24562381.744384766,24754009.246826172,11755518.913269043,17244544.982910156,35213634.4909668,27133640.28930664,20216075.897216797,22045106.887817383,23108247.756958008,22763956.06994629,24170475.006103516,11557502.746582031,15175010.681152344,20572355.270385742,16288309.097290039,8991303.443908691,2302394.8669433594,1398370.7427978516,797696.053981781,7069040.775299072,11386798.858642578,12918678.283691406,12234300.61340332,11262248.039245605,5234450.817108154,945858.0613136292,-4234153.747558594,341506.39176368713,-8225930.213928223,11868682.861328125,11978103.637695312,12204808.235168457,12162362.098693848,-10316928.86352539,-10554533.958435059,-5158187.389373779,-9120271.682739258,-9662123.680114746,-9257280.349731445,10747018.814086914,9232938.766479492,8856021.881103516,-10786152.839660645,-9902940.75012207,-11429868.698120117,-10441597.938537598,9980054.85534668,11915886.878967285,-10471412.658691406,-10333331.108093262,-10477330.207824707
0.025,97774612.42675781,91364440.91796875,71427261.35253906,59381805.419921875,50182579.040527344,18142993.927001953,18973073.959350586,18166255.950927734,33040420.532226562,26944242.477416992,21977399.826049805,21960296.630859375,22266643.524169922,18578351.974487305,16883977.89001465,32556488.037109375,23596227.645874023,16918582.916259766,19604959.48791504,20840652.465820312,20468158.721923828,21619113.92211914,18287427.90222168,15357681.274414062,21080644.607543945,15245868.682861328,7824897.766113281,2326758.38470459,1317669.2724227905,3942936.1820220947,11776956.558227539,18154323.57788086,13666492.462158203,13163716.316223145,12174738.883972168,5452975.273132324,914277.8515815735,-1764914.870262146,3543888.568878174,-3642281.0554504395,18668779.373168945,12696975.708007812,13375617.980957031,13213903.427124023,-6237606.525421143,-6329662.799835205,-2813667.2973632812,-4657289.505004883,-5289242.267608643,-4559960.36529541,11935169.219970703,10407381.057739258,9949975.967407227,-6661992.073059082,-5414204.120635986,-6823758.602142334,-5732042.31262207,11240732.192993164,13124606.132507324,-6261297.702789307,-5908883.094787598,-6084372.520446777
0.03,65272399.90234375,60743095.39794922,44117820.739746094,41764923.095703125,34886035.91918945,10969610.214233398,11696450.233459473,10712497.71118164,23596469.87915039,16734802.24609375,18351737.97607422,18067873.001098633,18627904.891967773,21079200.744628906,10322596.549987793,24036590.576171875,16519285.202026367,11738909.721374512,16207227.70690918,17584695.81604004,17074296.951293945,17725378.036499023,20456657.40966797,9307144.165039062,15553614.616394043,9678582.191467285,4338321.208953857,2494967.6990509033,1524670.0048446655,6205661.296844482,14244863.510131836,20510759.353637695,8179878.234863281,7968636.989593506,9118481.636047363,2786494.016647339,1028503.41796875,-838314.8908615112,5798923.015594482,-3132490.634918213,21070024.490356445,7176828.861236572,8121376.037597656,7917447.566986084,-6491181.373596191,-6705349.922180176,-2076674.461364746,-4326778.888702393,-4659463.405609131,-3873708.963394165,6533247.470855713,5115458.965301514,4529793.262481689,-6933146.953582764,-5308821.678161621,-6620741.844177246,-5294751.167297363,6099583.148956299,8204970.359802246,-6444461.345672607,-5794914.245605469,-6129316.329956055
0.035,42001422.88208008,38114356.994628906,24059513.092041016,29602758.407592773,21148189.544677734,2590978.3840179443,3367280.2448272705,2424073.9345550537,16537843.704223633,8441111.56463623,12730466.842651367,12273989.6774292,12903096.199035645,13583910.942077637,2207653.522491455,14345539.093017578,10306899.070739746,7130706.310272217,11118034.362792969,12332413.673400879,11740096.092224121,11815292.358398438,12729908.94317627,1480233.6692810059,7892964.839935303,4220534.801483154,1967230.4391860962,2399696.3500976562,1692187.1900558472,4400600.433349609,10799716.94946289,13046905.517578125,636055.9463500977,682832.0026397705,5137906.551361084,861836.4334106445,1041421.2942123413,-1441108.9420318604,3984241.485595703,-6765805.721282959,13554542.541503906,-291451.48396492004,517664.01529312134,356747.8060722351,-9862010.955810547,-10334157.943725586,-2664574.62310791,-7918674.945831299,-7826030.254364014,-7341707.706451416,-1125645.5183029175,-2192438.6024475098,-2861293.077468872,-10358761.78741455,-8967321.395874023,-10211361.8850708,-8885709.762573242,-1212251.6632080078,893499.1359710693,-9861297.607421875,-9320446.968078613,-9674653.053283691
0.04,28231216.430664062,23568208.694458008,11937973.976135254,23757280.349731445,12975689.888000488,-2559117.078781128,-1830176.4726638794,-2605538.1298065186,14329663.276672363,5733766.555786133,8876768.112182617,8519434.928894043,8930711.74621582,2737441.5397644043,-3065291.8815612793,9085306.167602539,8799176.216125488,5685307.025909424,7776286.602020264,8720851.89819336,8174512.86315918,7891252.040863037,2006249.4277954102,-3758881.8073272705,3231874.704360962,2678179.979324341,2396942.8539276123,2307437.1814727783,1729142.5466537476,811907.2318077087,5354964.256286621,2406304.5978546143,-4495338.916778564,-4358443.260192871,3350475.788116455,1088487.7443313599,1009086.1320495605,-3384448.289871216,369103.342294693,-11298271.179199219,2880333.662033081,-5235826.9691467285,-4774702.548980713,-4903899.669647217,-13678912.162780762,-14232002.258300781,-4510093.212127686,-12336298.942565918,-12063275.337219238,-11853193.283081055,-6429492.950439453,-7210485.935211182,-7857875.347137451,-14245400.428771973,-13281991.958618164,-14513506.889343262,-13406163.215637207,-6223308.563232422,-4403772.830963135,-13776534.080505371,-13538109.77935791,-13840851.783752441
0.045,22850305.557250977,18291706.085205078,8636275.291442871,24373708.724975586,14300528.526306152,-3413914.442062378,-2836246.967315674,-3566220.283508301,17841018.676757812,10135830.879211426,11390719.413757324,11233016.014099121,11383956.909179688,-560898.0655670166,-4208727.3597717285,9665535.926818848,11803912.162780762,8151191.711425781,10295370.101928711,11181251.525878906,10754364.013671875,10558495.52154541,-1007200.9563446045,-4997698.3070373535,3068548.2025146484,4234654.903411865,4141955.3756713867,2472776.412963867,1756513.9532089233,-1001471.0426330566,3416675.806045532,-773404.5386314392,-5727570.533752441,-5626372.814178467,3658506.155014038,1550364.1366958618,1018052.8163909912,-6520371.437072754,-1529118.0610656738,-14161295.890808105,-246046.17059230804,-6251410.484313965,-6054534.435272217,-6227027.416229248,-16406396.865844727,-16753612.518310547,-7697406.29196167,-15241962.432861328,-15105233.192443848,-14833269.119262695,-7811517.715454102,-8649083.137512207,-9178446.769714355,-16951240.53955078,-16117172.241210938,-17351856.231689453,-16415748.596191406,-7478482.723236084,-5892557.144165039,-16536664.962768555,-16360645.294189453,-16709274.291992188
0.05,26021776.19934082,23693832.397460938,14828138.35144043,29707448.959350586,22850845.336914062,-1797786.5934371948,-1249699.592590332,-2121290.2069091797,24204086.303710938,18051534.65270996,18205875.396728516,18079561.233520508,18201862.335205078,4710662.364959717,-2773096.0845947266,12304761.88659668,15433564.186096191,12138968.467712402,16729299.545288086,17679384.231567383,17367012.02392578,17538002.014160156,4338336.944580078,-3616156.816482544,4660894.393920898,5338391.304016113,4914021.4920043945,2575005.054473877,1777822.9713439941,-1018420.4578399658,4884114.742279053,4374761.581420898,-4485613.822937012,-4382144.927978516,3788859.6057891846,466566.17522239685,961216.3305282593,-9553998.947143555,-1625634.0742111206,-14893781.661987305,4931071.2814331055,-4846212.387084961,-4730497.83706665,-4958472.728729248,-17405618.66760254,-17502931.594848633,-10854912.757873535,-16084808.349609375,-16177156.448364258,-15651244.163513184,-6546171.66519165,-7653392.791748047,-8030907.63092041,-17773769.37866211,-16962341.30859375,-18108501.434326172,-17175065.994262695,-6296966.552734375,-4669672.966003418,-17483102.798461914,-17125295.639038086,-17566265.106201172
0.055,31234245.30029297,30949060.440063477,22103158.950805664,33447334.28955078,28534631.729125977,203902.30417251587,926097.6314544678,-145511.40367984772,27589544.29626465,22194824.21875,21670494.079589844,21386035.919189453,21710044.860839844,9817490.577697754,-669404.6854972839,13063302.993774414,16426124.572753906,13971914.291381836,20051879.8828125,20855180.740356445,20634258.270263672,21001520.15686035,9297809.600830078,-1438712.5968933105,5556392.669677734,4737680.912017822,4391946.315765381,2261574.9835968018,1645457.38697052,-1126466.7510986328,6106497.287750244,9292151.45111084,-2440728.9028167725,-2244782.2093963623,3114398.47946167,-1030725.9559631348,759871.3040351868,-9937490.463256836,-1678356.1706542969,-13208230.018615723,9766160.011291504,-2744141.5786743164,-2581073.999404907,-2778374.433517456,-15615446.090698242,-15715696.334838867,-11187680.2444458,-14341881.75201416,-14585718.154907227,-13913696.2890625,-4190968.5134887695,-5466798.782348633,-5735949.0394592285,-15805458.068847656,-15200783.729553223,-16147752.76184082,-15142056.465148926,-4168861.8659973145,-2350015.640258789,-15656863.21258545,-15151638.984680176,-15573984.146118164
0.06,29758951.18713379,28963178.634643555,20566831.588745117,30834592.819213867,25256412.506103516,2099340.9156799316,2984390.7356262207,1780692.458152771,25101379.39453125,19170396.80480957,18599893.56994629,18191425.323486328,18748950.958251953,9844320.297241211,1566010.4751586914,12467302.322387695,15358072.280883789,12530694.007873535,17272912.979125977,17730791.091918945,17606363.29650879,17872518.53942871,9298771.858215332,961679.7566413879,6689837.455749512,4637310.028076172,3909929.5139312744,1791943.4309005737,1356447.5774765015,-1139896.1544036865,6461465.835571289,9345645.904541016,114023.29057455063,360137.13479042053,3411876.916885376,-867959.201335907,545186.6388320923,-6717462.539672852,-1504813.551902771,-8791261.672973633,9698624.610900879,-244528.94926071167,36299.340426921844,-58171.74166440964,-10821671.485900879,-11156154.63256836,-7773859.977722168,-9731807.708740234,-10085235.595703125,-9420825.004577637,-1231729.8650741577,-2462601.661682129,-2698579.3113708496,-11040847.778320312,-10555008.888244629,-11339141.845703125,-10286691.665649414,-1393190.0262832642,542957.3655128479,-10900273.323059082,-10335842.13256836,-10650608.06274414
0.065,24383592.60559082,22239297.86682129,14753222.465515137,26259872.436523438,20197423.934936523,4121993.064880371,4953198.432922363,3726286.8881225586,20643459.32006836,13966506.958007812,14653297.424316406,14308119.773864746,14980762.481689453,9308238.02947998,3887075.662612915,13422234.535217285,14857440.948486328,10352150.917053223,13523510.932922363,13844870.567321777,13819671.630859375,14060433.387756348,8986558.91418457,3419979.0954589844,9521046.63848877,6640007.495880127,4174894.8097229004,1670061.5882873535,1146423.578262329,346858.6206436157,8267930.98449707,9057308.197021484,2925501.1081695557,3070700.4070281982,5453343.868255615,558175.8618354797,442516.2672996521,-2862583.637237549,107877.2097826004,-3818276.6437530518,9340941.429138184,2460292.339324951,2854016.3040161133,2819672.5845336914,-5960690.021514893,-6464117.050170898,-3893535.375595093,-4707129.47845459,-5172297.954559326,-4531300.5447387695,1673206.9253921509,592261.7316246033,345032.30452537537,-6370697.021484375,-5566239.356994629,-6359588.146209717,-5295609.474182129,1545855.164527893,3457537.6510620117,-6057926.177978516,-5385490.417480469,-5663453.578948975
0.07,24927415.84777832,23517475.128173828,16275365.829467773,27078096.389770508,22675609.588623047,5311851.501464844,5956333.160400391,4803546.905517578,19828384.399414062,13419089.317321777,15503006.935119629,15306410.789489746,15924642.562866211,11853197.09777832,5061648.368835449,15774197.578430176,15572682.38067627,10104736.328125,14127333.641052246,14717211.723327637,14729746.81854248,15200949.668884277,11698683.738708496,4586760.0440979,12106674.194335938,8867357.25402832,4538407.802581787,1897201.657295227,1182703.7334442139,2362810.3733062744,11035562.515258789,11790118.217468262,4197847.366333008,4191596.031188965,7097531.795501709,1069821.0000991821,378600.7761955261,-2405640.3636932373,2033798.2177734375,-2457073.68850708,12051238.059997559,3680279.7317504883,4068241.1193847656,3978907.585144043,-5254080.772399902,-5684220.314025879,-3687662.363052368,-3555292.844772339,-4042253.017425537,-3417485.7139587402,2617110.252380371,1678825.9744644165,1418951.0345458984,-5768732.070922852,-4510134.696960449,-5399075.984954834,-4357577.800750732,2716282.1292877197,4520519.256591797,-5261569.976806641,-4500339.984893799,-4842281.818389893
0.075,28500064.849853516,28430837.631225586,20677282.333374023,30428550.720214844,27449054.718017578,3970217.704772949,4501368.999481201,3476629.4956207275,21934112.548828125,16515901.565551758,17726440.4296875,17573804.85534668,17952926.635742188,12011930.465698242,3461212.635040283,15897469.520568848,15474461.555480957,10940836.906433105,16155012.130737305,17078376.77001953,17027132.034301758,17470993.041992188,11717391.014099121,2831902.9808044434,11013987.54119873,8608093.26171875,4378115.177154541,2033128.261566162,1324226.7370224,2229189.63432312,10628173.828125,11886276.245117188,2169595.241546631,2165312.7670288086,6349617.958068848,433925.47965049744,275523.42414855957,-4837309.36050415,1696235.2991104126,-5687344.551086426,12165808.67767334,1731105.4468154907,1982621.0737228394,1766181.230545044,-8774627.685546875,-9049918.174743652,-6346469.879150391,-7037365.913391113,-7384415.149688721,-6864149.09362793,260274.9466896057,-569086.3132476807,-847699.224948883,-9218175.888061523,-8022451.400756836,-8876390.45715332,-7903745.174407959,564967.3938751221,2226665.735244751,-8681037.902832031,-8098432.540893555,-8477163.314819336
0.08,21738948.822021484,19552022.93395996,11759789.46685791,26476528.16772461,21825044.631958008,327001.8398761749,850350.022315979,-36854.006350040436,21395063.400268555,16373916.625976562,14294717.788696289,14051737.785339355,14093449.592590332,3864469.7666168213,-340850.8896827698,12237806.32019043,13311942.100524902,10102365.493774414,13141789.436340332,14072969.436645508,13929911.613464355,13600507.736206055,3335633.5163116455,-1137517.3330307007,6632891.654968262,6305476.665496826,4044350.6240844727,1878206.9683074951,1332556.0092926025,-156661.2273454666,5518349.647521973,3549364.0899658203,-2040766.2391662598,-1859535.3364944458,4556879.997253418,853008.0318450928,248279.869556427,-5324904.918670654,-763454.7352790833,-9324498.176574707,3937885.046005249,-2295492.8874969482,-2150626.4209747314,-2466456.413269043,-11719967.84210205,-12034089.088439941,-6744245.529174805,-10688452.72064209,-10853940.0100708,-10505047.798156738,-3834487.9150390625,-4586893.558502197,-4933439.254760742,-12094569.206237793,-11594221.115112305,-12245279.312133789,-11338687.896728516,-3512758.731842041,-1993914.6041870117,-11704427.719116211,-11566127.77709961,-11898486.137390137
0.085,9251763.343811035,2141798.0194091797,-5526823.997497559,17281509.399414062,9431057.929992676,-2679885.6258392334,-2138001.9187927246,-2879627.227783203,17743717.193603516,12075751.304626465,7070510.387420654,6719323.635101318,6573667.049407959,-6825795.1736450195,-3309798.4790802,8714296.340942383,11285413.74206543,7807596.683502197,6527672.290802002,7254919.052124023,7100121.49810791,5789049.14855957,-7339684.009552002,-4199830.532073975,3454679.012298584,4938320.159912109,4218365.669250488,1701347.3510742188,1215893.268585205,-1752918.7202453613,153502.4344921112,-7240250.110626221,-5071498.394012451,-4762224.197387695,4359083.17565918,3092597.484588623,400488.88325691223,-1990340.232849121,-2235002.9945373535,-9861946.105957031,-6662326.812744141,-5201569.557189941,-4997870.922088623,-5300564.765930176,-11211651.802062988,-11792898.178100586,-3126547.336578369,-11009820.938110352,-11139804.84008789,-10856289.863586426,-6504181.861877441,-7219041.82434082,-7696477.41317749,-11668103.218078613,-11884130.477905273,-12404602.05078125,-11461867.332458496,-6323434.352874756,-4866627.216339111,-11463315.963745117,-11664926.528930664,-11978000.64086914
0.09,20805871.963500977,11937573.432922363,1606765.5086517334,20914438.247680664,11965718.269348145,-2354279.2797088623,-1717900.3953933716,-2281332.25440979,18570924.758911133,12048256.874084473,6483883.380889893,6082842.3500061035,6107864.3798828125,-7456997.871398926,-3142763.614654541,10559421.53930664,12945253.372192383,8023004.531860352,5770980.358123779,6499349.594116211,6374898.910522461,5043914.318084717,-7751288.890838623,-4212260.2462768555,4320585.250854492,5947319.984436035,5016210.556030273,1790761.4707946777,1194878.2205581665,-848163.366317749,-288755.8937072754,-7850883.483886719,-5220919.609069824,-5118040.561676025,5380759.239196777,4443079.471588135,586876.7499923706,152212.18764781952,-1187042.7131652832,-9864325.523376465,-7135379.791259766,-5513172.149658203,-5169721.1265563965,-5313848.01864624,-11061578.750610352,-11900176.048278809,-823125.7796287537,-10836943.626403809,-11096652.030944824,-10689556.121826172,-6736452.102661133,-7467271.327972412,-8089815.139770508,-11658090.591430664,-11949940.68145752,-12630681.991577148,-11542770.385742188,-6746882.915496826,-5196021.556854248,-11559347.152709961,-11665304.183959961,-12075255.393981934
0.095,73297447.20458984,68795509.3383789,51319206.23779297,47996898.65112305,39881767.27294922,737615.3469085693,1657789.1111373901,1272106.8859100342,28971561.431884766,21942420.959472656,17121276.85546875,16712524.4140625,17157466.888427734,4810352.325439453,-750953.3762931824,17785249.710083008,18617223.739624023,13064530.372619629,15354041.09954834,16401720.04699707,16166595.458984375,16083314.895629883,4636937.618255615,-2337215.6620025635,6993359.088897705,7668209.552764893,5923264.980316162,2092549.8008728027,1366910.8152389526,599389.4934654236,3707015.037536621,4479077.339172363,-4116361.141204834,-4531696.319580078,4619639.873504639,2277589.3211364746,619469.1061973572,-4117531.2995910645,252407.55081176758,-13795671.463012695,5171999.454498291,-4926105.499267578,-4536437.034606934,-4441985.607147217,-16172689.437866211,-17038997.650146484,-5074018.0015563965,-14829379.081726074,-15224397.659301758,-14650937.0803833,-6443578.243255615,-7251963.138580322,-7960854.530334473,-16802894.592285156,-16470006.942749023,-17487306.594848633,-16281368.255615234,-6662327.289581299,-4907180.309295654,-16718681.335449219,-16364669.799804688,-16909049.98779297
0.1,137116455.078125,138368591.30859375,112722831.72607422,81704231.26220703,72970611.57226562,3557457.685470581,4841408.252716064,4533239.841461182,41907165.52734375,34171619.4152832,29871736.526489258,29502693.17626953,30263715.744018555,18424043.655395508,1188975.0957489014,24595167.16003418,23972763.061523438,19214584.350585938,27188196.182250977,28579774.856567383,28017831.802368164,29371059.41772461,18215517.044067383,-1152101.8743515015,7684735.298156738,7836330.890655518,6043947.696685791,2371708.393096924,1588925.3616333008,408179.28314208984,7198080.062866211,18205982.208251953,-3932273.1494903564,-4795127.391815186,1163359.4036102295,-1870115.2801513672,593924.2839813232,-11634972.57232666,-52311.427891254425,-19997627.25830078,18779664.993286133,-5331394.195556641,-4997313.022613525,-4743446.350097656,-23938798.904418945,-24623594.284057617,-12462794.303894043,-21221172.332763672,-21622831.344604492,-21036916.732788086,-7197058.200836182,-8115727.424621582,-8811155.319213867,-24496229.17175293,-23379259.10949707,-24587862.014770508,-23408109.664916992,-7621284.484863281,-5694864.273071289,-24375936.50817871,-23563735.961914062,-24152946.47216797
0.105,160875381.46972656,163223114.01367188,134453948.97460938,92733062.74414062,81530990.60058594,3890922.5463867188,5308462.142944336,4920631.885528564,44654056.549072266,35694290.16113281,32373554.229736328,32138622.283935547,32885593.41430664,20914525.985717773,1273063.3020401,25339237.213134766,23990945.81604004,20144487.380981445,29747005.462646484,31246036.529541016,30342872.619628906,32093563.079833984,20737354.278564453,-1511738.1811141968,5906542.3011779785,6184495.449066162,4519342.89932251,2504893.3029174805,1696247.5776672363,-494269.16241645813,6912681.579589844,20866685.86730957,-4574613.094329834,-5427218.914031982,-1947253.8232803345,-3851634.0255737305,743020.1172828674,-13675194.74029541,-1031062.7222061157,-21678939.819335938,21386180.877685547,-6172851.085662842,-5865222.454071045,-5637098.31237793,-26142160.415649414,-26618551.25427246,-14221842.765808105,-22952964.782714844,-23259441.375732422,-22809070.587158203,-8036061.2869262695,-9029592.514038086,-9619057.655334473,-26647485.733032227,-25210577.0111084,-26358741.760253906,-25292167.66357422,-8554735.18371582,-6569561.48147583,-26455739.974975586,-25504871.368408203,-26050920.486450195
0.11,128170852.66113281,127434959.4116211,102627433.77685547,72597412.109375,60858459.47265625,2087464.3325805664,3276731.491088867,2708731.4128875732,34083431.243896484,24416036.60583496,23442977.905273438,23383802.41394043,23883554.458618164,12187194.82421875,116780.1022529602,19942432.403564453,18289556.5032959,14458764.07623291,21527269.36340332,22935491.56188965,21947240.829467773,23011112.213134766,12191226.0055542,-2350535.6311798096,4105994.22454834,4226324.081420898,1514990.3297424316,2519263.744354248,1689374.8044967651,-159412.53304481506,4020090.5799865723,12208513.259887695,-4669637.680053711,-5080614.08996582,-1506625.771522522,-1910826.9214630127,1027334.0940475464,-7448190.212249756,-698110.7592582703,-16251991.271972656,12808170.318603516,-5913455.009460449,-5575581.5505981445,-5466837.8829956055,-19758043.28918457,-20140190.12451172,-7863064.289093018,-17338001.251220703,-17562065.12451172,-17211309.4329834,-7427420.139312744,-8428922.653198242,-8865926.742553711,-20314031.60095215,-19152782.440185547,-20215337.7532959,-19202646.255493164,-7840687.274932861,-5860758.304595947,-19991592.407226562,-19282459.259033203,-19789249.420166016
0.115,72776748.65722656,70008895.87402344,52113235.47363281,41701313.01879883,33204059.600830078,-76369.31538581848,736123.2042312622,5566.640291363001,20300861.358642578,11550161.361694336,12576252.937316895,12547553.062438965,12812205.31463623,1964006.6623687744,-1167618.3938980103,13179468.154907227,11715299.606323242,7514020.4429626465,11201948.165893555,12474035.263061523,11655922.889709473,11847832.679748535,2110407.1140289307,-2766928.9112091064,3923089.2658233643,3469558.000564575,-1255607.6049804688,2466224.193572998,1638451.337814331,753342.9861068726,1510811.9249343872,1810449.242591858,-4033515.9301757812,-3993893.3849334717,1954016.089439392,1736723.0653762817,1142853.2600402832,-42249.63113665581,239482.53691196442,-9217089.653015137,2528642.8928375244,-4715289.59274292,-4400940.895080566,-4326897.621154785,-11274342.53692627,-11702270.5078125,-669549.7035980225,-10055473.327636719,-10275881.76727295,-9879713.05847168,-5853380.20324707,-6844785.213470459,-7165449.142456055,-11966125.48828125,-11207222.938537598,-12363310.813903809,-11324320.793151855,-6052571.773529053,-4095646.858215332,-11455247.87902832,-11168994.903564453,-11659446.716308594
0.12,36019641.8762207,34793678.283691406,21402997.970581055,23512910.842895508,18526166.915893555,-1592662.0960235596,-1033139.8248672485,-1814425.9452819824,14090024.948120117,7190698.146820068,7502007.484436035,7245174.407958984,7443839.073181152,-2311012.5064849854,-2361535.7875823975,9368516.92199707,9150751.113891602,5049124.240875244,6266736.030578613,7435885.429382324,6766391.277313232,6534249.305725098,-2204660.177230835,-3216841.220855713,4568977.355957031,4147304.5349121094,-1987568.1400299072,2340865.6120300293,1532764.6732330322,-70883.18467140198,743086.6360664368,-2712878.942489624,-3971152.3056030273,-3812483.072280884,5131790.1611328125,4065065.383911133,947200.6559371948,785922.2292900085,-530709.0878486633,-7209032.05871582,-1990449.7861862183,-4346716.403961182,-4142323.0171203613,-4007449.150085449,-8612177.848815918,-9187114.715576172,-152730.40533065796,-7962831.974029541,-8241038.3224487305,-7739039.897918701,-5321725.368499756,-6325144.7677612305,-6657224.178314209,-9452130.317687988,-8719227.79083252,-10029383.659362793,-9002868.65234375,-5373533.725738525,-3530465.1260375977,-8786461.83013916,-8794951.438903809,-9230644.226074219
0.125,25774864.196777344,27676008.224487305,15036986.351013184,20624750.1373291,15776643.753051758,-3319806.0989379883,-2840223.550796509,-3533588.8862609863,15175471.305847168,9175442.695617676,7334849.3576049805,6737701.416015625,7063991.069793701,-1496785.6407165527,-4317844.390869141,8323143.005371094,10303144.454956055,6829751.014709473,6170277.118682861,7337790.012359619,6583695.411682129,6259876.728057861,-1534083.8432312012,-4948585.987091064,4208013.534545898,4935666.084289551,-1071801.781654358,2099517.345428467,1319502.353668213,-2803484.2014312744,692185.7595443726,-1906809.0915679932,-5827528.953552246,-5780778.408050537,5515003.204345703,4064610.004425049,625606.4176559448,-4269314.289093018,-3164705.276489258,-10762372.970581055,-1326063.0369186401,-6229719.638824463,-6080390.453338623,-5962914.46685791,-12498831.748962402,-13237550.735473633,-5242949.00894165,-11584113.121032715,-11936997.413635254,-11391612.05291748,-7259229.1831970215,-8252071.380615234,-8729230.880737305,-13408830.642700195,-12420198.440551758,-13711724.281311035,-12781356.811523438,-7265479.08782959,-5695293.90335083,-12754754.066467285,-12756572.723388672,-13104935.646057129
0.13,23660543.44177246,28107202.529907227,14813381.19506836,20321277.618408203,14082075.119018555,-6702008.7242126465,-6216333.389282227,-6752325.057983398,15524909.973144531,8837982.177734375,7472189.426422119,6699699.878692627,7275594.234466553,-464152.5447368622,-7849015.235900879,6722869.396209717,10760251.998901367,8057582.855224609,6461610.794067383,7790413.856506348,6806079.387664795,6433605.194091797,-631879.5084953308,-8566895.484924316,1845416.54586792,3985806.465148926,-859065.5326843262,1763593.1968688965,1029617.6671981812,-4967021.942138672,-312461.256980896,-657546.7586517334,-9710142.135620117,-9687176.704406738,3103674.6501922607,2414027.9293060303,396634.5191001892,-8758865.356445312,-5265543.460845947,-15633646.965026855,-209643.76628398895,-10217454.91027832,-9937258.72039795,-10001725.196838379,-17825756.072998047,-18612735.748291016,-9468153.953552246,-16460714.340209961,-16879295.349121094,-16344305.038452148,-11368926.048278809,-12314158.43963623,-12918304.443359375,-18670162.200927734,-17644535.064697266,-18767698.287963867,-17883888.244628906,-11350643.157958984,-10070039.749145508,-18213809.967041016,-18002126.693725586,-18339561.462402344
0.135,16878019.332885742,23076725.006103516,10060508.728027344,14871277.809143066,10056847.57232666,-11010244.369506836,-10467020.988464355,-10929469.108581543,10847576.141357422,3343814.8498535156,6188368.797302246,5508587.837219238,6290280.342102051,-1431202.6500701904,-11863483.428955078,3063828.706741333,7936031.818389893,5830638.408660889,5230411.529541016,6766922.473907471,5645376.205444336,5295977.592468262,-1689755.7973861694,-12593176.84173584,-1557124.8531341553,1071281.909942627,-2593691.825866699,1519096.1360931396,790567.2788619995,-4734669.6853637695,-2308314.323425293,-1528250.3366470337,-13731534.957885742,-13584127.426147461,-169235.60202121735,343440.7711029053,296544.8498725891,-8991483.688354492,-5096737.861633301,-17914150.23803711,-1027892.8279876709,-14287110.328674316,-13750130.653381348,-14013514.518737793,-20041812.896728516,-20675077.438354492,-9423896.789550781,-18545358.657836914,-19009580.612182617,-18459033.966064453,-15408420.56274414,-16384311.67602539,-16905656.814575195,-20721832.275390625,-19985862.731933594,-21009634.017944336,-20010715.48461914,-15389543.533325195,-14152661.323547363,-20487854.00390625,-20059211.73095703,-20511247.634887695
0.14,9264714.241027832,16372150.421142578,4887322.902679443,8268445.96862793,7868767.738342285,-12965239.524841309,-12325797.080993652,-12922800.064086914,4771549.224853516,-1980954.2894363403,4895445.346832275,4426431.655883789,5201057.434082031,-2011567.8310394287,-13354907.035827637,-225654.736161232,4059502.601623535,2119719.0284729004,3825891.0179138184,5372346.4012146,4296706.199645996,4171033.8592529297,-2285302.4005889893,-13947062.492370605,-3581695.556640625,-1743703.3653259277,-4763586.044311523,1618704.3190002441,744451.105594635,-2858000.7553100586,-3140330.3146362305,-2287330.8658599854,-14782375.33569336,-14603694.915771484,-1996182.6801300049,-823333.9190483093,328714.0429019928,-6577478.885650635,-3326389.0743255615,-15986307.144165039,-1591030.0016403198,-15440521.240234375,-14704727.172851562,-14998291.015625,-17853296.279907227,-18215456.008911133,-6921001.434326172,-16348434.448242188,-16816637.03918457,-16231634.140014648,-16243644.714355469,-17386577.606201172,-17647493.362426758,-18374893.188476562,-17771566.39099121,-18808734.893798828,-17639757.15637207,-16309535.98022461,-14837576.866149902,-18198080.06286621,-17609638.214111328,-18178747.177124023
0.145,7381141.185760498,14022460.9375,4250337.12387085,6341431.140899658,9310324.668884277,-10627468.10913086,-9918994.903564453,-10821918.487548828,2610472.4407196045,-1820311.3079071045,4972954.750061035,4647202.968597412,5206484.317779541,925510.6449127197,-10791451.454162598,-406751.0664463043,2564248.0850219727,444612.62226104736,3807962.8944396973,5141651.630401611,4175925.2548217773,4339474.678039551,757599.1749763489,-11284461.975097656,-2862756.4907073975,-2522981.4052581787,-5305414.199829102,2049942.970275879,948707.7593803406,-1116693.2582855225,-1078462.3622894287,452474.7133255005,-11707049.369812012,-11716678.619384766,-1589362.382888794,-509524.76263046265,541445.791721344,-4614601.612091064,-1547967.791557312,-10730581.283569336,1247359.1566085815,-12555554.389953613,-11812475.204467773,-11971793.174743652,-12694872.856140137,-12874931.335449219,-5035980.701446533,-11015580.177307129,-11422419.548034668,-10862357.139587402,-12929155.349731445,-14161522.86529541,-14293704.03289795,-13127468.10913086,-12214145.66040039,-13203423.500061035,-12001188.278198242,-13074107.17010498,-11395596.504211426,-12846057.891845703,-12107898.712158203,-12634386.06262207
0.15,10556392.669677734,16301223.754882812,7206168.651580811,9116411.209106445,12148115.158081055,-6696748.25668335,-5970174.789428711,-7164497.375488281,5172018.527984619,3151110.6491088867,6773166.179656982,6492144.1078186035,6829665.184020996,7182820.3201293945,-6920077.800750732,1523602.9624938965,3528198.480606079,1669854.6409606934,5577235.698699951,6766097.545623779,5836470.603942871,6126062.870025635,7139378.070831299,-7448483.943939209,-1110376.7156600952,-2069218.8739776611,-4458390.235900879,2404041.051864624,1289167.2849655151,-275075.37603378296,2558270.215988159,6740323.543548584,-7589673.99597168,-7808010.101318359,-694098.3533859253,45365.99665880203,802597.3439216614,-4846916.675567627,-519971.6091156006,-5970300.197601318,7404318.809509277,-8524501.80053711,-7961022.37701416,-7967507.839202881,-8283844.947814941,-8471830.368041992,-5449858.665466309,-6485921.859741211,-6779684.543609619,-6305546.760559082,-8761122.703552246,-9750295.639038086,-10115537.643432617,-8671339.988708496,-7415090.084075928,-8261104.583740234,-7159652.233123779,-8797028.541564941,-7220109.462738037,-8316178.321838379,-7475078.582763672,-7822214.603424072
0.155,15885416.030883789,22590229.034423828,12757139.205932617,13958502.769470215,15753056.526184082,-5414317.607879639,-4640679.836273193,-5935903.549194336,9588283.53881836,8613848.686218262,10137510.299682617,9878955.841064453,10158397.674560547,13943804.740905762,-5773723.602294922,2586968.8987731934,4620719.909667969,3972288.131713867,8774983.406066895,10073422.4319458,9126162.5289917,9461358.070373535,13854034.423828125,-6366829.395294189,-947610.61668396,-2485101.4614105225,-4070778.8467407227,2275246.1433410645,1487253.4275054932,3425.1264296472073,5019192.695617676,13647819.519042969,-6541767.120361328,-6763372.421264648,-1538460.9699249268,-993724.524974823,763720.9296226501,-7528013.229370117,-119782.72348642349,-5781096.935272217,14107045.17364502,-7340684.89074707,-7007504.463195801,-6955016.613006592,-8237169.26574707,-8506344.79522705,-8372538.5665893555,-6672125.339508057,-6882975.101470947,-6458603.382110596,-7874701.499938965,-8432963.371276855,-9185021.40045166,-8575359.344482422,-7395639.419555664,-8222343.444824219,-7174135.684967041,-7659186.363220215,-6363227.844238281,-8310496.3302612305,-7495412.349700928,-7732236.385345459
0.16,23387771.606445312,33315704.345703125,22339258.193969727,20110157.012939453,21774394.989013672,-6626166.820526123,-5753330.707550049,-6932745.933532715,13324271.202087402,11617951.393127441,14103168.487548828,13887646.675109863,14228201.866149902,19754619.598388672,-7065342.426300049,2587930.44090271,5180969.715118408,5608063.220977783,12336532.592773438,13768114.08996582,12894374.84741211,13521524.429321289,19461059.5703125,-7632895.469665527,-1844265.6993865967,-3632308.006286621,-4740451.335906982,1777376.2941360474,1336100.2206802368,345359.206199646,6094451.904296875,19510099.411010742,-8127543.4494018555,-8208828.926086426,-3537930.965423584,-3316694.498062134,305203.49740982056,-11089102.745056152,154250.30887126923,-9136110.305786133,19901811.599731445,-8737591.743469238,-8504557.609558105,-8513599.395751953,-11572332.382202148,-11836016.654968262,-12104923.248291016,-10276110.649108887,-10532917.022705078,-10059544.563293457,-9637477.87475586,-10039409.637451172,-10891163.82598877,-11849767.684936523,-10894703.86505127,-11917049.407958984,-10806723.594665527,-9314843.17779541,-8104494.094848633,-11729691.505432129,-10985560.417175293,-11316975.593566895
0.165,32457542.419433594,45180854.79736328,34155677.795410156,26991035.46142578,29059963.22631836,-6290671.825408936,-5404638.290405273,-6375876.426696777,15434321.403503418,11881747.245788574,16803834.915161133,16630252.838134766,17008880.615234375,25258874.893188477,-6750147.342681885,3993196.487426758,6553345.203399658,6292822.83782959,14590172.76763916,15870390.892028809,15237509.727478027,16464475.631713867,24834281.92138672,-7214858.055114746,-853043.1985855103,-3392590.284347534,-5292946.338653564,1461177.945137024,986447.1554756165,1174856.7819595337,7919021.129608154,25007038.116455078,-8050813.674926758,-8060424.8046875,-3868789.1960144043,-4534471.51184082,-147239.92347717285,-12507187.843322754,870090.126991272,-10277961.730957031,25446744.918823242,-8617983.8180542,-8303373.336791992,-8460691.452026367,-12973864.555358887,-13170735.359191895,-13490245.819091797,-11438397.407531738,-11871790.885925293,-11287039.756774902,-9546610.832214355,-10228234.29107666,-10799819.946289062,-13210249.900817871,-12068646.430969238,-13224925.994873047,-12080365.180969238,-9369243.621826172,-7935259.3421936035,-13062782.287597656,-12253332.138061523,-12777493.476867676
0.17,38148296.35620117,50605045.318603516,40761623.38256836,30912048.33984375,32335853.576660156,-3522904.396057129,-2788815.2599334717,-3636305.332183838,15236446.380615234,10041911.125183105,16804563.522338867,16639148.712158203,16995716.094970703,29229755.401611328,-3940216.541290283,6626084.327697754,8440683.364868164,6214774.131774902,14362734.7946167,15314429.28314209,14973793.983459473,16675930.02319336,28852123.260498047,-4326563.835144043,1880509.376525879,-1747925.6391525269,-5034195.423126221,1654473.6623764038,836154.7589302063,2268797.8744506836,10389683.723449707,29035879.135131836,-5267958.164215088,-5316167.35458374,-2032388.44871521,-3627259.7312927246,-68778.83523702621,-10490103.721618652,1978704.333305359,-6809771.0609436035,29487668.991088867,-5867310.047149658,-5454587.936401367,-5742701.530456543,-9985627.174377441,-10217769.622802734,-11317965.507507324,-7894088.268280029,-8486238.479614258,-7803671.836853027,-6581900.596618652,-7582137.107849121,-7889265.537261963,-10251192.092895508,-8641247.749328613,-9593811.03515625,-8548319.816589355,-6537119.388580322,-4863659.381866455,-9855685.234069824,-8887675.285339355,-9485635.757446289
0.175,34702552.795410156,44360496.520996094,35584316.25366211,27177993.774414062,27499256.134033203,-3156893.9685821533,-2564614.772796631,-3462072.6108551025,12105688.095092773,6676092.624664307,14260990.142822266,14048223.495483398,14370499.610900879,27382112.503051758,-3452972.173690796,6057334.423065186,7927838.325500488,5106014.728546143,11912611.00769043,12735616.683959961,12526958.465576172,14092373.847961426,27072114.944458008,-3862988.9488220215,1689254.2839050293,-1858280.7779312134,-4889233.589172363,2074834.3467712402,1026141.6435241699,2721865.8924102783,10184218.406677246,27230180.740356445,-4632056.713104248,-4700119.0185546875,-1454659.2235565186,-2563013.5536193848,464308.88772010803,-7698114.87197876,2510480.4039001465,-3783886.671066284,27659593.58215332,-5164339.065551758,-4821866.035461426,-5106587.886810303,-7048511.505126953,-7457813.739776611,-8474058.151245117,-4847184.658050537,-5396112.91885376,-4704755.783081055,-5786819.4580078125,-6740851.402282715,-7128256.320953369,-7437398.433685303,-5750176.906585693,-6327473.163604736,-5396382.3318481445,-5622304.916381836,-3991011.85798645,-6798955.917358398,-5825283.527374268,-6327441.215515137
0.18,21339904.78515625,28559598.922729492,20217773.4375,15647391.319274902,16600326.538085938,-8951041.221618652,-8290006.637573242,-9308425.903320312,6936233.043670654,2921064.3768310547,10607025.146484375,10292301.177978516,10566463.470458984,18576736.450195312,-9074172.973632812,-661108.9706420898,3452261.447906494,2877222.0611572266,8643202.781677246,9603969.57397461,9298565.864562988,10168590.545654297,18228654.861450195,-9575293.54095459,-4319167.137145996,-5641064.167022705,-5742973.327636719,2213933.7062835693,1215880.7516098022,2054280.2810668945,6235628.604888916,18312942.504882812,-9988176.345825195,-9999119.758605957,-4749597.549438477,-3354451.4179229736,841679.036617279,-7579344.749450684,1813342.6904678345,-6244950.771331787,18792688.369750977,-10404185.29510498,-10224780.082702637,-10398893.356323242,-9092238.426208496,-9639624.59564209,-8446802.139282227,-7317229.270935059,-7592703.819274902,-7055387.020111084,-11070613.861083984,-11761311.531066895,-12383772.850036621,-9614929.19921875,-8341740.608215332,-8773824.691772461,-7820901.393890381,-10695957.18383789,-9317903.518676758,-8989828.109741211,-8178024.2919921875,-8595065.116882324
0.185,3328675.0316619873,10637759.2086792,3623872.756958008,2403906.1069488525,6534720.420837402,-17432964.324951172,-16598115.921020508,-17589284.896850586,2482653.1410217285,646138.3700370789,7693962.097167969,7289893.627166748,7483445.644378662,9590515.13671875,-17377525.329589844,-10032410.621643066,-2176921.606063843,558489.3822669983,6281131.744384766,7295210.838317871,6841562.271118164,7029512.882232666,9202148.4375,-17885301.58996582,-12153462.409973145,-10348650.932312012,-6809706.687927246,1960677.8621673584,1052831.0537338257,1122560.6203079224,2793817.5201416016,9162162.780761719,-17862777.709960938,-17809400.55847168,-9346279.14428711,-5046495.43762207,720214.5457267761,-9938269.61517334,751397.3712921143,-11431739.807128906,9710412.979125977,-18299629.21142578,-18117176.055908203,-18239400.86364746,-14110984.802246094,-14583395.004272461,-10841172.218322754,-12428373.336791992,-12373644.828796387,-12138537.406921387,-18831888.19885254,-19474590.301513672,-20100061.416625977,-14619557.38067627,-13543601.989746094,-14135160.446166992,-13103711.128234863,-18460571.2890625,-17258050.9185791,-14233944.8928833,-13440290.451049805,-13943181.991577148
0.19,-11082730.293273926,-1325138.3304595947,-5009404.65927124,-4922432.899475098,3229891.777038574,-22024480.81970215,-21199728.01208496,-21935958.862304688,1154729.6047210693,982865.035533905,7087555.885314941,6725780.487060547,6893590.450286865,8910754.203796387,-21831506.729125977,-15519337.65411377,-4626606.9412231445,-314485.22210121155,6122977.256774902,6880172.252655029,6438999.652862549,6457265.377044678,8589188.575744629,-22145105.361938477,-15383944.511413574,-11755166.053771973,-6666340.351104736,1666922.8076934814,709766.3283348083,1117318.6302185059,4003545.2842712402,8475001.335144043,-21781116.485595703,-21689725.875854492,-10555525.779724121,-5366291.9998168945,425761.22283935547,-12041290.283203125,670378.7446022034,-13284614.562988281,8937676.429748535,-22350442.88635254,-21935821.533203125,-22129055.02319336,-16585912.704467773,-16861970.901489258,-12833688.735961914,-14148315.4296875,-13898894.309997559,-13928930.282592773,-22544248.580932617,-23418367.385864258,-23823055.267333984,-16918907.165527344,-15388124.465942383,-16134956.359863281,-15173251.152038574,-22366762.161254883,-21131896.97265625,-16702585.220336914,-15649794.578552246,-16318214.416503906
0.195,-15545037.269592285,-2689826.250076294,-2838047.742843628,-3751330.614089966,6805431.842803955,-21254234.313964844,-20671817.779541016,-21133214.950561523,2390790.4624938965,2603423.595428467,8849733.352661133,8707714.080810547,9012969.970703125,16488651.275634766,-21031614.303588867,-14799056.053161621,-3039579.6298980713,440866.619348526,7941754.341125488,8394212.72277832,8099145.889282227,8465124.130249023,16243225.09765625,-21049867.630004883,-13012423.515319824,-9455099.105834961,-5306352.138519287,1647480.3686141968,660677.433013916,2020416.259765625,8051745.414733887,16178649.90234375,-20667045.59326172,-20502346.03881836,-7796035.289764404,-4199212.551116943,411409.52706336975,-12820406.913757324,1584762.9308700562,-11620245.933532715,16427350.997924805,-21242485.04638672,-20606246.948242188,-20849187.85095215,-15776613.235473633,-16003820.419311523,-13535877.227783203,-12466027.25982666,-12178922.653198242,-12231176.376342773,-21280807.495117188,-22314725.875854492,-22634658.813476562,-16015319.82421875,-13870037.078857422,-14576883.316040039,-13841172.218322754,-21210811.614990234,-19836065.2923584,-15681733.131408691,-14415476.79901123,-15084413.528442383
0.2,-10691139.221191406,4611970.901489258,5332298.278808594,1371873.8555908203,11890692.710876465,-19286798.47717285,-18927181.243896484,-19371282.57751465,2873094.081878662,2347923.994064331,10850888.2522583,10991946.22039795,11520314.21661377,24633356.09436035,-19151184.08203125,-11538886.070251465,-779001.772403717,889480.710029602,9602268.21899414,10094509.12475586,9849728.58428955,10765298.843383789,24347568.51196289,-19008138.65661621,-9842142.105102539,-7042568.683624268,-4374205.589294434,1824549.5557785034,984742.9990768433,3076010.227203369,10480228.424072266,24373548.50769043,-18922277.450561523,-18617128.372192383,-5044327.735900879,-3604843.854904175,621674.8356819153,-12913154.602050781,2620928.7643432617,-10717382.431030273,24523265.838623047,-19285591.12548828,-18632768.630981445,-18795541.763305664,-15151681.900024414,-15564261.436462402,-13723125.457763672,-11721082.68737793,-11451339.721679688,-11329379.081726074,-19529897.689819336,-20435976.028442383,-20946126.93786621,-15577024.459838867,-13240448.951721191,-13903314.590454102,-13317090.98815918,-19397764.205932617,-17882484.436035156,-14970726.013183594,-13794449.806213379,-14233242.03491211
0.205,-5231384.754180908,12131145.477294922,11082669.258117676,3320840.358734131,12792523.384094238,-19357679.36706543,-19028383.255004883,-19709892.27294922,91220.09575366974,-1323570.4898834229,10629669.189453125,10939508.438110352,11547250.747680664,28509517.669677734,-19252336.502075195,-10575552.940368652,-1379590.392112732,-1031985.0444793701,8988600.730895996,9839474.67803955,9438349.723815918,10815560.340881348,28145990.3717041,-19143886.56616211,-9829270.362854004,-7557883.739471436,-5326328.277587891,1915173.4113693237,1247334.8379135132,4285778.045654297,11038222.312927246,28180599.212646484,-19285137.176513672,-18844667.434692383,-5375511.169433594,-4773766.51763916,677537.9776954651,-11515367.50793457,3752392.7688598633,-10685245.513916016,28436197.28088379,-19415191.650390625,-18843841.552734375,-18925453.186035156,-14997409.82055664,-15573617.935180664,-12429715.156555176,-11844740.867614746,-11607439.994812012,-11387533.187866211,-19870689.392089844,-20546892.166137695,-21242126.46484375,-15683549.880981445,-13354185.104370117,-14198924.06463623,-13522866.249084473,-19681362.15209961,-18040561.67602539,-14977270.126342773,-13891218.185424805,-14104391.098022461
0.21,-7670919.418334961,12171175.003051758,9591408.729553223,-420347.1839427948,8957957.26776123,-20692012.786865234,-20290407.180786133,-21176563.262939453,-4456284.046173096,-5828784.465789795,8422545.433044434,8734154.70123291,9193716.049194336,30274543.76220703,-20342073.440551758,-13340544.700622559,-4860916.1376953125,-4639148.235321045,6686420.440673828,7817312.240600586,7212789.058685303,8791202.545166016,29946113.58642578,-20278415.67993164,-12446154.594421387,-10608113.288879395,-7802331.924438477,1829939.842224121,1150806.188583374,5875645.160675049,12498191.833496094,29918264.389038086,-20224447.25036621,-19749023.4375,-7865632.057189941,-6744689.94140625,520395.4577445984,-7345296.859741211,5332070.827484131,-7723851.680755615,30283864.974975586,-20309724.807739258,-19733045.57800293,-19894840.240478516,-12232779.502868652,-12655707.359313965,-8161419.868469238,-8832670.211791992,-8697841.64428711,-8592267.036437988,-20647022.247314453,-21241844.177246094,-21857463.836669922,-12846598.625183105,-10236896.514892578,-11388176.918029785,-10500288.009643555,-20483816.146850586,-18764019.012451172,-12341219.902038574,-10945575.714111328,-11187693.59588623
0.215,-14182076.454162598,7797218.322753906,5402462.959289551,-4676104.545593262,5565269.470214844,-21573347.091674805,-21094499.588012695,-21944677.352905273,-6350885.391235352,-6667419.910430908,7106571.674346924,7360223.770141602,7643991.470336914,32103382.110595703,-20809339.52331543,-17368434.90600586,-7901514.053344727,-6505475.997924805,5571091.651916504,6667101.3832092285,6002655.506134033,7470153.80859375,31904573.440551758,-20711904.525756836,-15215238.571166992,-13560016.632080078,-9776138.305664062,1764015.3169631958,977407.9322814941,6600840.091705322,14083698.272705078,31831935.88256836,-20220924.377441406,-19853679.656982422,-10012899.398803711,-7961587.905883789,512466.07303619385,-2778105.9741973877,6165126.323699951,-2931349.039077759,32159492.49267578,-20435111.99951172,-19803468.704223633,-20110414.505004883,-7808466.43447876,-7835335.731506348,-3370580.6732177734,-3820344.4480895996,-3849046.7071533203,-3882838.726043701,-20543235.778808594,-21198743.82019043,-21583721.160888672,-8011374.473571777,-5096789.360046387,-6397881.984710693,-5405011.6539001465,-20356731.414794922,-18689327.239990234,-7786733.150482178,-5947394.371032715,-6408179.759979248
0.22,-7387454.032897949,14466766.357421875,11826994.895935059,-374703.4966945648,9643902.778625488,-21482814.78881836,-20843290.328979492,-21508443.83239746,-2472285.9859466553,-1981811.761856079,9028553.96270752,9285556.79321289,9608695.983886719,32192317.962646484,-20622110.36682129,-18400703.43017578,-6871969.223022461,-3955420.732498169,7645396.2326049805,8589978.218078613,7964540.004730225,9246083.25958252,32090427.39868164,-20666667.938232422,-16456153.869628906,-13911717.414855957,-9249493.598937988,1920587.8973007202,1158007.7409744263,4728655.815124512,12092543.601989746,32001949.310302734,-20048992.156982422,-19925428.39050293,-10609810.829162598,-7727742.1951293945,864200.8900642395,-2798957.586288452,4375606.060028076,-3094456.195831299,32272148.13232422,-20437282.56225586,-19856678.009033203,-20139917.373657227,-7630145.072937012,-7418028.354644775,-3290913.3434295654,-3826960.802078247,-3955924.9877929688,-3920591.354370117,-20629613.876342773,-21356004.71496582,-21627769.470214844,-7570020.67565918,-5000953.674316406,-6209819.316864014,-5286711.2159729,-20327711.10534668,-18845216.751098633,-7424355.506896973,-5667004.108428955,-6242509.841918945
0.225,26871025.08544922,46601249.69482422,40606845.85571289,17506271.362304688,25139184.951782227,-19560235.97717285,-18631916.046142578,-19157699.584960938,6407113.075256348,6246440.410614014,13982731.819152832,14317569.732666016,14886267.66204834,30669221.878051758,-19282768.24951172,-13497736.930847168,-891565.0248527527,1945208.0726623535,12336027.145385742,13333749.771118164,12672976.49383545,14184273.719787598,30601428.985595703,-19913888.931274414,-15102452.278137207,-10696436.882019043,-6032351.016998291,2242736.339569092,1622649.6696472168,1078876.6145706177,7354996.204376221,30472297.66845703,-19743791.580200195,-19923875.80871582,-9465535.163879395,-6089757.442474365,1278661.2510681152,-8342803.001403809,669709.9804878235,-10254153.25164795,30803674.697875977,-20295534.133911133,-19871816.635131836,-19932716.369628906,-13733697.891235352,-13685793.87664795,-8921863.555908203,-11038365.364074707,-11145884.51385498,-10884521.484375,-20876667.022705078,-21666559.21936035,-21996944.427490234,-13888805.389404297,-12215766.906738281,-13237668.03741455,-12443820.95336914,-20557949.06616211,-19243074.417114258,-13620876.31225586,-12512804.03137207,-12972632.40814209
0.23,80120620.72753906,99149002.07519531,87405220.03173828,44000381.46972656,49063308.71582031,-14685102.462768555,-13522657.39440918,-13984535.217285156,16752132.415771484,15057738.304138184,20213274.002075195,20634086.60888672,21426330.56640625,32811058.044433594,-15417492.866516113,-4229582.786560059,7106355.1902771,7486136.436462402,17842037.200927734,19107358.932495117,18329811.096191406,20677513.122558594,32768440.24658203,-16869142.532348633,-11021233.558654785,-5421640.872955322,-2146157.5031280518,2464148.998260498,1875855.803489685,-1030875.4444122314,5953877.925872803,32576232.91015625,-17419656.75354004,-17799283.981323242,-6730211.25793457,-3698886.3945007324,1329408.2880020142,-14040073.39477539,-1526474.8334884644,-17108659.744262695,32952281.951904297,-18112417.221069336,-17818136.21520996,-17647727.966308594,-20020315.170288086,-20341684.341430664,-14744603.157043457,-18057086.944580078,-18151311.87438965,-17749900.817871094,-19008239.74609375,-19899543.76220703,-20306547.164916992,-20590425.491333008,-19460752.487182617,-20330970.764160156,-19608531.951904297,-18903882.98034668,-17590940.475463867,-20227354.049682617,-19614177.703857422,-19924840.927124023
0.235,122738204.95605469,144721313.4765625,128402740.47851562,65709495.544433594,70691741.94335938,-8658539.772033691,-7510072.231292725,-7895256.519317627,24648765.563964844,22438705.444335938,25665788.650512695,26121864.318847656,26937263.48876953,40972934.72290039,-10147737.503051758,3324302.911758423,12303400.993347168,9929745.6741333,22506355.28564453,23951450.34790039,23155895.233154297,26396595.001220703,40941669.46411133,-12075214.385986328,-6646605.968475342,-1744350.3141403198,-267197.8175640106,2383161.0679626465,1650278.3298492432,203298.07698726654,10341712.951660156,40720390.31982422,-13162488.93737793,-13482493.40057373,-3843620.538711548,-2021246.6716766357,1007730.8416366577,-14646967.887878418,-242559.7757101059,-16760534.286499023,40941574.09667969,-13907624.244689941,-13661934.852600098,-13380306.243896484,-20280790.328979492,-20803215.02685547,-15411094.665527344,-17783563.6138916,-18013429.641723633,-17643981.93359375,-14845323.56262207,-15846832.275390625,-16228874.206542969,-21000005.7220459,-19609519.958496094,-20371313.095092773,-19643526.077270508,-15034404.754638672,-13570733.070373535,-20674848.556518555,-19943042.755126953,-20287151.336669922
0.24,129189682.00683594,155255447.3876953,138214035.0341797,70510757.44628906,77575256.34765625,-6285725.5935668945,-5318522.4533081055,-5616855.621337891,27215879.440307617,26298536.30065918,28183645.248413086,28610170.364379883,29276424.407958984,48446632.385253906,-7842891.693115234,3739944.9348449707,11896826.74407959,9380855.560302734,24721666.33605957,26044240.951538086,25413398.74267578,28821525.57373047,48364395.14160156,-9604999.542236328,-5726512.432098389,-2479439.2585754395,-1388254.8809051514,2060012.8173828125,1223910.6893539429,2813000.440597534,15091844.55871582,48162300.10986328,-10887822.151184082,-10902626.037597656,-3302978.277206421,-2483466.625213623,694944.0240859985,-11329782.485961914,2517274.3797302246,-11946100.234985352,48160160.064697266,-11528360.366821289,-11278794.288635254,-10993644.714355469,-16394821.166992188,-16838224.411010742,-12109524.726867676,-12877863.883972168,-13312088.012695312,-12995895.385742188,-12360030.174255371,-13434947.01385498,-13704005.241394043,-16973991.39404297,-15053178.787231445,-15762768.745422363,-14976759.910583496,-12698182.106018066,-11063708.305358887,-16670310.974121094,-15602328.300476074,-16090953.826904297
0.245,101209800.72021484,128469314.57519531,114281639.0991211,57905220.03173828,66430511.474609375,-10054978.370666504,-9206574.440002441,-9508080.48248291,23831903.4576416,24581884.384155273,26583894.729614258,26928705.2154541,27434749.603271484,47516929.626464844,-11163035.39276123,-2161929.8458099365,7590147.495269775,7673554.420471191,23482921.600341797,24520009.994506836,24080663.681030273,26860736.846923828,47338874.81689453,-12423540.115356445,-8952479.362487793,-6318647.861480713,-3882447.4811553955,1765168.309211731,1056551.218032837,3867996.2158203125,14710992.813110352,47176120.75805664,-13672138.214111328,-13335034.370422363,-5837740.898132324,-4815700.531005859,678873.1217384338,-9471536.636352539,3643105.7453155518,-10016574.85961914,47181129.455566406,-14095176.696777344,-13765249.252319336,-13581863.403320312,-14716930.389404297,-14982139.587402344,-10217255.592346191,-10816654.205322266,-11307309.1506958,-10949007.987976074,-14797041.893005371,-15939213.752746582,-16091064.453125,-15183328.628540039,-13014655.113220215,-13796712.875366211,-12913763.999938965,-15119822.50213623,-13419431.686401367,-14749905.586242676,-13630558.013916016,-14157136.917114258
0.25,63320228.576660156,89107604.98046875,79319915.77148438,39114391.3269043,47401664.73388672,-16815624.237060547,-15977203.369140625,-16387199.401855469,17104391.09802246,18120252.60925293,22399600.982666016,22633573.532104492,23103332.51953125,40346847.53417969,-17451578.14025879,-8564413.070678711,3676145.315170288,6398427.963256836,19941324.23400879,20830577.850341797,20416439.056396484,22472522.735595703,40085819.244384766,-18363245.010375977,-12885418.891906738,-9053053.855895996,-5165361.404418945,1751692.4142837524,1281690.4783248901,2999567.5086975098,11226260.1852417,39979473.11401367,-19458700.18005371,-18939527.51159668,-9083951.950073242,-7103912.353515625,896046.2212562561,-11939202.308654785,2711274.8622894287,-12700759.887695312,40231071.47216797,-19690971.37451172,-19185459.13696289,-19216281.89086914,-17377218.24645996,-17524728.775024414,-12549025.535583496,-13506171.226501465,-13839928.62701416,-13451806.06842041,-20240423.20251465,-21451276.779174805,-21584117.889404297,-17846950.53100586,-15489641.189575195,-16460485.458374023,-15484717.36907959,-20485118.865966797,-18885379.791259766,-17261339.18762207,-16168750.762939453,-16606573.104858398
0.255,36879913.330078125,62051067.35229492,56325420.37963867,25656726.837158203,33917945.861816406,-21628131.866455078,-20833423.614501953,-21355693.817138672,11307510.375976562,11301617.622375488,18836702.346801758,18960653.30505371,19524272.918701172,35293888.092041016,-22083324.432373047,-11386000.633239746,2574315.309524536,5967557.907104492,16807508.46862793,17776313.78173828,17236438.751220703,18991336.822509766,34982208.251953125,-22922708.51135254,-14377049.446105957,-8537888.526916504,-4298471.927642822,2047870.6359863281,1636517.5247192383,1914810.8959197998,9938284.873962402,34949512.48168945,-23796686.17248535,-23325529.098510742,-10374091.148376465,-7847055.435180664,1133811.7122650146,-16474868.774414062,1554251.3132095337,-15839926.719665527,35361457.82470703,-23966051.10168457,-23316808.700561523,-23540771.484375,-21129018.783569336,-21208269.119262695,-16901613.235473633,-16800390.243530273,-16909156.799316406,-16679769.515991211,-24410402.297973633,-25584150.314331055,-25844884.872436523,-21514783.85925293,-18661535.263061523,-19787784.576416016,-18800910.94970703,-24528280.25817871,-23174818.03894043,-20974176.40686035,-19521347.045898438,-19928583.1451416
0.26,23670230.865478516,49987300.872802734,46970741.271972656,19416234.970092773,29369466.78161621,-23218606.94885254,-22543939.5904541,-23132257.46154785,8654705.047607422,7868140.697479248,17340692.5201416,17394081.115722656,18060850.143432617,35074081.42089844,-23749788.284301758,-11694604.873657227,2915500.8792877197,5735372.543334961,15425059.31854248,16528839.111328125,15893461.227416992,17564527.51159668,34764732.360839844,-24553722.381591797,-14146172.523498535,-7040620.803833008,-2807074.0699768066,2421569.585800171,1794576.644897461,1789776.9212722778,11345579.147338867,34773040.771484375,-25238985.061645508,-24909759.521484375,-9958947.18170166,-7461969.375610352,1285531.1632156372,-18816387.176513672,1447033.8821411133,-16666275.024414062,35040027.6184082,-25446048.736572266,-24831747.05505371,-25041919.708251953,-22895606.994628906,-22916658.401489258,-19170768.73779297,-17749498.36730957,-17693120.9564209,-17785823.822021484,-25969223.022460938,-26930461.883544922,-27362718.58215332,-23074443.817138672,-19723602.294921875,-20840484.619140625,-19944536.209106445,-25888122.55859375,-24774728.775024414,-22739349.365234375,-20705265.045166016,-21223989.486694336
0.265,15251157.760620117,41987297.05810547,40117057.80029297,15938563.346862793,28010351.181030273,-23669046.40197754,-23050260.543823242,-23717679.977416992,8056604.385375977,7538125.038146973,17004383.087158203,17066110.610961914,17728361.129760742,36003360.748291016,-24340217.59033203,-12301284.790039062,2179587.1257781982,4915192.604064941,15065658.569335938,16221473.693847656,15636696.815490723,17136167.526245117,35806850.43334961,-24952062.606811523,-14649235.725402832,-7872696.876525879,-2850919.485092163,2571166.0385131836,1701207.160949707,2699633.1214904785,12379199.981689453,35776660.91918945,-25604635.23864746,-25291996.002197266,-10178146.362304688,-7561793.804168701,1336356.0438156128,-16920724.868774414,2411663.293838501,-16025047.302246094,35763324.73754883,-25837511.06262207,-25355426.788330078,-25391288.75732422,-22467958.450317383,-22463058.471679688,-17358655.92956543,-17065549.850463867,-16888090.133666992,-17211833.953857422,-26572265.625,-27292161.94152832,-27747737.884521484,-22571903.228759766,-19208816.528320312,-20206089.01977539,-19402624.130249023,-26314931.869506836,-25212085.723876953,-22325723.64807129,-20070386.88659668,-20706602.096557617
0.27,9672073.364257812,35392093.658447266,33533916.473388672,14136668.20526123,26801582.33642578,-24165002.822875977,-23455051.42211914,-24225416.18347168,8099577.903747559,8292875.289916992,17463663.10119629,17611152.64892578,18201120.376586914,36962081.90917969,-24912918.090820312,-13417934.41772461,224389.50836658478,3771263.1225585938,15406864.166259766,16594446.182250977,16138975.143432617,17625864.028930664,36962242.126464844,-25260112.762451172,-16093538.284301758,-10947557.44934082,-4735642.910003662,2402091.2647247314,1581328.6304473877,4539053.916931152,12970451.354980469,36852973.93798828,-26009531.021118164,-25506454.467773438,-11996944.427490234,-9076820.373535156,1248137.8316879272,-12629230.499267578,4262638.568878174,-14600192.070007324,36751956.939697266,-26196269.989013672,-25719585.418701172,-25677907.943725586,-20594614.028930664,-20584163.665771484,-13169395.446777344,-15553810.119628906,-15287899.9710083,-15528888.702392578,-27037725.4486084,-27709682.46459961,-28004823.684692383,-20876466.751098633,-17744281.768798828,-18675079.345703125,-17841182.708740234,-26751358.032226562,-25377660.751342773,-20458736.419677734,-18402332.305908203,-19031045.91369629
0.275,10790230.751037598,36183010.10131836,33869178.771972656,16647766.11328125,28279447.555541992,-23353988.647460938,-22538763.04626465,-23308065.41442871,9122357.368469238,9624199.867248535,19262216.567993164,19501632.690429688,20109516.143798828,40069110.87036133,-24082834.243774414,-13000844.955444336,-703253.6864280701,3531114.5782470703,16970846.17614746,18224863.052368164,17839382.17163086,19778238.29650879,40164367.67578125,-24290412.90283203,-16114637.37487793,-12811094.284057617,-6418721.675872803,2098941.8029785156,1621009.111404419,6731395.721435547,15452178.001403809,40016586.30371094,-25040889.739990234,-24337654.11376953,-13420159.339904785,-10925696.37298584,1004691.9584274292,-9726296.424865723,6463198.661804199,-11663221.35925293,40120357.513427734,-25200267.791748047,-24573738.09814453,-24649309.158325195,-17615354.537963867,-17557647.705078125,-10272781.372070312,-12681719.779968262,-12470518.112182617,-12373127.937316895,-25936950.68359375,-26754573.822021484,-26904256.82067871,-18099555.96923828,-14839511.87133789,-15801393.508911133,-14831647.872924805,-25720382.690429688,-24065893.173217773,-17427076.33972168,-15502841.94946289,-16039909.362792969
0.28,15382057.189941406,40912395.47729492,38177127.838134766,21325414.657592773,31151466.369628906,-19596483.23059082,-18832448.959350586,-19417507.17163086,10976432.800292969,11226926.803588867,20651430.130004883,20902181.62536621,21659633.63647461,42673622.131347656,-20175825.119018555,-9841946.601867676,929857.0156097412,4621521.472930908,18300758.361816406,19500196.45690918,19099573.135375977,21511026.38244629,42615180.96923828,-20403654.098510742,-12582302.09350586,-10621054.649353027,-5658719.062805176,1893891.5729522705,1694210.410118103,7824460.029602051,18588571.548461914,42499530.79223633,-20845968.24645996,-20209402.084350586,-11462150.573730469,-10524928.092956543,712965.0115966797,-9684488.296508789,7660249.710083008,-7454358.100891113,42893131.256103516,-21121719.360351562,-20407056.80847168,-20600864.41040039,-13848958.015441895,-13722575.187683105,-10207758.903503418,-8612682.342529297,-8679066.65802002,-8261563.301086426,-21677921.295166016,-22598081.588745117,-22793203.353881836,-14326094.627380371,-10718531.608581543,-11675821.304321289,-10632146.835327148,-21464273.45275879,-19864416.122436523,-13563704.490661621,-11565257.07244873,-12008702.278137207
0.285,12397946.35772705,34629753.11279297,31974185.943603516,20204723.358154297,27674394.607543945,-13268094.062805176,-12702397.346496582,-13067241.668701172,11317465.782165527,11084509.84954834,17992998.123168945,18168483.73413086,19021486.282348633,38023365.02075195,-13536713.600158691,-4943891.525268555,3976764.678955078,5776795.387268066,16147401.809692383,17020641.326904297,16629766.464233398,18731634.14001465,37694889.068603516,-13768991.470336914,-5758815.765380859,-5214428.901672363,-2543249.6070861816,1811505.7945251465,1526142.0011520386,7053737.640380859,18159528.732299805,37664150.23803711,-13667370.796203613,-13329633.712768555,-5495285.987854004,-6388676.643371582,543495.2974319458,-9719566.345214844,7094841.003417969,-3411836.3857269287,38154582.97729492,-14127683.639526367,-13524291.9921875,-13668169.021606445,-9479915.618896484,-9367151.260375977,-10305072.784423828,-4488617.420196533,-4920434.474945068,-4370657.444000244,-14550363.540649414,-15362692.832946777,-15720492.362976074,-9797855.377197266,-6406428.813934326,-7216693.40133667,-6276856.422424316,-14239931.106567383,-13028441.429138184,-9141143.798828125,-7292785.64453125,-7620825.290679932
0.29,-1539733.648300171,13405065.536499023,11825953.483581543,10720857.620239258,15907808.303833008,-7200565.814971924,-6829651.355743408,-7158387.660980225,8881072.998046875,8372524.261474609,11748455.047607422,11833373.069763184,12546953.201293945,26885631.561279297,-7104804.992675781,-867207.944393158,5884543.418884277,5792507.171630859,10751326.560974121,11225930.213928223,10939694.40460205,11987616.539001465,26464006.423950195,-7178753.852844238,1103467.2260284424,-588012.8145217896,339867.9792881012,1728888.1540298462,1145825.2668380737,5835952.7587890625,14064049.72076416,26551153.1829834,-6665972.2328186035,-6482993.125915527,929442.4057006836,-892344.3555831909,569804.310798645,-6722092.151641846,6069807.529449463,-228656.6197872162,26862112.045288086,-7120401.382446289,-6704632.759094238,-6726754.188537598,-4816671.371459961,-4790330.88684082,-7420657.157897949,-948232.889175415,-1589289.1883850098,-993559.8373413086,-7420908.9279174805,-8015909.194946289,-8477645.874023438,-4979131.698608398,-2481483.6978912354,-3107809.066772461,-2349493.2651519775,-7054547.309875488,-6186727.046966553,-4491546.154022217,-3139902.5917053223,-3319545.9842681885
0.295,-14346440.315246582,-4072175.0259399414,-3721202.1350860596,1891977.7870178223,6783017.635345459,-5362916.946411133,-5062272.071838379,-5544555.6640625,6495550.632476807,6306574.821472168,8256559.371948242,8279625.89263916,8727930.068969727,20147720.336914062,-5096984.86328125,-445863.9919757843,5170813.083648682,5277835.845947266,7631814.956665039,8051466.941833496,7838768.482208252,8139644.622802734,19903114.318847656,-4979425.90713501,3082324.981689453,-588467.3595428467,413462.0428085327,1636502.6235580444,959540.4267311096,6108066.082000732,11544246.673583984,20089414.596557617,-4487804.412841797,-4095683.5746765137,2259528.398513794,844771.4447975159,724725.1272201538,-2513478.0406951904,6410747.051239014,1731413.1259918213,20133399.963378906,-4673604.0115356445,-4336364.74609375,-4335138.320922852,-1813405.2753448486,-1796932.9357147217,-3227694.034576416,1279128.5514831543,679993.0334091187,1387509.5844268799,-4838442.325592041,-5334568.500518799,-5814017.295837402,-1846440.1960372925,60610.972344875336,-542959.5708847046,158471.7184305191,-4548693.656921387,-3672418.8327789307,-1497382.2832107544,-371374.60708618164,-493621.43874168396
0.3,-12663742.065429688,1446031.928062439,3230877.637863159,3490583.896636963,10795053.482055664,-9621451.377868652,-9223737.716674805,-9859106.063842773,7336551.189422607,7867916.584014893,11763557.434082031,11741522.789001465,12108769.416809082,25264120.10192871,-9491029.739379883,-4571859.836578369,2346337.31842041,5281336.784362793,10623202.323913574,11437060.356140137,11065773.010253906,11726669.311523438,25250080.108642578,-9449884.414672852,-2230713.129043579,-5453043.460845947,-2391587.257385254,1671057.5819015503,1220443.2487487793,7520061.492919922,13725271.224975586,25422113.4185791,-9282518.38684082,-8609636.306762695,-3521262.6457214355,-3609018.8026428223,887626.1115074158,-2167312.1452331543,7762848.377227783,1105214.1189575195,25392990.112304688,-9242565.155029297,-8848481.178283691,-8919736.862182617,-3268758.535385132,-3154185.5335235596,-2741475.5821228027,514182.6868057251,96592.85098314285,906577.4083137512,-9346781.730651855,-9957133.293151855,-10448346.138000488,-3217099.666595459,-799618.8998222351,-1550052.1659851074,-741775.9895324707,-9179712.295532227,-8053224.563598633,-2930633.306503296,-1274730.2055358887,-1545735.1207733154
0.305,924973.6666679382,23729455.947875977,24966545.10498047,12753173.828125,22464159.01184082,-16580146.789550781,-15926096.91619873,-16624509.811401367,9350549.697875977,9904487.609863281,17553256.98852539,17521919.25048828,18127679.8248291,36659481.048583984,-16638906.478881836,-10197264.671325684,-951159.0600013733,4925096.9886779785,15595511.436462402,16873727.798461914,16146488.189697266,17859567.642211914,36688278.19824219,-16980718.6126709,-10689979.553222656,-11178123.474121094,-5821094.512939453,1859035.611152649,1614449.0242004395,8103104.591369629,17499059.677124023,36715656.28051758,-17016471.86279297,-16402986.526489258,-11512956.619262695,-10410693.168640137,952963.5310173035,-6544158.935546875,8232155.799865723,-2156762.8383636475,36878643.03588867,-17085214.614868164,-16576917.64831543,-16723897.933959961,-8308469.772338867,-8188540.458679199,-6941349.983215332,-3103261.947631836,-3351796.3886260986,-2634042.263031006,-17234422.68371582,-18053127.28881836,-18546802.520751953,-8357367.515563965,-4835262.775421143,-5687870.025634766,-4784193.03894043,-17101062.774658203,-15805484.771728516,-7990991.592407227,-5510676.383972168,-6033869.743347168
0.31,12063558.578491211,39341217.041015625,38318470.0012207,18654003.143310547,27324031.829833984,-19302032.470703125,-18346406.936645508,-19119966.506958008,7782565.593719482,6752366.065979004,17835474.014282227,17879983.90197754,18847648.62060547,44410106.65893555,-19248241.424560547,-11977120.399475098,-3007267.2367095947,2609846.830368042,15568416.595458984,16993051.528930664,16026926.040649414,18479644.775390625,44302490.234375,-19877470.016479492,-14055637.35961914,-12914758.682250977,-7606256.96182251,2011092.6628112793,1640016.794204712,7468981.2660217285,18971370.697021484,44198944.091796875,-19803390.502929688,-19508766.174316406,-14022821.426391602,-13154880.52368164,874043.6434745789,-10111569.40460205,7501998.424530029,-4304564.476013184,44589248.65722656,-20138099.670410156,-19510990.142822266,-19721157.07397461,-11061078.071594238,-11181172.370910645,-10471791.26739502,-5379031.181335449,-5545042.991638184,-5054291.725158691,-20317914.962768555,-21238698.959350586,-21675067.901611328,-11431259.155273438,-7362955.093383789,-8125642.776489258,-7278431.8923950195,-20109167.098999023,-18833414.07775879,-10858833.312988281,-8086174.964904785,-8731476.783752441
0.315,13620133.399963379,38246559.143066406,35296829.22363281,17454683.303833008,22125513.076782227,-14467726.707458496,-13398118.97277832,-14296607.01751709,3132536.1728668213,-272202.2831439972,12741555.213928223,12890830.993652344,14065739.631652832,46572410.583496094,-14033862.113952637,-7726424.217224121,-2723195.3144073486,-551408.7677001953,10674348.831176758,11993209.838867188,11120313.64440918,13624121.66595459,46336189.27001953,-14483059.883117676,-8817971.229553223,-9693200.11138916,-7194426.536560059,1982817.7690505981,1304962.6350402832,7304026.126861572,18944004.05883789,46264495.849609375,-14255710.60180664,-14078475.952148438,-8973472.595214844,-10063790.321350098,741551.399230957,-8206377.029418945,7291552.0668029785,-1636308.6700439453,46668518.06640625,-14606118.202209473,-13890415.19165039,-14150273.323059082,-7322391.510009766,-7771584.510803223,-8726875.305175781,-2511785.9840393066,-2697748.1842041016,-2273933.6490631104,-14724180.221557617,-15552199.363708496,-15935203.552246094,-7986654.281616211,-4302779.197692871,-4903568.267822266,-4164313.793182373,-14413585.662841797,-13186043.739318848,-7278451.919555664,-4847592.353820801,-5414188.861846924
0.32,11616894.721984863,31897003.173828125,28920866.012573242,15857407.569885254,17508018.493652344,-6769659.042358398,-5916365.146636963,-6823883.056640625,1481405.7350158691,-3064441.919326782,9657085.418701172,9780991.554260254,10934399.604797363,46903633.11767578,-6115405.082702637,-1409222.960472107,-343339.2643928528,-1217028.8562774658,7700611.591339111,8989151.954650879,8357645.034790039,10631236.07635498,46659004.21142578,-6123502.254486084,-749743.8788414001,-5220818.042755127,-5480852.127075195,1876756.5488815308,1100453.3767700195,8464307.78503418,19954736.709594727,46725605.01098633,-6006629.943847656,-5591846.942901611,-2193904.399871826,-5369225.025177002,746149.7187614441,-3062529.0870666504,8464942.932128906,3750921.0109710693,46977466.58325195,-6105930.328369141,-5380392.074584961,-5603941.917419434,-689555.0489425659,-1263183.355331421,-3820297.0027923584,3090839.624404907,2804663.1813049316,3408549.3087768555,-6165145.8740234375,-6806002.140045166,-7249753.952026367,-1364770.4124450684,1643767.1184539795,1078341.8416976929,1845052.95753479,-5806536.1976623535,-4546532.63092041,-764466.1068916321,1283116.102218628,825477.3616790771
0.325,11432779.312133789,30311826.705932617,28713207.244873047,18005201.33972168,19794898.986816406,-3858301.877975464,-3370916.3665771484,-4072961.8072509766,5267684.9365234375,1598738.9087677002,11823189.735412598,11767806.053161621,12790044.784545898,45482223.51074219,-3388295.4120635986,868091.4640426636,2204526.18598938,1381262.3023986816,9703448.295593262,11116960.525512695,10546764.373779297,12663800.239562988,45286815.64331055,-3231771.70753479,1752019.2861557007,-3634635.6868743896,-3672406.9118499756,1834783.5540771484,1272884.9649429321,9504355.430603027,20978395.462036133,45407001.49536133,-3366894.7219848633,-2705227.1366119385,-154016.22653007507,-3418263.9122009277,940292.1795845032,213496.133685112,9553870.20111084,6122823.238372803,45597053.52783203,-3322926.0444641113,-2669217.824935913,-2754093.647003174,1871711.015701294,1467072.1292495728,-660694.3607330322,5472537.994384766,5086996.555328369,5817155.838012695,-3424440.1454925537,-3949434.280395508,-4517045.974731445,1390440.821647644,4073335.1707458496,3424983.9782714844,4333944.320678711,-3095658.540725708,-1821244.3590164185,1766618.9670562744,3724612.7128601074,3228063.1065368652
0.33,8483514.785766602,27301645.278930664,26924222.946166992,18483383.178710938,21655813.217163086,-7556431.293487549,-7220136.1656188965,-7707406.520843506,8940376.281738281,6735012.054443359,14119043.350219727,13947093.00994873,14858175.277709961,39738395.69091797,-7402890.682220459,-2621413.9461517334,2534846.305847168,3698640.1081085205,11976414.680480957,13448896.408081055,12743524.551391602,14672429.084777832,39534481.048583984,-7454441.547393799,-2685387.134552002,-5403370.380401611,-2721055.9844970703,1785121.0832595825,1495213.508605957,8967226.9821167,19071304.321289062,39564506.53076172,-7628334.045410156,-6987770.557403564,-2689756.6318511963,-4005506.0386657715,1097019.1955566406,758879.7211647034,9036566.734313965,4032904.624938965,39882194.51904297,-7672605.037689209,-7116446.495056152,-7097912.311553955,-650121.5100288391,-743261.0988616943,-14262.024313211441,3316626.54876709,2920192.241668701,3471017.837524414,-7861155.986785889,-8372445.106506348,-8964095.115661621,-998703.2413482666,1683682.918548584,992749.273777008,1949534.296989441,-7603407.382965088,-6421401.500701904,-658926.3081550598,1241433.5012435913,586777.5082588196
0.335,-1054652.214050293,16288806.915283203,16187189.102172852,12856449.127197266,16082061.767578125,-12561401.3671875,-12054359.436035156,-12574316.024780273,7231108.18862915,5491788.387298584,12151003.83758545,12092962.265014648,12965588.569641113,32360530.853271484,-12482918.739318848,-7991755.485534668,170315.59348106384,2678162.097930908,10317760.467529297,11682123.184204102,10897327.423095703,12514040.94696045,32065502.166748047,-12655734.062194824,-8125129.699707031,-7972464.084625244,-3117437.8395080566,1600159.1682434082,1403615.2362823486,7591433.525085449,14775291.442871094,32006881.713867188,-12610331.535339355,-12104523.658752441,-4970672.607421875,-4576392.17376709,978599.3099212646,1249608.7551116943,7607398.509979248,1822475.9101867676,32464256.286621094,-12657359.12322998,-12193675.994873047,-12216654.777526855,-2911914.825439453,-2732803.5831451416,692912.3401641846,1161250.8296966553,825553.7152290344,1098368.8831329346,-12885210.037231445,-13369715.690612793,-13861696.243286133,-3261595.2491760254,-562624.0372657776,-1229791.4028167725,-399584.3529701233,-12674111.366271973,-11584490.776062012,-2713230.609893799,-1060701.608657837,-1823482.9902648926
0.34,-8361268.997192383,7469782.829284668,6916458.606719971,7710142.612457275,9843321.800231934,-13668421.745300293,-12977089.881896973,-13685511.589050293,3425294.876098633,1522394.4187164307,9511983.871459961,9636422.157287598,10533483.505249023,30107555.389404297,-13485255.241394043,-10555012.702941895,-2626301.050186157,171568.95995140076,7884465.217590332,9185306.549072266,8451782.2265625,9911048.889160156,29714458.465576172,-13442501.068115234,-9519147.872924805,-9284498.21472168,-4495358.943939209,1398303.0319213867,1134080.5292129517,7144880.771636963,12181356.430053711,29696508.407592773,-13223400.115966797,-12764040.94696045,-4694225.788116455,-4555932.521820068,706253.0517578125,2152309.6561431885,7102299.213409424,2585980.176925659,30121690.75012207,-13041774.74975586,-12674867.630004883,-12788974.76196289,-1749242.7825927734,-1451369.6432113647,1710369.1101074219,2071175.3368377686,1759581.446647644,2036545.753479004,-13280158.996582031,-13682295.799255371,-14079705.238342285,-2100716.1140441895,601325.1543045044,-113594.47985887527,595094.0251350403,-13069247.245788574,-11933999.061584473,-1386515.0213241577,89622.19208478928,-635312.557220459
0.345,-2629246.711730957,14056104.66003418,12817361.831665039,11551070.213317871,13243869.78149414,-11520214.080810547,-10948289.87121582,-11675649.642944336,3974830.8658599854,2693371.7727661133,11505704.879760742,11605490.684509277,12529707.908630371,34428821.5637207,-11370689.392089844,-9482323.64654541,-3299112.08152771,-62480.3863465786,9595430.374145508,11055579.18548584,10315925.598144531,12008514.404296875,34015491.4855957,-11149497.985839844,-7772799.491882324,-9389928.817749023,-5711905.956268311,1412314.1765594482,1056045.1745986938,8150219.917297363,13741459.846496582,34106742.85888672,-10946773.529052734,-10584508.895874023,-4056704.044342041,-5195095.539093018,632515.0728225708,1464993.8344955444,8171757.698059082,4214024.543762207,34365833.2824707,-10675122.261047363,-10376477.241516113,-10488043.785095215,36337.59915828705,249658.62929821014,908053.2193183899,3792316.198348999,3425097.2270965576,3972231.388092041,-10934782.028198242,-11343708.038330078,-11686049.461364746,-263229.5489311218,2602415.8000946045,1731273.2934951782,2489492.416381836,-10736155.50994873,-9484888.076782227,342894.85216140747,2033620.5959320068,1421244.8596954346
0.35,9608835.220336914,28291124.34387207,26755443.572998047,19877008.43811035,22342786.78894043,-10482884.407043457,-10217139.24407959,-10730735.778808594,7709146.022796631,7945316.314697266,16028760.91003418,15926248.550415039,16822580.337524414,39560672.760009766,-10514732.360839844,-7779232.025146484,-2213400.8407592773,1777442.6937103271,13658258.438110352,15329545.021057129,14469054.222106934,16515995.025634766,39216403.96118164,-10495195.388793945,-6750011.444091797,-9372369.766235352,-6018539.905548096,1612833.1422805786,1200082.4213027954,9742258.071899414,17581844.329833984,39340618.13354492,-10290267.944335938,-10235418.319702148,-5370881.5574646,-6707866.191864014,827512.9795074463,-611238.1815910339,9945611.000061035,3882907.8674316406,39461479.18701172,-10348873.138427734,-10028953.552246094,-10098011.016845703,-723954.0815353394,-713350.1768112183,-1417438.5070800781,3457794.427871704,3049264.669418335,3746153.3546447754,-10592444.41986084,-11215151.7868042,-11439706.802368164,-993696.6896057129,2188786.745071411,1208356.261253357,2089690.4468536377,-10470364.570617676,-9207613.945007324,-624756.8726539612,1516630.5303573608,944577.3959159851
0.355,9947629.928588867,29080419.540405273,28278961.181640625,19854286.193847656,23409704.208374023,-12871250.15258789,-12687968.254089355,-13054680.824279785,7472520.82824707,8756735.801696777,16631971.35925293,16443408.966064453,17289075.85144043,40674468.994140625,-12929020.881652832,-8437484.741210938,-2027045.488357544,2225728.750228882,14227472.305297852,15855269.432067871,14982918.739318848,17040670.39489746,40424320.220947266,-13183361.053466797,-8282420.1583862305,-9940229.415893555,-5845873.3558654785,1742085.0992202759,1281191.110610962,10803978.91998291,19968135.833740234,40459873.19946289,-12843006.134033203,-13062075.6149292,-7990815.63949585,-7984140.872955322,971068.263053894,-1489308.9532852173,11119222.640991211,2152801.275253296,40559146.881103516,-13276181.2210083,-12885062.217712402,-13027350.425720215,-3072450.876235962,-3161309.242248535,-2436969.757080078,1662606.3585281372,1331280.1122665405,1870936.5129470825,-13449006.080627441,-14355214.11895752,-14413064.956665039,-3339685.9169006348,51620.956510305405,-886185.348033905,-9596.609510481358,-13413901.329040527,-12249054.908752441,-3038400.888442993,-674111.9027137756,-1341009.8552703857
0.36,-3220415.1153564453,14916723.251342773,15532881.736755371,10491333.0078125,14641047.477722168,-16531188.96484375,-16045640.94543457,-16530868.530273438,2465765.953063965,3548971.652984619,12792590.141296387,12747830.390930176,13612479.209899902,38247493.743896484,-16427968.978881836,-10737505.912780762,-3358065.366744995,807899.7731208801,10856400.489807129,12152954.1015625,11505721.092224121,13208702.087402344,38037342.0715332,-16591903.686523438,-10984241.485595703,-10764122.009277344,-5720426.082611084,1721750.4978179932,1176425.576210022,10278326.988220215,18456495.28503418,37934768.67675781,-16298990.249633789,-16420207.977294922,-9987944.602966309,-8468726.15814209,847222.5666046143,-1201874.7329711914,10505176.544189453,79334.02061462402,38119590.759277344,-16630779.266357422,-16248817.443847656,-16556732.177734375,-5311795.711517334,-5286648.750305176,-2031879.6634674072,-515833.0202102661,-680716.1569595337,-361545.205116272,-16814004.89807129,-17822618.48449707,-17864210.12878418,-5517061.710357666,-2295280.933380127,-3136212.5873565674,-2406447.8874206543,-16792125.701904297,-15664848.327636719,-5082634.925842285,-2961579.7996520996,-3766726.9706726074
0.365,-5708148.47946167,11259633.06427002,12260249.137878418,7202456.951141357,11227117.538452148,-17336751.93786621,-16446327.209472656,-17114553.451538086,1361244.3208694458,1909164.309501648,10828937.530517578,10958333.969116211,11889021.873474121,33276748.657226562,-17312427.520751953,-10598452.5680542,-2949241.1613464355,1484168.529510498,9376287.460327148,10300836.563110352,9914814.949035645,11293039.321899414,33033176.42211914,-17287130.35583496,-12084513.664245605,-10402053.833007812,-4874311.923980713,1707799.6730804443,1034271.3594436646,7466192.245483398,12885474.20501709,32836341.857910156,-17570234.298706055,-17382022.857666016,-10405147.552490234,-8206210.136413574,649085.4620933533,-3026434.1831207275,7541039.943695068,-3789758.4438323975,33153148.651123047,-17498895.6451416,-17242479.32434082,-17615489.959716797,-8587685.585021973,-8415381.43157959,-3585421.8006134033,-4466577.529907227,-4498270.034790039,-4201768.87512207,-17904291.1529541,-18785518.646240234,-19033037.185668945,-8678095.817565918,-6073011.39831543,-6866574.287414551,-6289369.583129883,-17857458.114624023,-16665996.551513672,-8170130.729675293,-6606844.425201416,-7427910.804748535
0.37,21725877.76184082,35991569.51904297,35193637.84790039,20766374.588012695,24124952.31628418,-13436323.165893555,-12378985.404968262,-13010325.43182373,9784839.630126953,10817047.119140625,14171967.506408691,14356112.480163574,15229414.939880371,24557615.280151367,-14019044.876098633,-5327342.510223389,2015170.3357696533,6296734.33303833,12862440.10925293,13541906.356811523,13273610.11505127,14568948.745727539,24273311.614990234,-14341419.219970703,-9753500.938415527,-7450552.940368652,-2186759.4718933105,1685872.0779418945,931166.2316322327,3427531.2423706055,5587933.06350708,24075401.306152344,-15517809.867858887,-15307763.09967041,-9078777.313232422,-6484955.787658691,603952.7654647827,-7511085.033416748,3509589.672088623,-9981241.226196289,24454483.032226562,-15382742.881774902,-15249657.63092041,-15516330.71899414,-13699187.278747559,-13573007.583618164,-7900146.484375,-10605249.404907227,-10606583.595275879,-10214974.403381348,-16127202.987670898,-16804613.11340332,-17239686.965942383,-13736255.645751953,-11992447.853088379,-12712254.524230957,-12262307.167053223,-16129379.272460938,-14984443.664550781,-13399127.960205078,-12410694.122314453,-13053332.328796387
0.375,62537464.1418457,70850349.42626953,67570602.41699219,39951103.21044922,42988559.72290039,-7340209.484100342,-6370521.545410156,-6786145.210266113,20576395.03479004,23260602.951049805,18193212.509155273,18431444.16809082,19046079.635620117,13713139.533996582,-8680707.931518555,2183276.653289795,8973920.822143555,11065283.77532959,16844636.917114258,17339220.04699707,17188289.642333984,18456285.47668457,13475166.320800781,-9825427.055358887,-4864753.723144531,-2561496.7346191406,1566391.8256759644,1390819.4303512573,753260.9105110168,1275923.6097335815,849443.9125061035,13353823.6618042,-11555097.579956055,-11702551.84173584,-6107385.635375977,-2554718.9712524414,588871.7174530029,-9891266.822814941,1491240.5014038086,-14441425.323486328,13623572.34954834,-11818101.88293457,-11716394.424438477,-11854599.952697754,-17270536.422729492,-17317840.576171875,-10319190.02532959,-14885237.693786621,-14934988.975524902,-14537279.12902832,-12775321.960449219,-13250243.186950684,-13611544.609069824,-17347440.719604492,-16302122.116088867,-16835458.755493164,-16564722.061157227,-12883529.663085938,-12071287.155151367,-17296241.760253906,-16690071.105957031,-17071622.848510742
0.38,79554252.62451172,81881774.90234375,78352218.62792969,44200401.306152344,48553619.384765625,-3714154.2434692383,-2897927.2842407227,-3171216.7263031006,22194671.630859375,26667692.184448242,17140464.782714844,17550155.639648438,17882425.30822754,7817921.6384887695,-5285527.70614624,5694417.953491211,12082850.456237793,10506887.435913086,15880586.624145508,16184402.465820312,16295330.047607422,17447801.58996582,7732522.487640381,-6887647.1519470215,-703449.6665000916,1382210.373878479,3883808.374404907,818833.1723213196,489937.8716945648,3230012.6552581787,1899278.163909912,7680286.407470703,-8429889.678955078,-8841391.563415527,-2467158.079147339,2216897.487640381,410302.5794029236,-6376495.361328125,3449086.6661071777,-12543400.764465332,7749778.270721436,-8971119.88067627,-8874819.7555542,-9003943.44329834,-15173563.957214355,-15275067.329406738,-6885421.7529296875,-12854999.542236328,-12990716.934204102,-12653723.71673584,-9884634.017944336,-10109768.867492676,-10240304.946899414,-15287795.066833496,-14433334.350585938,-14786267.280578613,-14691761.97052002,-9992693.901062012,-9628183.364868164,-15374063.491821289,-14884505.271911621,-15112023.35357666
0.385,58526500.7019043,60985298.15673828,60318313.59863281,29472873.68774414,36669021.60644531,-4726005.077362061,-4057521.8200683594,-4338790.8935546875,13650927.543640137,19019124.98474121,12018753.051757812,12579968.452453613,12823545.455932617,11790672.302246094,-5826696.395874023,2551154.375076294,9291740.417480469,5589731.216430664,10984995.84197998,11215678.215026855,11502505.3024292,12619510.650634766,11866934.776306152,-7019814.968109131,119296.69976234436,2141711.473464966,3549440.1454925537,460726.38034820557,360842.91338920593,7391747.951507568,7218791.484832764,11787648.20098877,-7886674.404144287,-8116900.444030762,149483.88934135437,4938817.501068115,231123.685836792,-142694.10073757172,7392048.8357543945,-5731199.264526367,11801880.836486816,-8183020.59173584,-8161576.271057129,-8343680.381774902,-8637814.52178955,-8636988.639831543,-568633.8543891907,-6069123.268127441,-6306477.5466918945,-5928449.1539001465,-8862040.519714355,-8857222.557067871,-8888901.710510254,-8728786.46850586,-7623169.422149658,-7975994.58694458,-7858703.61328125,-8800355.911254883,-8628290.176391602,-8735119.819641113,-8157830.238342285,-8408087.730407715
0.39,21558612.823486328,30912706.37512207,34112831.115722656,11356328.964233398,20553247.451782227,-8263373.374938965,-7793132.305145264,-8087731.36138916,4808410.167694092,9935666.08428955,8012524.604797363,8518616.676330566,8823418.617248535,20377426.147460938,-8710391.998291016,-3514613.151550293,4638299.942016602,2157437.324523926,7137239.456176758,7543599.1287231445,7615303.039550781,8874885.559082031,20507848.739624023,-9097153.663635254,-1776588.3207321167,555234.432220459,2233978.271484375,689839.4227027893,499751.2102127075,9192165.37475586,11219515.800476074,20332464.21813965,-9360713.005065918,-9206288.33770752,946961.1644744873,4558364.391326904,324962.22853660583,2389761.209487915,8964550.971984863,-539677.2027015686,20513017.654418945,-9217723.846435547,-9310789.108276367,-9466451.644897461,-3502434.492111206,-3445804.5959472656,2158545.0172424316,-946547.5678443909,-1254958.5103988647,-738682.5084686279,-9611925.12512207,-9613136.291503906,-9730854.034423828,-3553984.8804473877,-2236800.9090423584,-2718638.4201049805,-2345825.433731079,-9374121.66595459,-9015517.234802246,-3451682.8060150146,-2752334.3563079834,-3087906.1222076416
0.395,-4642903.804779053,11244187.355041504,17059560.775756836,2921726.942062378,11205505.37109375,-11534362.79296875,-11273836.135864258,-11494490.623474121,2554998.8746643066,6888196.94519043,6683477.878570557,6991775.989532471,7297273.1590271,22479162.216186523,-11719100.952148438,-7797589.7789001465,2337022.542953491,2745591.402053833,5858325.481414795,6569331.169128418,6184011.459350586,7461591.720581055,22554891.58630371,-11639542.579650879,-4389853.000640869,-1223241.0907745361,2007687.3302459717,1156221.628189087,702707.5886726379,6514709.949493408,9670882.225036621,22362972.259521484,-11656633.377075195,-11340593.338012695,422662.52636909485,2956249.952316284,535507.7981948853,-309385.41889190674,6248191.356658936,-1244295.597076416,22682340.621948242,-11393156.051635742,-11530902.862548828,-11570361.137390137,-3704290.3900146484,-3728742.1226501465,-475551.575422287,-1624158.501625061,-1895094.2754745483,-1341007.2326660156,-11577321.05255127,-11855229.377746582,-12037961.00616455,-3743324.7566223145,-2662683.9637756348,-3206706.762313843,-2581387.0429992676,-11322979.927062988,-10672609.329223633,-3685450.315475464,-3001422.643661499,-3329716.920852661
0.4,-17981119.15588379,-2407582.2830200195,4724363.327026367,164940.40191173553,5880465.030670166,-14881178.855895996,-14694217.681884766,-14834926.60522461,3073142.5285339355,7036419.868469238,4951850.414276123,5125405.788421631,5334871.292114258,13654087.06665039,-15200364.112854004,-10525138.854980469,1322203.516960144,3570952.892303467,4248952.865600586,5113333.225250244,4482064.247131348,5347220.897674561,13668382.64465332,-15136029.243469238,-7681322.5746154785,-2954709.529876709,2374601.125717163,1186691.8802261353,657183.9451789856,1999875.3070831299,3801126.9569396973,13628452.30102539,-15115427.97088623,-14896042.823791504,-1035562.27684021,2116900.2056121826,421245.0981140137,-3900962.3527526855,1796809.7925186157,-6241627.6931762695,13808556.55670166,-15055757.522583008,-15120344.161987305,-15073321.342468262,-8020601.272583008,-8124646.186828613,-4212813.377380371,-6573130.6076049805,-6683292.388916016,-6298597.33581543,-15196646.690368652,-15724752.426147461,-15841888.427734375,-8092543.601989746,-7574247.83706665,-8089749.336242676,-7402132.987976074,-15011754.035949707,-14286815.643310547,-8163159.370422363,-7679175.37689209,-7889694.2138671875
0.405,-30305240.631103516,-19752979.278564453,-11554661.750793457,-6400597.095489502,-1424808.0253601074,-19885108.947753906,-19600690.841674805,-19763938.903808594,-261829.61463928223,4339374.06539917,1294103.741645813,1440948.8439559937,1639740.4670715332,1675953.5074234009,-20289188.385009766,-14740923.881530762,-1892984.7478866577,700164.1988754272,828117.6090240479,1614079.1177749634,1067119.2407608032,1366632.580757141,1673043.4894561768,-20389846.801757812,-12623920.440673828,-5822441.101074219,1345729.4702529907,683410.4061126709,314724.3857383728,-296418.57743263245,-1233531.3558578491,1831826.3292312622,-20273359.298706055,-20148242.950439453,-3484088.659286499,1742364.764213562,-63247.24853038788,-4629582.405090332,-525374.4125366211,-11178658.485412598,1740201.711654663,-20396707.53479004,-20313982.009887695,-20273080.825805664,-12706914.901733398,-12797124.862670898,-5101678.371429443,-11592853.546142578,-11540522.575378418,-11406178.47442627,-20647489.547729492,-21141038.89465332,-21186119.079589844,-12899938.583374023,-12741251.945495605,-13290699.95880127,-12623309.135437012,-20428094.8638916,-19828062.057495117,-12967666.625976562,-12726791.381835938,-12854263.305664062
0.41,-40997951.50756836,-32211624.145507812,-23301313.400268555,-14456990.242004395,-6983713.150024414,-25137567.5201416,-24705410.00366211,-25007869.720458984,-6562870.979309082,-838525.7124900818,-898958.6234092712,-762429.7142028809,-386186.24210357666,-656078.9942741394,-25294181.82373047,-20201400.756835938,-7005518.436431885,-4036902.904510498,-1335252.285003662,-600707.6501846313,-1064045.1908111572,-802424.3116378784,-703090.1312828064,-25487943.649291992,-17829288.482666016,-9472532.272338867,-1313852.7870178223,234024.92702007294,-75676.98508501053,784034.6693992615,-976536.4527702332,-515549.30210113525,-25177875.518798828,-25032051.08642578,-6286767.959594727,278516.5309906006,-448851.1085510254,-3587335.3481292725,444036.0367298126,-13013727.188110352,-620395.2431678772,-25318414.68811035,-25097759.246826172,-25073822.021484375,-15026781.08215332,-15106765.747070312,-4058729.1717529297,-13603796.005249023,-13561087.608337402,-13552889.823913574,-25683643.341064453,-25998426.43737793,-26074943.54248047,-15409639.358520508,-14990369.79675293,-15656470.29876709,-14909165.382385254,-25314805.98449707,-24739324.56970215,-15293144.226074219,-15045333.862304688,-15280688.285827637
0.415,-38105869.29321289,-23779850.006103516,-15489092.826843262,-13496395.111083984,-2947697.639465332,-27075145.721435547,-26508501.052856445,-27023721.69494629,-9338912.963867188,-3325595.6172943115,1978880.524635315,2122112.274169922,2735939.9795532227,11677931.785583496,-26857349.395751953,-23087749.481201172,-9907026.290893555,-5693895.33996582,1050140.5000686646,2038559.4367980957,1429162.859916687,2408571.243286133,11515112.87689209,-27039230.346679688,-20133169.174194336,-11733798.027038574,-3581882.4768066406,322404.50382232666,-229013.87512683868,3354937.0765686035,4959208.4884643555,11510223.388671875,-26621725.08239746,-26429042.81616211,-8031271.934509277,-2678425.3120422363,-404659.2712402344,-3808873.6534118652,2961272.954940796,-11032400.131225586,11746671.676635742,-26723712.921142578,-26455577.850341797,-26362535.47668457,-14225525.856018066,-14355141.639709473,-4213233.947753906,-11725187.301635742,-11907042.503356934,-11802277.565002441,-27082725.524902344,-27385662.078857422,-27518484.115600586,-14679157.257080078,-13407160.758972168,-14092992.782592773,-13223549.842834473,-26623851.776123047,-25802759.170532227,-14385906.219482422,-13657682.418823242,-14171524.047851562
0.42,-21088953.018188477,1995501.3990402222,8271026.611328125,-1815820.574760437,8634663.581848145,-24965738.29650879,-24216510.772705078,-24950803.756713867,-6013189.792633057,-1276620.5072402954,8141041.7556762695,8380719.184875488,9137388.229370117,30422725.677490234,-24627819.061279297,-21617172.241210938,-8487339.973449707,-2894669.0559387207,6446135.0440979,7902594.089508057,7093356.132507324,8959618.56842041,30191947.93701172,-24638706.20727539,-18848793.029785156,-11604248.046875,-3981657.2666168213,803760.4093551636,-35868.58883500099,5491796.016693115,12775884.628295898,29950239.181518555,-24311635.971069336,-24059621.810913086,-8196421.6232299805,-5938714.027404785,-128155.84242343903,-5568325.996398926,5133355.617523193,-6422907.829284668,30519805.908203125,-24363605.499267578,-24161870.9564209,-23950166.702270508,-11193693.161010742,-11304562.56866455,-6032578.945159912,-7121311.664581299,-7576710.7009887695,-7210766.792297363,-24658609.39025879,-25132343.292236328,-25245908.737182617,-11428013.801574707,-9082943.9163208,-9625222.206115723,-8781095.504760742,-24256872.177124023,-23102378.845214844,-11113750.457763672,-9573791.50390625,-10310612.678527832
0.425,-6568786.144256592,21593923.568725586,25680213.928222656,9329744.338989258,16064680.099487305,-22151325.225830078,-21208303.451538086,-22060737.60986328,-1039469.0036773682,1753591.0606384277,11900059.700012207,12255251.88446045,13055795.669555664,41344436.64550781,-21997911.45324707,-18754293.44177246,-5530698.299407959,734789.8483276367,9869763.374328613,11587199.211120605,10760640.144348145,12938671.112060547,41241355.895996094,-21711814.880371094,-16864910.125732422,-10721356.391906738,-3405095.338821411,1231556.77318573,372120.32079696655,6895104.885101318,17293203.353881836,40915821.07543945,-21515279.76989746,-21107660.2935791,-7803328.514099121,-8066678.047180176,54721.228778362274,-6133232.593536377,6579166.889190674,-1627489.9244308472,41446144.104003906,-21439910.888671875,-21348911.28540039,-21083587.646484375,-7773306.846618652,-7711913.108825684,-6771901.607513428,-2355573.892593384,-2908512.1154785156,-2292009.5920562744,-21744062.423706055,-22312759.399414062,-22381734.84802246,-7642488.0027771,-4440139.7705078125,-4875110.626220703,-4199350.833892822,-21431184.768676758,-20175622.940063477,-7363766.670227051,-5175928.115844727,-5871127.128601074
0.43,-7079413.890838623,20726613.998413086,23576490.40222168,10302083.969116211,13294965.744018555,-21816364.288330078,-20883346.557617188,-21665817.260742188,362233.13212394714,2344259.023666382,10554023.742675781,10882153.511047363,11682504.653930664,38734783.17260742,-21815324.783325195,-18530042.64831543,-5150104.522705078,1344907.522201538,8915894.508361816,10418844.223022461,9717531.204223633,11589813.232421875,38876289.36767578,-21384908.67614746,-17071640.014648438,-11361951.82800293,-3747780.3230285645,1385830.8792114258,691773.533821106,7975180.625915527,16435424.8046875,38634151.458740234,-21111627.57873535,-20492837.90588379,-8111926.078796387,-8756215.09552002,125980.39209842682,-3595497.6081848145,7699625.015258789,1306395.7691192627,38843578.33862305,-20868318.557739258,-20843200.68359375,-20605218.8873291,-5415552.139282227,-5177049.63684082,-4340373.516082764,501506.0305595398,86259.54389572144,749207.3178291321,-21217559.814453125,-21707719.802856445,-21797441.482543945,-5125324.726104736,-1537551.8798828125,-2072831.392288208,-1508546.233177185,-20894933.700561523,-19865505.21850586,-4778274.059295654,-2462958.812713623,-2930325.746536255
0.435,-15051509.857177734,11773889.541625977,14405532.836914062,4993455.88684082,8078480.7205200195,-23703660.96496582,-23072597.50366211,-23633295.0592041,-1789289.8321151733,1296755.6715011597,7727627.754211426,7919044.017791748,8687243.461608887,31659864.42565918,-23545907.974243164,-21539857.864379883,-8114591.598510742,-1015037.0597839355,6594698.429107666,7633909.225463867,7054482.460021973,8648651.123046875,31890966.415405273,-23338344.57397461,-19550706.86340332,-13979488.372802734,-5619215.488433838,1331956.5057754517,694791.4958000183,8751312.255859375,13526464.462280273,31762239.456176758,-22786535.263061523,-22064752.57873535,-9430929.183959961,-9080569.26727295,208698.5558271408,278715.8787250519,8568507.194519043,2282952.070236206,31779287.338256836,-22473390.579223633,-22471050.262451172,-22245756.149291992,-4251310.8253479,-4009754.180908203,-444673.1209754944,1474746.9425201416,1273717.4034118652,1740734.2195510864,-22748910.903930664,-23185134.887695312,-23321563.720703125,-4108839.988708496,-526743.5908317566,-1262619.2569732666,-652921.4978218079,-22345724.10583496,-21651430.130004883,-3638521.432876587,-1509385.2281570435,-1883345.365524292
0.44,-15287568.092346191,14450548.17199707,17324314.11743164,4019731.044769287,10719468.116760254,-25439002.990722656,-25133686.065673828,-25460676.193237305,-3567537.784576416,1357002.3775100708,8577090.2633667,8745316.505432129,9485974.311828613,32383300.78125,-24956844.329833984,-24806070.32775879,-11449713.706970215,-3283412.456512451,7277101.039886475,8074800.491333008,7613050.937652588,9423325.538635254,32420146.942138672,-25111827.850341797,-22309095.38269043,-16799406.051635742,-7711851.596832275,1201670.76587677,480542.6299571991,8850524.90234375,13437068.939208984,32327194.213867188,-24364593.505859375,-23688674.926757812,-11005889.892578125,-10128531.455993652,270729.124546051,1613221.526145935,8759746.551513672,2332972.526550293,32504997.25341797,-24106521.606445312,-24144842.14782715,-23894199.37133789,-3853739.5000457764,-3728348.49357605,903382.5993537903,1639421.1053848267,1520811.3193511963,1767347.4550247192,-24207838.05847168,-24761095.04699707,-24861494.064331055,-3890049.934387207,-411919.7428226471,-1257457.2563171387,-540935.9335899353,-23756538.39111328,-23227218.627929688,-3413027.52494812,-1324781.1794281006,-1908529.1624069214
0.445,-6542459.964752197,27587505.340576172,30696687.698364258,9913292.88482666,19282253.26538086,-25197443.00842285,-24919185.638427734,-25125085.830688477,-2630121.4694976807,2941370.0103759766,12807415.962219238,13127120.018005371,13926104.545593262,39968666.076660156,-24588523.864746094,-24989143.37158203,-11823704.719543457,-3142840.3854370117,10816630.363464355,11760980.606079102,11445560.455322266,13655359.268188477,39710597.99194336,-24814302.444458008,-23018127.44140625,-17264944.076538086,-8124142.646789551,1104976.5348434448,359869.48013305664,7914973.258972168,16092370.986938477,39595302.58178711,-24155248.641967773,-23542512.893676758,-11311429.023742676,-11242261.88659668,240778.56540679932,-1023178.219795227,7773755.073547363,1732533.33568573,40094207.763671875,-23960468.292236328,-24041105.270385742,-23845399.856567383,-4222278.594970703,-4136173.725128174,-1820735.0969314575,1153842.568397522,918586.4925384521,1211080.1935195923,-24023277.282714844,-24718385.696411133,-24693017.959594727,-4221521.377563477,-834185.9579086304,-1712864.3989562988,-915772.3784446716,-23572965.621948242,-22964912.41455078,-3868402.9579162598,-1643971.8008041382,-2500479.4597625732
0.45,-1759700.2983093262,31813262.939453125,35023475.646972656,14483365.058898926,22122718.811035156,-22755495.071411133,-22274848.93798828,-22526681.900024414,-946321.3682174683,3479602.098464966,14716609.954833984,15133078.575134277,16063129.425048828,42065196.9909668,-22322504.0435791,-21632297.51586914,-9084497.451782227,-1442344.6655273438,12425227.165222168,13611082.077026367,13376146.31652832,15541965.48461914,41661727.90527344,-22253297.805786133,-20447704.315185547,-14498535.15625,-6439171.314239502,1109486.5798950195,435197.02553749084,6141627.311706543,16616180.419921875,41552547.454833984,-21814603.805541992,-21192338.943481445,-9144366.264343262,-10575847.625732422,196581.52759075165,-4175033.0924987793,5797348.499298096,524543.046951294,42187442.779541016,-21606433.868408203,-21647628.784179688,-21639200.21057129,-4984832.286834717,-4794228.076934814,-5058735.370635986,-39639.21591639519,-483641.53504371643,142794.95179653168,-21879467.010498047,-22537092.208862305,-22399898.529052734,-4818938.732147217,-1699885.0107192993,-2653739.6907806396,-1773376.8224716187,-21410888.671875,-20625944.137573242,-4572514.533996582,-2436209.9170684814,-3257354.974746704
0.455,-9044180.870056152,18135349.27368164,21388261.795043945,10334452.629089355,13813478.469848633,-19716526.03149414,-19160972.595214844,-19610755.920410156,-2309579.372406006,453396.7077732086,10549260.139465332,10839630.126953125,11830158.233642578,33690540.3137207,-19472208.02307129,-17988790.51208496,-6752823.352813721,-1199097.5141525269,8721905.708312988,9907006.26373291,9630314.826965332,11260230.06439209,33313705.444335938,-19077964.782714844,-16215597.152709961,-11032821.655273438,-4617676.258087158,1147564.8880004883,475026.01146698,4746868.61038208,12949821.472167969,33274368.286132812,-18694110.870361328,-18035236.358642578,-5544842.24319458,-7998249.053955078,188152.7453660965,-2970330.9535980225,4217735.290527344,209614.14277553558,33755485.53466797,-18415126.80053711,-18337375.64086914,-18479352.951049805,-4604911.804199219,-4271695.613861084,-3796332.359313965,-399806.6782951355,-962877.1543502808,-51565.89671969414,-18908367.156982422,-19389804.84008789,-19246282.57751465,-4346924.304962158,-1734767.7946090698,-2753307.342529297,-1782786.0116958618,-18374883.6517334,-17493635.177612305,-4131106.8534851074,-2417165.517807007,-2883350.8491516113
0.46,-20966875.076293945,1211200.5949020386,4495493.412017822,503171.98038101196,2252084.0167999268,-18832300.186157227,-18442789.07775879,-19136423.110961914,-7640269.2794799805,-5525192.737579346,3605751.9912719727,3721457.004547119,4628935.813903809,25447652.81677246,-18490161.895751953,-18068290.71044922,-8456488.609313965,-4088188.648223877,2321417.3316955566,3280848.264694214,2992766.857147217,4223077.297210693,25132484.436035156,-18012224.197387695,-14540134.42993164,-10957083.702087402,-5151420.116424561,1067786.5743637085,314945.4593658447,5181018.352508545,9704201.698303223,25157577.514648438,-17472236.63330078,-16794006.34765625,-3764184.2365264893,-6115522.384643555,79562.84284591675,2628890.7527923584,4631189.346313477,2422562.837600708,25406494.140625,-17113780.975341797,-16937425.61340332,-17011171.340942383,-2170013.189315796,-1775065.541267395,1983687.6392364502,1784961.9388580322,1325575.4709243774,2109387.3977661133,-17525503.158569336,-17888299.9420166,-17859039.306640625,-1903003.9310455322,363722.17535972595,-541488.4090423584,435097.6347923279,-16939468.383789062,-16101980.209350586,-1721058.2494735718,-296325.8624076843,-465643.7337398529
0.465,-25561464.309692383,-1365580.5587768555,1722861.886024475,-5794680.595397949,-2317348.4802246094,-21209011.07788086,-20941247.940063477,-21763906.478881836,-13254376.411437988,-10743434.90600586,97348.26534986496,241936.89227104187,1036032.5574874878,27321573.25744629,-20554914.474487305,-21971347.80883789,-13395503.044128418,-8005398.750305176,-1228295.5646514893,-478470.17645835876,-589612.0071411133,788220.7036018372,27058742.52319336,-20172138.214111328,-17705087.661743164,-14972174.644470215,-7860139.3699646,895205.9149742126,176282.8677892685,7027758.1214904785,11206355.094909668,27032827.377319336,-19503604.888916016,-18809257.50732422,-5562507.152557373,-6900598.049163818,-164113.23845386505,6848735.332489014,6592144.012451172,5631147.384643555,27222761.154174805,-19110038.75732422,-18883888.244628906,-18765245.43762207,429679.87060546875,753259.0627670288,6365408.420562744,4993707.180023193,4840332.984924316,5101645.946502686,-19194906.23474121,-19549816.131591797,-19706935.88256836,699828.2074928284,3144774.6753692627,2517458.438873291,3376437.4256134033,-18628778.4576416,-17911128.997802734,834112.7634048462,2440452.0988464355,2224072.6947784424
0.47,-21604022.979736328,7221170.902252197,9682761.192321777,-4357297.420501709,99751.90460681915,-24317861.557006836,-23907770.15686035,-24680482.864379883,-14460776.329040527,-11687383.651733398,1537022.1138000488,1832178.3542633057,2614841.2227630615,32918186.18774414,-23482692.71850586,-25448017.120361328,-16761468.887329102,-9103446.960449219,-64997.71028757095,584671.9145774841,721879.780292511,2386766.9105529785,32748310.089111328,-23174970.626831055,-22490245.819091797,-18860105.514526367,-9744506.8359375,899305.9992790222,365445.1370239258,7628242.492675781,14114164.352416992,32543540.954589844,-22570295.333862305,-21895994.186401367,-8479639.053344727,-8677402.49633789,-226267.44210720062,4891178.607940674,7320596.218109131,5864632.129669189,32857772.827148438,-22258415.22216797,-21942075.729370117,-21768026.35192871,166169.77751255035,291099.3695259094,4465145.587921143,5252698.4214782715,5404562.473297119,5168471.813201904,-22159347.534179688,-22488210.678100586,-22803606.033325195,374023.10967445374,3165436.9831085205,2758764.0285491943,3477397.2034454346,-21662540.435791016,-21032978.057861328,550435.6026649475,2427177.1907806396,1943877.100944519
0.475,-17686611.17553711,10498634.338378906,12328978.538513184,418786.31711006165,2293155.9085845947,-24890205.38330078,-24271936.416625977,-24925796.508789062,-10859008.7890625,-8490664.4821167,4138247.013092041,4414476.8714904785,5264678.001403809,30130743.0267334,-24190532.684326172,-25446479.79736328,-15689749.717712402,-6525664.806365967,2721849.4415283203,3290831.8042755127,3488677.0248413086,4986371.040344238,30050125.122070312,-23849681.854248047,-24017137.52746582,-18782480.239868164,-8960317.611694336,1233021.2593078613,796263.0391120911,5399120.807647705,12279102.325439453,29687070.846557617,-23366424.560546875,-22806941.986083984,-8949438.095092773,-8631191.25366211,181480.5418252945,-819874.4654655457,5149815.082550049,2082159.7576141357,30104759.216308594,-23250560.760498047,-22779405.59387207,-22735160.82763672,-2976731.061935425,-3080595.016479492,-1263903.1410217285,1528188.3478164673,1757880.687713623,1453977.9424667358,-23322925.567626953,-23527791.97692871,-23866828.91845703,-2973294.734954834,-350283.59293937683,-728405.2968025208,-80599.85935688019,-22854566.57409668,-22214756.01196289,-2660561.0847473145,-963757.5149536133,-1637250.9002685547
0.48,-18938611.98425293,4748361.587524414,6921727.180480957,2586461.7824554443,2142887.592315674,-23605216.97998047,-23030508.041381836,-23622089.385986328,-6906108.379364014,-4708052.635192871,5289859.294891357,5382436.752319336,6293827.056884766,22664972.30529785,-23170803.07006836,-24312593.460083008,-13050796.508789062,-3697297.5730895996,4335050.582885742,4844183.444976807,4865999.698638916,5966284.275054932,22559823.989868164,-22717584.60998535,-22595920.56274414,-16559553.146362305,-7602460.3843688965,1632541.1796569824,1082490.5633926392,2864240.884780884,7458514.213562012,22227087.020874023,-22193950.653076172,-21755086.89880371,-7440074.920654297,-7406637.668609619,794378.7574768066,-3678817.9874420166,2585374.8321533203,-1437345.8623886108,22579093.93310547,-22227436.065673828,-21667991.638183594,-21711055.755615234,-5445207.118988037,-5634456.157684326,-4162667.2744750977,-1968595.8623886108,-1867766.6187286377,-1852518.4392929077,-22564027.786254883,-22640504.837036133,-22867727.279663086,-5640079.021453857,-3582331.657409668,-4022709.846496582,-3417662.3821258545,-22026506.423950195,-21301300.048828125,-5252513.408660889,-3965766.668319702,-4673231.12487793
0.485,-21324535.369873047,3689888.9541625977,7613815.3076171875,1578465.7001495361,4943670.272827148,-24153896.33178711,-23843692.779541016,-24402456.283569336,-6728699.207305908,-3493746.519088745,6834820.747375488,6957065.582275391,7922200.2029418945,27252786.63635254,-23799556.732177734,-26091306.686401367,-13367940.902709961,-3986323.118209839,5775180.339813232,6399335.861206055,6193902.492523193,7532679.080963135,27057922.36328125,-23217857.360839844,-22999193.19152832,-16823324.20349121,-8784182.54852295,1689912.4383926392,1052188.6348724365,4102466.106414795,8485404.014587402,26917928.69567871,-22514451.98059082,-21996860.50415039,-7640124.320983887,-8271250.7247924805,1014561.653137207,-1354649.543762207,3745214.4622802734,-85226.91577672958,27100162.506103516,-22473752.975463867,-21996593.475341797,-21933174.13330078,-4468275.07019043,-4522609.710693359,-1889089.1075134277,-747918.8442230225,-697208.7025642395,-418842.22626686096,-22771551.13220215,-22841930.389404297,-22957901.000976562,-4612624.168395996,-2514790.0581359863,-2966761.827468872,-2440807.580947876,-22117141.723632812,-21324199.676513672,-4286861.896514893,-2858618.4978485107,-3595225.3341674805
0.49,-19715541.83959961,16093088.150024414,22247274.39880371,564283.1325531006,13384193.420410156,-27807153.701782227,-27679431.915283203,-28163640.97595215,-9746013.641357422,-4651453.971862793,10757505.416870117,11328558.921813965,12365749.35913086,48602748.87084961,-27289905.548095703,-30641839.9810791,-16855266.571044922,-6640595.91293335,8860742.568969727,9816180.229187012,9459766.387939453,11952826.499938965,48447498.3215332,-26632043.838500977,-27265172.958374023,-20378589.630126953,-12165362.358093262,1385271.5492248535,916327.8937339783,9040000.915527344,18389831.54296875,48437667.84667969,-25837896.3470459,-25018627.166748047,-10923430.442810059,-11989189.147949219,664993.2265281677,1779412.3888015747,8632575.035095215,4880233.287811279,48507690.4296875,-25525445.93811035,-25225980.758666992,-24986803.05480957,-1632079.839706421,-1474664.6881103516,1186755.895614624,3956311.9411468506,4221163.272857666,4373115.539550781,-25497535.705566406,-25672811.50817871,-25798709.869384766,-1489564.8956298828,1724775.4335403442,1298473.1197357178,1760597.1097946167,-24790210.723876953,-24008617.401123047,-1235021.2335586548,1097279.3102264404,224435.37414073944
0.495,-16376083.374023438,30800039.291381836,38232395.17211914,396485.7757091522,21294273.376464844,-32032669.067382812,-31895994.186401367,-32324489.59350586,-12594793.319702148,-5929905.891418457,14703962.326049805,15784719.467163086,16864271.16394043,69325103.75976562,-31368337.631225586,-34680927.27661133,-20278841.018676758,-8641992.568969727,12095712.661743164,13385697.364807129,12901572.227478027,16590257.64465332,69365608.21533203,-30718042.373657227,-32318809.509277344,-23880380.630493164,-14656870.84197998,1109183.1922531128,901115.357875824,12688363.075256348,28319675.44555664,69269531.25,-30020936.965942383,-28942966.46118164,-14659095.764160156,-15491288.185119629,185874.0597963333,1201393.0082321167,12290618.896484375,7483772.754669189,69355331.42089844,-29446739.196777344,-29281351.08947754,-28972654.342651367,-926577.3892402649,-682772.0999717712,579568.9821243286,6393772.602081299,6935412.883758545,6733948.707580566,-29228696.823120117,-29503358.840942383,-29709188.46130371,-535398.6620903015,3865195.7511901855,3416349.6494293213,3910621.166229248,-28574708.938598633,-27847930.908203125,-261290.81845283508,2943893.4326171875,1882951.8556594849
0.5,-17315475.463867188,31774812.698364258,39170291.900634766,-1084099.1735458374,21252151.489257812,-34805183.41064453,-34652385.71166992,-35133018.493652344,-13666295.051574707,-5935477.733612061,14883286.476135254,16021732.330322266,17075817.108154297,71192359.9243164,-34244575.50048828,-37178638.45825195,-22214649.200439453,-9032231.330871582,12415709.495544434,13819463.729858398,13171581.268310547,17058486.938476562,71349235.53466797,-33650817.87109375,-35258693.69506836,-25439538.955688477,-14932741.165161133,1145766.8542861938,969525.6948471069,11217338.562011719,28351430.892944336,71069938.65966797,-33056701.66015625,-32009376.525878906,-16381048.202514648,-16279180.526733398,26723.628863692284,-1880094.7666168213,10831906.31866455,4290593.62411499,71249565.12451172,-32400997.161865234,-32281082.153320312,-32009098.052978516,-3890852.451324463,-3700733.9000701904,-2462092.399597168,3301294.5652008057,3857511.7588043213,3496646.6426849365,-32368652.34375,-32683418.27392578,-32887779.235839844,-3473445.8923339844,814378.9172172546,308751.76191329956,885246.5152740479,-31807277.67944336,-31099559.783935547,-3190688.371658325,-15553.859993815422,-1206649.1842269897
