time,Fp1,Fpz,Fp2,AF3,AF4,F7,F5,F3,F1,Fz,F2,F4,F6,F8,FT7,FC5,FC3,FC1,FCz,FC2,FC4,FC6,FT8,T7,C5,C3,C1,Cz,C2,C4,C6,T8,TP7,CP5,CP3,CP1,CPz,CP2,CP4,CP6,TP8,P7,P5,P3,P1,Pz,P2,P4,P6,P8,PO7,PO5,PO3,POz,PO4,PO6,PO8,CB1,O1,Oz,O2,CB2
0.0,-25349554.06188965,-13259304.04663086,-5564583.778381348,-9714568.138122559,4855793.476104736,-8424140.930175781,-8531250.953674316,-8476933.479309082,-2038934.7076416016,-1034104.4664382935,3514493.703842163,3715067.148208618,4016605.854034424,15717502.59399414,-7856524.467468262,-7519296.169281006,-1784742.3553466797,-3253772.974014282,3061899.6620178223,3184094.9058532715,3214611.053466797,3997293.710708618,15791001.319885254,-7530239.582061768,-3339594.1257476807,-5066474.914550781,-3704159.97505188,372477.29301452637,278402.6265144348,6074977.397918701,11073568.344116211,15931912.422180176,-6470681.667327881,-6249431.610107422,3073923.5877990723,592946.8870162964,354021.0723876953,3264024.496078491,6037191.390991211,3826535.701751709,15920445.442199707,-6298667.907714844,-6136671.06628418,-6274822.71194458,3307980.0605773926,3156508.9225769043,3267519.474029541,3772043.7049865723,3771612.1673583984,3737644.672393799,-6083989.62020874,-6109713.554382324,-6039875.9841918945,3154567.003250122,3550538.5398864746,3418026.924133301,3543734.550476074,-5976655.48324585,-5954783.4396362305,3420547.4853515625,3196370.6016540527,3334295.7496643066
0.005,-10532135.963439941,11551098.823547363,7865476.131439209,17357978.82080078,12686364.17388916,-4298326.49230957,-3808267.116546631,-3452116.7278289795,10734942.436218262,8545712.4710083,4889008.99887085,4847272.3960876465,5816132.545471191,8240410.804748535,-4249489.307403564,135544.50869560242,7929998.874664307,6900821.685791016,5456463.33694458,5057734.01260376,5018456.935882568,4717823.505401611,9068803.787231445,-5691118.240356445,-1737208.0087661743,3060548.0670928955,3283291.5782928467,1994056.4632415771,1542407.2742462158,-4487115.859985352,-2121038.6753082275,9582539.558410645,-4262052.059173584,-5363197.803497314,2904277.563095093,2310655.117034912,2170995.9506988525,-5682642.936706543,-4632299.900054932,-8110716.819763184,9863485.336303711,-4439805.98449707,-4987681.865692139,-5390471.458435059,-7087818.622589111,-8317768.096923828,-5804012.775421143,-7985592.842102051,-7877735.137939453,-8161741.256713867,-5627419.471740723,-5962597.370147705,-5471639.156341553,-8911636.352539062,-8340287.208557129,-8572816.848754883,-8654585.838317871,-5651491.165161133,-5475727.081298828,-6858402.252197266,-9692348.48022461,-8702071.189880371
0.01,-10552559.852600098,17386253.356933594,9705379.486083984,23789566.040039062,15135682.106018066,-3895294.189453125,-3151058.1970214844,-2702342.748641968,13605443.954467773,11570246.696472168,5753898.143768311,5492218.494415283,6828969.0017700195,7278425.216674805,-3769008.8748931885,1176696.6581344604,9480018.615722656,8817821.502685547,6587417.6025390625,6041651.725769043,5909029.006958008,5299047.946929932,8503384.590148926,-6185285.0914001465,-2439272.64213562,3943660.4976654053,4129161.3578796387,2618770.5993652344,1998368.0248260498,-6473866.939544678,-5240468.502044678,9184307.098388672,-3997547.388076782,-5716723.918914795,1332784.5335006714,1784338.355064392,2879035.9497070312,-7293279.17098999,-6628494.2626953125,-11015550.61340332,9579059.600830078,-4440824.508666992,-5084652.423858643,-5876946.926116943,-9907668.113708496,-11686179.161071777,-7522666.454315186,-10717886.924743652,-10572635.650634766,-11088500.9765625,-6137176.036834717,-6582652.568817139,-5985079.765319824,-12250244.140625,-11246064.186096191,-11742697.715759277,-11719803.810119629,-6137793.54095459,-5996104.717254639,-9361410.140991211,-13276469.230651855,-11888435.363769531
0.015,-20639940.26184082,8243684.768676758,3446819.78225708,14351875.305175781,13478194.236755371,-4245855.808258057,-3594515.323638916,-3234891.891479492,8993068.69506836,9122079.849243164,5973774.9099731445,5696377.277374268,7040303.2302856445,12826228.141784668,-3587514.638900757,-1119529.366493225,5865243.911743164,4689286.231994629,6402444.839477539,6029325.485229492,5832222.461700439,5676169.872283936,14082015.037536621,-6001803.874969482,-2575256.34765625,645084.6791267395,817792.5944328308,2419731.378555298,1748755.693435669,-1071407.675743103,1126504.898071289,14690714.836120605,-3023631.3343048096,-4625392.436981201,779214.3821716309,577968.7166213989,2598992.347717285,-2441409.8262786865,-1169794.5594787598,-4215895.175933838,15130185.1272583,-3493562.698364258,-3818972.587585449,-4934806.823730469,-4412087.440490723,-6140046.5965271,-2707488.2984161377,-3818543.9109802246,-3666487.455368042,-4388688.087463379,-4946186.065673828,-5289680.957794189,-4846616.268157959,-6270943.164825439,-4513156.414031982,-5245222.091674805,-4983238.220214844,-4782723.903656006,-4756197.452545166,-3471679.925918579,-6788475.99029541,-5507495.880126953
0.02,-24949563.98010254,2525103.3306121826,1060731.1725616455,9660294.532775879,13233218.1930542,-813654.899597168,-288951.7843723297,-43286.85253858566,7273129.463195801,8082387.924194336,6132508.754730225,6129991.53137207,7303490.161895752,18407764.434814453,208138.00394535065,448787.30177879333,5683580.39855957,3161946.0582733154,6212819.0994262695,5977500.915527344,5815972.805023193,6154176.235198975,19625240.325927734,-1720473.7663269043,1212778.2106399536,1113847.9709625244,-84673.02471399307,2369430.7804107666,1597364.6640777588,3592403.4118652344,7666244.5068359375,20020824.432373047,1409406.4235687256,121687.50166893005,3877255.439758301,1621443.9868927002,2378373.146057129,1676439.0468597412,3501747.8466033936,4556295.871734619,20668096.5423584,1154882.4310302734,958672.6427078247,-162888.7504339218,2987780.3325653076,1515491.247177124,1482092.022895813,4923828.601837158,5115292.072296143,4255202.293395996,-74040.99404811859,-265313.92335891724,55224.39628839493,1560153.0075073242,4154058.4564208984,3459102.153778076,3721290.349960327,242657.09519386292,309143.7816619873,4094538.2118225098,1905534.1482162476,2888233.184814453
0.025,-19687021.255493164,7109906.6734313965,5444790.363311768,17204841.61376953,16306425.094604492,4099072.4563598633,4715673.923492432,4874139.308929443,12380064.010620117,12062806.129455566,6912599.086761475,7214374.06539917,8285430.908203125,18576309.204101562,5072613.23928833,5018017.292022705,10016072.273254395,7146021.366119385,7143805.503845215,6826041.698455811,6783451.080322266,7070575.23727417,19903305.053710938,3475354.9098968506,6022483.825683594,5957369.804382324,3053431.987762451,2913393.020629883,2035190.3438568115,3290417.9096221924,8027321.815490723,20058567.04711914,6150582.790374756,4946235.656738281,8450453.758239746,4539247.035980225,2843358.5166931152,781014.9788856506,3121059.8945617676,7699138.641357422,21035650.2532959,6086495.876312256,5717215.538024902,4812800.884246826,5674870.014190674,4259187.2215271,720734.6558570862,7964932.918548584,8189681.053161621,7337940.692901611,4761492.729187012,4621748.924255371,4992738.246917725,4076122.283935547,7210633.754730225,6664212.226867676,6705904.006958008,5112526.416778564,5383345.127105713,6639443.397521973,4972393.035888672,5769540.309906006
0.03,-15351325.035095215,12034813.88092041,8277801.513671875,24986249.923706055,18546436.309814453,4694147.58682251,5509696.483612061,5574792.861938477,17575361.251831055,16835033.416748047,7655027.866363525,7964266.300201416,9123338.69934082,14840301.513671875,5578039.646148682,5477402.210235596,11937541.007995605,10882290.840148926,8262215.614318848,7786765.575408936,7851537.227630615,7699935.9130859375,16310354.232788086,3930008.4114074707,6282345.294952393,8536952.97241211,5598214.626312256,3488188.0283355713,2692306.2801361084,1361960.0534439087,4853512.287139893,16320163.72680664,6303716.659545898,5003930.09185791,9909653.663635254,6172737.598419189,3544858.694076538,-2177408.456802368,1116421.2226867676,5277952.194213867,17405893.325805664,6186915.874481201,5694060.802459717,4923423.290252686,3522200.345993042,1958874.4640350342,-2119608.8790893555,5494968.414306641,5685908.794403076,4974467.2775268555,4776464.939117432,4598770.618438721,5077101.230621338,1582909.9416732788,4785367.012023926,4145478.2485961914,4095318.7942504883,5071338.176727295,5489508.628845215,4272352.695465088,2406614.065170288,3183121.4427948
0.035,-17034843.44482422,9604933.738708496,4541228.294372559,22854297.637939453,15754413.604736328,1727140.4266357422,2534318.9239501953,2541140.7947540283,16032461.166381836,16329011.917114258,6592870.235443115,6672396.659851074,8032036.781311035,12115809.440612793,2792832.374572754,964424.3121147156,8122925.758361816,9332062.721252441,7339271.545410156,6824578.285217285,6915117.263793945,6500374.317169189,13524983.406066895,927675.4856109619,2598015.546798706,6152401.924133301,4420080.661773682,3414082.0503234863,2886787.8913879395,1622409.9397659302,3457821.846008301,13602446.556091309,3548801.898956299,2211982.9654693604,7473894.5960998535,5110188.007354736,3694300.1747131348,-2664221.0483551025,1402538.0611419678,2823507.070541382,14376662.254333496,3272427.3204803467,2819528.341293335,2017135.8585357666,1384316.6828155518,-235485.7325553894,-2525768.518447876,3072839.2601013184,3220061.5406036377,2618645.191192627,1982714.056968689,1798711.4191055298,2300179.7199249268,-520725.3098487854,2450931.7874908447,1501577.377319336,1606197.8340148926,2213814.0201568604,2582484.722137451,2080996.5133666992,-80880.91760873795,722313.2252693176
0.04,-15899466.514587402,6206164.836883545,268538.236618042,17004142.76123047,9790687.561035156,2046295.166015625,2574528.217315674,2638549.8046875,10336578.369140625,11252513.885498047,3530619.3828582764,3493106.1267852783,4956346.035003662,11104383.46862793,3308015.5849456787,-711867.63048172,3871497.869491577,5376598.834991455,4171751.022338867,3718707.0846557617,3762366.771697998,3456811.9049072266,12261353.492736816,1315827.1312713623,1214957.594871521,4033916.473388672,2267971.7540740967,2816799.1638183594,2497618.9136505127,2385644.9127197266,3699984.312057495,12600075.721740723,4170964.241027832,2877867.9370880127,4481682.300567627,3088063.955307007,3175516.366958618,-1539656.639099121,2279898.4050750732,2841160.297393799,12907465.934753418,3878299.4747161865,3389995.336532593,2567065.0005340576,1565196.3949203491,123358.25711488724,-1344429.850578308,3089942.455291748,3281461.000442505,2633680.3436279297,2656810.0452423096,2553866.147994995,2992427.349090576,-50443.41832399368,2676911.8309020996,1596067.9054260254,1836941.3614273071,2840879.6787261963,3053118.7057495117,2332350.730895996,183128.64005565643,969125.5688667297
0.045,-5237934.589385986,10487448.692321777,2654866.4569854736,18290637.969970703,6589086.055755615,7594285.011291504,7899474.620819092,8091431.617736816,8187739.372253418,8427753.448486328,1145554.9001693726,1232402.5630950928,2562802.314758301,8540038.108825684,8660060.88256836,5029400.825500488,4811292.1714782715,5005300.998687744,1747418.761253357,1336089.3726348877,1304002.7618408203,1141421.1988449097,9520033.836364746,6654141.426086426,4625344.276428223,6692079.544067383,2874613.5234832764,2387368.91746521,2068686.4852905273,150846.36211395264,1771316.647529602,10109920.501708984,9052670.4788208,7742017.2691345215,3268755.1975250244,1996700.8829116821,2570510.6258392334,-3385928.3924102783,142890.40863513947,1948229.0744781494,10232649.803161621,8833389.282226562,8182150.840759277,7437998.7716674805,927625.0004768372,-310787.46914863586,-3184223.175048828,2086967.7066802979,2369571.9242095947,1616108.2983016968,7431438.446044922,7417004.108428955,7768041.610717773,-598143.5179710388,1946859.2405319214,1090172.7676391602,1232722.282409668,7554265.975952148,7656836.986541748,1698635.1013183594,-324741.6019439697,410391.4201259613
0.05,5744360.446929932,19208007.8125,9435678.482055664,25641586.303710938,9275605.201721191,11573580.741882324,12017981.52923584,12265800.476074219,11883387.565612793,11695837.97454834,2161434.1735839844,2390150.308609009,3459405.6606292725,4986259.937286377,12178080.558776855,12174807.54852295,9249056.816101074,8780007.362365723,2836758.1367492676,2458110.3324890137,2348375.082015991,2079675.9128570557,6022521.97265625,10173449.516296387,8207495.68939209,11153388.023376465,5337131.023406982,2486193.895339966,2098281.145095825,-3812938.690185547,-1955970.6449508667,6674129.486083984,11714064.598083496,10314008.712768555,3249331.7127227783,1860075.831413269,2392212.6293182373,-9019960.403442383,-3808040.8573150635,-2658050.060272217,6975283.622741699,11415344.23828125,10732039.451599121,10048943.519592285,-3286089.1819000244,-4552374.362945557,-8883590.698242188,-2623651.9813537598,-2336091.5184020996,-3067336.7977142334,9795427.322387695,9769755.363464355,10036857.604980469,-5003343.58215332,-2669323.444366455,-3225794.792175293,-3296701.669692993,9831704.139709473,9915646.55303955,-2645982.027053833,-4752942.5621032715,-4030435.085296631
0.055,4053401.470184326,22716003.41796875,13267051.696777344,29405160.903930664,15151198.387145996,8622874.25994873,9433916.091918945,9624357.223510742,16434123.992919922,17077310.56213379,5753471.374511719,5963088.035583496,6910744.667053223,6271749.496459961,9036740.30303955,12995090.48461914,12067233.085632324,12023901.93939209,6346210.479736328,6101181.0302734375,5924957.752227783,5495497.226715088,7457558.631896973,7005033.96987915,7869605.06439209,12230948.448181152,6220703.125,2823209.047317505,2450661.1824035645,-4791041.851043701,-2323874.4735717773,8031236.64855957,8231175.422668457,6804858.207702637,3783175.468444824,2143598.3180999756,2598572.254180908,-13548192.977905273,-4819384.574890137,-7618337.631225586,8553364.753723145,7711693.76373291,7205581.6650390625,6480255.126953125,-8008386.611938477,-9478244.78149414,-13462326.049804688,-7499837.875366211,-7290709.972381592,-7897339.344024658,6093612.194061279,5948331.832885742,6166107.177734375,-9888710.975646973,-7758470.058441162,-8243681.907653809,-8432090.759277344,6050433.63571167,6160678.863525391,-7533207.416534424,-9853421.211242676,-9043842.315673828
0.06,-7610571.86126709,18822271.3470459,11897520.065307617,26003627.77709961,18972972.869873047,3152759.790420532,4128055.0956726074,4262898.4451293945,16953046.798706055,18382490.158081055,8244345.664978027,8381625.175476074,9468788.146972656,14107421.875,3842501.640319824,9061054.229736328,12073750.495910645,11866743.087768555,8564994.812011719,8526515.96069336,8309363.36517334,7973686.695098877,15340807.914733887,1750083.9233398438,5974385.2615356445,10314716.339111328,4985278.606414795,2958739.757537842,2589007.3776245117,-1711196.8994140625,2444455.623626709,15857415.199279785,3516942.024230957,2148461.103439331,5300935.745239258,2925907.611846924,2836926.4602661133,-12847528.457641602,-1751958.0125808716,-7625530.71975708,16388090.133666992,2892767.906188965,2518561.601638794,1724982.2616577148,-8071217.5369262695,-9640320.777893066,-12673675.537109375,-7244184.494018555,-7040315.1512146,-7648164.749145508,1443387.2699737549,1151972.8899002075,1408210.277557373,-9898525.23803711,-7782451.152801514,-8373002.052307129,-8573281.288146973,1358173.7279891968,1484508.6336135864,-7694933.891296387,-10024951.934814453,-9050660.133361816
0.065,-14858318.328857422,13432456.016540527,8482802.391052246,20856288.90991211,17923608.779907227,2554484.1289520264,3296467.5426483154,3489505.7678222656,13731046.676635742,14684480.667114258,7412397.861480713,7566256.999969482,8890798.568725586,21124341.96472168,3597801.685333252,7523598.194122314,11373132.705688477,9872554.779052734,7644599.437713623,7679811.000823975,7463360.786437988,7404263.019561768,22307249.069213867,1403678.5364151,6455247.87902832,9427352.905273438,3882844.4480895996,2809505.2242279053,2281150.8178710938,1414856.4338684082,7241256.7138671875,22811956.40563965,3853903.05519104,2468876.1234283447,6951211.452484131,3877055.6449890137,2899987.9360198975,-8818496.704101562,1364382.028579712,-3063621.759414673,23244617.462158203,3294719.2192077637,2895525.6938934326,2090796.2322235107,-3665116.548538208,-5119947.910308838,-8470517.1585083,-2469703.9127349854,-2142133.7127685547,-2954534.2922210693,2012358.1886291504,1632639.6465301514,2000649.4522094727,-5360689.163208008,-3017586.7080688477,-3675196.1708068848,-3889557.8384399414,1926961.4219665527,2029361.9632720947,-3324314.594268799,-5390337.4671936035,-4297674.655914307
0.07,-12116395.950317383,10675935.745239258,5397463.321685791,18692058.563232422,13827652.931213379,6235524.654388428,6586929.798126221,6929327.964782715,9679734.230041504,9796222.686767578,4835466.8617248535,5044498.920440674,6481632.232666016,20906274.795532227,7305878.162384033,9831966.400146484,10331626.892089844,7859575.7484436035,5333979.12979126,5201393.604278564,5045670.509338379,5181467.056274414,22036071.77734375,5047729.4921875,8225811.004638672,10167070.388793945,3531539.9169921875,2607383.4896087646,1884034.276008606,2018382.0724487305,7944307.327270508,22489032.745361328,7610976.696014404,6052247.047424316,6572376.251220703,3833877.3250579834,2855004.7874450684,-5952120.780944824,1897552.8478622437,854152.6198387146,22927164.07775879,7048024.1775512695,6702578.067779541,5915729.04586792,50850.54412484169,-1266722.9175567627,-5568606.376647949,1434200.644493103,1845058.798789978,861658.2155227661,5905863.285064697,5536733.627319336,5972650.051116943,-1599298.119544983,1058787.5843048096,413289.6065711975,175152.9425382614,5864327.907562256,5924912.929534912,388687.3722076416,-1402621.6268539429,-362641.69216156006
0.075,-7525318.145751953,9959552.764892578,3263955.3546905518,18449031.829833984,11265694.618225098,7545361.518859863,7661966.323852539,8140088.081359863,6355397.701263428,6407026.290893555,3482140.7794952393,3720017.910003662,5130494.594573975,18257776.260375977,8385052.680969238,10877755.165100098,7764550.20904541,5221881.866455078,4155727.3864746094,3800526.1421203613,3782072.3056793213,4063297.748565674,19314054.489135742,6261664.867401123,7755041.599273682,9497355.461120605,2173621.17767334,2579129.934310913,1893170.1183319092,2829277.276992798,8263233.184814453,19694831.84814453,8538510.3225708,6811025.619506836,4277849.197387695,2544004.6787261963,2875940.3228759766,-5029684.066772461,2613166.332244873,1871892.4522399902,20222869.873046875,7830795.2880859375,7717160.701751709,6937305.450439453,508184.37337875366,-855467.9155349731,-4835287.094116211,2300252.914428711,2598526.2393951416,1698212.1467590332,6787969.11239624,6521512.031555176,6889740.943908691,-1148299.6940612793,1808697.5812911987,1176736.2356185913,977154.6125411987,6831998.348236084,6919310.092926025,887027.7404785156,-771536.9462966919,62154.96361255646
0.08,-8211376.190185547,10628509.521484375,3374372.4822998047,17709150.314331055,12946779.251098633,4543545.722961426,4605640.411376953,5127999.782562256,4084194.1833496094,4073506.3552856445,4154041.290283203,4493937.969207764,5883929.72946167,22427747.72644043,5228723.049163818,8274415.969848633,4882000.44631958,1780521.273612976,4440405.368804932,4071616.6496276855,4247225.284576416,4860527.992248535,23349367.141723633,3472149.8489379883,5586186.408996582,6679873.943328857,-477357.1193218231,2771002.5310516357,2334069.013595581,6790016.174316406,13787637.710571289,23753664.016723633,5675152.778625488,4011515.6173706055,3244976.9973754883,1528474.4501113892,3045489.0727996826,-3405906.2004089355,6592841.148376465,3177937.9844665527,24306673.049926758,4988877.296447754,4950371.742248535,4188099.8611450195,792729.6161651611,-742311.8352890015,-3401819.944381714,3528401.6132354736,3633146.047592163,2937829.4944763184,3873789.072036743,3740450.143814087,3961094.856262207,-813455.9988975525,2477632.522583008,1877250.6713867188,1782937.6459121704,4007858.7532043457,4248878.002166748,1279289.0071868896,-214944.86927986145,429431.289434433
0.085,-11734570.503234863,11955943.10760498,4931806.564331055,16306922.912597656,16025867.462158203,2267441.0343170166,2305275.2017974854,2778209.686279297,3550145.387649536,2329191.6847229004,5062559.127807617,5635532.855987549,7063520.908355713,31976846.69494629,3015897.750854492,5839376.926422119,4628242.015838623,73923.35683107376,4726212.024688721,4521321.773529053,4862140.655517578,5864537.239074707,32819614.41040039,1633917.3316955566,5330299.854278564,4828401.0887146,-1814176.9170761108,3046669.2447662354,2734453.9165496826,11011781.692504883,21502044.677734375,33336753.845214844,4068089.008331299,2721427.4406433105,5073584.55657959,1956886.1722946167,3261940.9561157227,-647506.2370300293,10988808.631896973,6883790.493011475,33841991.42456055,3794847.249984741,3398154.9739837646,2666043.519973755,3670623.540878296,2066374.3019104004,-594332.6950073242,7275043.964385986,7358246.803283691,6703642.36831665,2425624.8474121094,2362910.270690918,2485539.9131774902,2165537.5957489014,5756358.623504639,5255616.188049316,5267237.186431885,2596516.8476104736,3030977.249145508,4304816.722869873,3131380.319595337,3750562.4294281006
0.09,-13758645.057678223,10609564.781188965,3122435.3313446045,14926724.433898926,15160195.350646973,3978179.2163848877,4016439.437866211,4426062.107086182,5354841.709136963,2686690.8073425293,4694430.828094482,5435131.549835205,6860002.040863037,35380390.16723633,4881843.566894531,6740766.0484313965,7129044.532775879,2392193.7942504883,4304677.0095825195,4160185.3370666504,4518103.122711182,5473396.778106689,36342781.06689453,3600494.384765625,7198192.119598389,5843844.413757324,-85707.61233568192,3172896.8620300293,2680174.1123199463,9912965.774536133,22096046.447753906,36914131.16455078,6086867.809295654,5095436.096191406,6822249.412536621,2703497.1714019775,3306954.6222686768,-80151.06618404388,10044500.350952148,9344871.520996094,37390281.677246094,6324970.245361328,5422842.502593994,4685658.4548950195,6317167.282104492,4838343.143463135,147290.31920433044,9734409.33227539,10024120.330810547,9243224.143981934,4780353.546142578,4682624.340057373,4798608.303070068,4868508.815765381,8434598.922729492,8008662.223815918,8078739.166259766,4913254.737854004,5420988.5597229,7061346.530914307,6109898.090362549,6837075.233459473
0.095,-11858668.327331543,7718612.194061279,-1648458.0039978027,15617598.533630371,11282618.522644043,6395916.46194458,6604936.122894287,7052320.957183838,9307347.297668457,6815847.396850586,4277558.80355835,4911566.257476807,6231054.306030273,27397140.502929688,7327142.238616943,8971222.877502441,9524771.690368652,7383187.294006348,4513455.867767334,4240830.421447754,4412310.1234436035,4780681.610107422,28572059.631347656,5783469.200134277,7359039.306640625,7573731.899261475,2816403.865814209,3003746.98638916,2265681.743621826,3217778.9211273193,12904926.300048828,29090017.318725586,7811700.344085693,6943297.863006592,4871141.9105529785,1885553.479194641,3070776.93939209,-3984032.63092041,3286868.5722351074,5746715.068817139,29524591.44592285,8137477.874755859,7091600.41809082,6319253.921508789,3818406.343460083,2503587.484359741,-3778332.9486846924,5976459.02633667,6499296.188354492,5686643.123626709,6682735.443115234,6492023.944854736,6633248.805999756,2309711.456298828,5397743.701934814,4895617.961883545,4956020.355224609,6720307.350158691,7161977.291107178,4539639.949798584,3376779.317855835,4197429.656982422
0.1,1892189.5027160645,17493989.944458008,5094661.712646484,24064207.077026367,14691488.265991211,5913593.292236328,6484120.3689575195,7099533.0810546875,15388998.031616211,14568876.266479492,6915667.0570373535,7309744.834899902,8519249.91607666,17030014.038085938,6523703.575134277,10143667.221069336,10882394.790649414,11940971.374511719,7570492.267608643,7272300.720214844,7124478.340148926,7036134.243011475,18243951.79748535,4440971.374511719,4332561.96975708,7551948.070526123,4065358.6387634277,2646327.9724121094,1923864.3646240234,-3101082.0865631104,2475058.078765869,18728441.23840332,5682570.934295654,4565960.884094238,116779.02936935425,-315385.6694698334,2712870.5978393555,-10107305.526733398,-3275452.6138305664,-3105374.0978240967,19021463.39416504,5548071.86126709,4774121.284484863,4022356.9869995117,-4043256.2828063965,-5360853.19519043,-10153301.239013672,-3080935.7166290283,-2490320.2056884766,-3167644.97756958,4232721.328735352,3949072.3609924316,4117599.9641418457,-5732665.538787842,-3252288.579940796,-3901008.6059570312,-3932986.02104187,4113442.4209594727,4512785.4347229,-3528218.2693481445,-5238787.1742248535,-4421967.98324585
0.105,37768383.02612305,55501163.482666016,39076381.68334961,44561107.63549805,34296272.27783203,4364013.195037842,5287921.42868042,6074610.710144043,23772026.06201172,24080537.796020508,14008827.209472656,14391394.61517334,15627072.33428955,16112058.639526367,4207818.508148193,11884839.057922363,13654356.002807617,15073335.647583008,14142489.433288574,14164055.824279785,13730198.860168457,14045742.03491211,17146110.53466797,1462124.5861053467,1715626.59740448,6581920.623779297,3629147.2911834717,2358310.2226257324,1898724.1983413696,-4138771.0571289062,89627.24357843399,17688083.64868164,1967404.842376709,352766.09659194946,-3021395.206451416,-1790652.0366668701,2509236.3357543945,-14363546.371459961,-4523248.672485352,-11498228.073120117,17840011.596679688,1213241.696357727,736566.960811615,81013.46343755722,-12296858.787536621,-13795467.376708984,-14558215.141296387,-11522480.964660645,-11018692.970275879,-11644071.578979492,-233384.6539258957,-617454.2307853699,-371016.86000823975,-14221136.093139648,-12054081.916809082,-12713975.90637207,-12872626.304626465,-588863.9092445374,-84611.37861013412,-12094870.567321777,-14254398.345947266,-13472735.404968262
0.11,89083251.953125,113460548.4008789,92199829.1015625,70562957.76367188,63677337.646484375,5181362.628936768,6271353.721618652,7073864.936828613,32549198.150634766,32438472.747802734,22645225.524902344,23349584.579467773,24737922.66845703,25068910.598754883,4063349.2469787598,16039266.586303711,18854499.81689453,17617465.97290039,21765541.076660156,22217922.21069336,21677871.704101562,23097721.099853516,25958126.068115234,766230.583190918,2793191.67137146,6681114.196777344,3441878.080368042,2236063.7187957764,2021371.603012085,-1284337.1629714966,5050885.200500488,26523448.944091797,793946.2065696716,-1216050.7440567017,-2224853.515625,-1370097.041130066,2530517.339706421,-15274391.174316406,-1717215.895652771,-15392751.693725586,26730194.091796875,-306452.3935317993,-711111.7839813232,-1323941.1115646362,-16572355.270385742,-18255498.8861084,-15299683.570861816,-15280137.062072754,-14900715.827941895,-15696445.46508789,-2086748.6000061035,-2585748.9109039307,-2207234.3826293945,-18662769.317626953,-16525209.426879883,-17044919.967651367,-17232089.99633789,-2690369.129180908,-2028085.708618164,-16598417.282104492,-18912466.049194336,-18088890.075683594
0.115,127341651.9165039,157213256.8359375,131681137.08496094,86629325.86669922,83554740.90576172,7392369.747161865,8502100.944519043,9173156.73828125,37325420.37963867,36491680.14526367,27457853.317260742,28525657.653808594,30013748.168945312,33879299.16381836,5649583.81652832,19926349.639892578,22857692.71850586,19156297.68371582,26128211.975097656,26673347.47314453,26217554.092407227,28491224.28894043,34843711.853027344,2170315.5040740967,5553190.231323242,7509298.324584961,4036756.992340088,2129734.754562378,2015910.6254577637,819411.57579422,9403828.620910645,35289058.685302734,1998137.2356414795,-22654.935717582703,77817.45493412018,-354975.5811691284,2591618.061065674,-14406633.377075195,464399.7550010681,-15804596.900939941,35675315.856933594,895719.4685935974,459575.71268081665,-283239.7222518921,-17116762.161254883,-18856359.481811523,-14168242.454528809,-15538752.555847168,-15268030.166625977,-16188274.383544922,-1059411.5257263184,-1606851.9353866577,-1163827.896118164,-19214632.034301758,-17175798.416137695,-17606002.807617188,-17651630.401611328,-1771647.334098816,-1082023.2629776,-17158060.07385254,-19544017.791748047,-18602077.48413086
0.12,128447952.27050781,159006195.06835938,132081680.29785156,83540191.65039062,81037498.4741211,7254404.067993164,8370748.519897461,8941069.602966309,35119449.615478516,34776721.9543457,25685335.159301758,26846048.35510254,28217876.434326172,34312084.19799805,5569050.312042236,19216312.408447266,21349040.985107422,17878280.639648438,24778656.005859375,25039649.963378906,24722122.192382812,26908597.946166992,35442596.435546875,2307565.450668335,5482969.760894775,7007694.721221924,4047371.3874816895,1935473.7997055054,1877575.159072876,127245.53048610687,8431821.823120117,35739944.45800781,2163789.2723083496,410552.0248413086,-23846.50520980358,-787499.2489814758,2543354.034423828,-13524983.406066895,-73848.14321994781,-15665130.615234375,36112094.87915039,1185984.3730926514,780465.304851532,-181428.9689064026,-16722658.157348633,-18443639.755249023,-13257435.79864502,-15360414.505004883,-15195787.42980957,-15905461.311340332,-640125.7514953613,-1095285.8924865723,-750475.7046699524,-18711832.04650879,-16949077.606201172,-17444116.592407227,-17294595.71838379,-1260934.3528747559,-698518.8722610474,-16652786.254882812,-19169672.0123291,-18160665.51208496
0.125,97402534.48486328,125116424.56054688,101088844.2993164,67192886.35253906,62746772.76611328,3880785.9420776367,4978014.945983887,5598520.755767822,27861274.71923828,29061759.94873047,19957807.540893555,20942548.751831055,22043647.76611328,27923084.259033203,2778191.566467285,13732517.24243164,14914226.531982422,13632457.733154297,19643863.677978516,19674312.591552734,19398174.285888672,20828872.680664062,29091464.99633789,-116815.39565324783,1604685.0681304932,4596752.166748047,2670753.4790039062,1805790.662765503,1820732.1166992188,-1522886.1570358276,5035892.963409424,29395929.33654785,-28578.84019613266,-1598505.4969787598,-3042623.996734619,-2767586.9464874268,2457575.0827789307,-12805840.492248535,-1512206.3159942627,-15452317.237854004,29492082.595825195,-926600.992679596,-1265891.194343567,-2318740.129470825,-16375543.594360352,-18114337.921142578,-12704645.156860352,-15157151.222229004,-15083563.804626465,-15436553.955078125,-2510907.8884124756,-2815910.577774048,-2610946.8936920166,-18259334.564208984,-16641519.546508789,-17214044.57092285,-16994701.385498047,-2962561.3689422607,-2530698.06098938,-16244056.701660156,-18725860.595703125,-17801332.473754883
0.13,57873508.45336914,83917129.51660156,66162422.18017578,49491245.26977539,45420543.6706543,-266179.7106266022,663601.6368865967,1386060.8339309692,20300968.170166016,22715433.12072754,15268941.879272461,16034934.997558594,16974678.03955078,22886980.056762695,-665177.3452758789,7231110.095977783,8548543.930053711,8983106.61315918,15063419.342041016,15212130.546569824,14856715.202331543,15679178.237915039,23967941.284179688,-3231631.5174102783,-2650053.9779663086,1912430.0479888916,835337.8772735596,1917534.8281860352,1919862.151145935,-1569355.0109863281,4692043.304443359,24403327.94189453,-2653941.1544799805,-4257372.856140137,-5281565.189361572,-4114756.5841674805,2451331.13861084,-11569954.872131348,-1398760.0803375244,-13218779.563903809,24331737.518310547,-3477944.1356658936,-3779098.5107421875,-4704960.346221924,-14392347.33581543,-16173425.674438477,-11525790.214538574,-12858771.324157715,-12814233.779907227,-13123032.569885254,-4871430.87387085,-5123284.816741943,-4868364.8109436035,-16219161.987304688,-14385129.928588867,-14908771.514892578,-14751691.818237305,-5208107.471466064,-4808936.595916748,-14266109.466552734,-16366552.352905273,-15597780.227661133
0.135,24587913.513183594,53493499.755859375,42574317.932128906,35397655.48706055,36918560.02807617,-3519091.3677215576,-2875237.464904785,-2193929.672241211,15104575.157165527,17446907.04345703,13630597.114562988,14308099.746704102,15359248.161315918,24680212.020874023,-3343261.480331421,2495833.396911621,6162518.501281738,6465437.889099121,13252862.930297852,13649188.041687012,13182326.316833496,13971991.539001465,25719621.658325195,-5519913.673400879,-4101426.601409912,599450.7670402527,-273415.7145023346,2160022.258758545,1982057.5714111328,353773.41508865356,8743829.727172852,26212093.353271484,-4174291.1338806152,-5767762.184143066,-3211112.2608184814,-2874951.124191284,2483172.89352417,-9752025.604248047,478025.1383781433,-8387545.585632324,26364622.116088867,-4814293.384552002,-5072435.8558654785,-5804345.607757568,-9783563.613891602,-11547954.559326172,-9559690.475463867,-7921580.3146362305,-7823822.021484375,-8476074.21875,-6018778.324127197,-6308276.653289795,-5798670.768737793,-11554150.581359863,-9375824.928283691,-9807349.20501709,-9697123.527526855,-6252846.240997314,-5872903.823852539,-9587727.546691895,-11276866.912841797,-10539760.58959961
0.14,-1490656.9719314575,32331436.157226562,25676990.509033203,23851034.16442871,31919763.565063477,-6164117.336273193,-5682804.107666016,-5224244.594573975,11823166.847229004,13076190.948486328,12940808.296203613,13665076.25579834,14910788.536071777,29571243.286132812,-5628270.149230957,-305511.2361907959,7247602.462768555,6237100.601196289,12711160.659790039,13115134.239196777,12574068.069458008,13578863.143920898,30691976.54724121,-7294161.319732666,-3232449.2931365967,762202.262878418,-444884.12141799927,2262930.8700561523,1833176.2552261353,2148421.5259552,12843163.49029541,31109186.17248535,-5178659.439086914,-6505757.808685303,1730889.6780014038,149083.27162265778,2457026.481628418,-8352599.143981934,2083077.9075622559,-4023375.988006592,31597366.333007812,-5558829.784393311,-5759184.837341309,-6440187.454223633,-5074702.262878418,-6793366.9090271,-8022076.606750488,-3548753.261566162,-3345816.135406494,-4316005.706787109,-6538886.070251465,-6805605.411529541,-6112474.44152832,-6777152.061462402,-4549211.9789123535,-4985165.119171143,-4863817.21496582,-6590816.974639893,-6347908.020019531,-4693978.309631348,-6434984.6839904785,-5545835.018157959
0.145,-18484022.14050293,16141958.236694336,9694570.541381836,15881931.30493164,24472988.12866211,-8060766.220092773,-7451127.052307129,-7223775.386810303,9675594.329833984,9960270.881652832,10946749.687194824,11748850.82244873,12925987.243652344,28640375.1373291,-7435521.125793457,-1441648.6024856567,8670474.0524292,6893465.995788574,11268330.574035645,11442004.203796387,10867300.033569336,11770630.836486816,29880014.419555664,-8745751.38092041,-2648161.6497039795,1461071.7296600342,-34303.71358990669,2168044.8055267334,1595480.7996749878,1580229.1631698608,11738728.523254395,30246425.62866211,-6350578.308105469,-7346341.133117676,4214330.196380615,1994807.243347168,2408891.6778564453,-8219705.581665039,1467676.043510437,-3753729.5818328857,30701623.916625977,-6585736.274719238,-6786817.55065918,-7574996.9482421875,-3994351.863861084,-5745588.302612305,-7913067.34085083,-3374342.441558838,-3074897.050857544,-4033883.0947875977,-7415669.918060303,-7573275.089263916,-6993221.282958984,-5660268.783569336,-3745973.587036133,-4239170.551300049,-4186497.688293457,-7286270.618438721,-7274820.804595947,-3457244.873046875,-5671013.832092285,-4644265.651702881
0.15,-22021827.697753906,7560922.622680664,-1122974.7533798218,13889096.2600708,17150945.66345215,-8230088.233947754,-7359334.945678711,-7191736.221313477,8741024.017333984,9101566.314697266,8343991.279602051,9134150.505065918,9954160.690307617,19509275.436401367,-7696701.0498046875,-963891.0293579102,8318528.175354004,7288444.995880127,9099835.395812988,9116104.125976562,8554027.557373047,8953215.599060059,20798524.856567383,-9050695.419311523,-3474913.5971069336,1846465.9452438354,577970.5047607422,2050901.6513824463,1530391.3354873657,-825109.2433929443,5792023.658752441,21245771.408081055,-6971531.391143799,-7864806.175231934,1766392.8270339966,1026442.8853988647,2414453.7448883057,-8354316.711425781,-727545.2613830566,-6571471.691131592,21338861.4654541,-7270586.4906311035,-7528610.706329346,-8394859.313964844,-6253055.095672607,-8069441.795349121,-8101558.685302734,-6225425.720214844,-5893886.566162109,-6703104.9728393555,-8088586.807250977,-8211922.645568848,-7917311.191558838,-7895715.713500977,-6302261.829376221,-6761935.234069824,-6915978.908538818,-7930874.824523926,-8079453.468322754,-5678542.137145996,-8189822.196960449,-7269870.281219482
0.155,-17612508.77380371,7019231.796264648,-2892347.3358154297,15195207.595825195,15163968.086242676,-6835817.813873291,-5886744.022369385,-5626830.577850342,8464907.6461792,9553221.702575684,7002669.811248779,7646696.090698242,8207282.066345215,11185748.100280762,-6271574.974060059,129325.70278644562,6674626.82723999,6921976.089477539,7664620.399475098,7753086.090087891,7274849.414825439,7242364.406585693,12422517.776489258,-7800575.256347656,-4128737.9264831543,1859906.3158035278,858682.3344230652,1991432.0707321167,1659709.8112106323,-1683233.4995269775,1750781.2976837158,12953288.078308105,-6044260.9786987305,-7011697.292327881,-1394186.8543624878,-888422.7871894836,2394688.844680786,-6227456.569671631,-1389446.1393356323,-6832547.664642334,12894577.980041504,-6450294.971466064,-6691603.660583496,-7477508.544921875,-6759960.174560547,-8479225.158691406,-5900753.498077393,-6373284.816741943,-6066439.628601074,-6905008.316040039,-7298573.4939575195,-7518495.082855225,-7381064.414978027,-8316774.368286133,-6711267.471313477,-7042674.541473389,-7338068.48526001,-7200771.331787109,-7331315.994262695,-6158425.807952881,-8415928.840637207,-7792403.221130371
0.16,-17752738.95263672,7305954.933166504,-1318725.1091003418,14324515.342712402,17084348.678588867,-5043771.743774414,-4293281.078338623,-3956656.6944122314,7574854.373931885,8600866.317749023,6730919.361114502,7165622.711181641,7856822.490692139,12681332.5881958,-4166189.670562744,734219.3126678467,5523251.533508301,5755978.584289551,6953045.36819458,7172196.865081787,6813945.770263672,6832369.804382324,13795703.887939453,-5551149.845123291,-2566371.6793060303,2289107.084274292,447720.82567214966,1862576.8423080444,1720577.7168273926,1093567.0137405396,4772392.272949219,14237234.115600586,-3533349.5140075684,-4511157.035827637,194397.16637134552,-736528.3370018005,2205129.861831665,-1069972.3958969116,1285080.7905197144,-1249131.7987442017,14509261.131286621,-3880712.5091552734,-4001385.6887817383,-4651712.417602539,-1964844.3460464478,-3394181.728363037,-631427.8244972229,-673319.6377754211,-362374.78256225586,-1366449.8329162598,-4733342.170715332,-4984672.069549561,-4794699.668884277,-3408987.9989624023,-1506184.8163604736,-1740509.1524124146,-1894840.3596878052,-4557523.250579834,-4564671.993255615,-1254367.709159851,-3022113.32321167,-2595789.4325256348
0.165,-23750051.498413086,3763664.960861206,-3432551.383972168,11469613.075256348,16836229.32434082,-3117889.404296875,-2645753.3836364746,-2335165.7390594482,6074153.900146484,5709759.712219238,5732754.230499268,6005483.150482178,7005994.79675293,19726095.19958496,-1943757.41481781,1266284.465789795,5436493.873596191,4331866.264343262,5671708.583831787,5849593.162536621,5553654.670715332,5916377.067565918,20724767.684936523,-2937851.667404175,616437.2563362122,3617943.76373291,-244960.42728424072,1612890.8395767212,1538870.8114624023,4859622.955322266,10945760.726928711,20972557.067871094,-333330.27362823486,-1274796.3666915894,5260948.657989502,1519366.979598999,1901234.0307235718,3866972.4464416504,4778285.026550293,5921351.909637451,21666097.64099121,-516020.2980041504,-605708.9567184448,-1237375.259399414,4683446.884155273,3471253.6334991455,4257335.186004639,6463850.498199463,6847830.772399902,5826057.434082031,-1413747.787475586,-1494321.1078643799,-1221378.3264160156,3217427.2537231445,5386816.501617432,5162534.236907959,5314281.463623047,-1025785.9230041504,-945821.8812942505,5448271.27456665,3880231.1420440674,4364916.801452637
0.17,-24243309.020996094,1264552.4740219116,-7215832.233428955,11753839.492797852,12950814.247131348,-783779.9191474915,-488369.73309516907,-213526.80027484894,5457241.058349609,3889089.584350586,3847667.455673218,4039325.714111328,5136403.560638428,20623489.379882812,282143.5034275055,2426981.4491271973,4977150.917053223,3393973.3505249023,3896929.2640686035,3853731.393814087,3551138.162612915,4029472.827911377,21597360.610961914,-557078.6595344543,2321763.515472412,4706624.984741211,-564751.4462471008,1429167.2706604004,1289561.39087677,5461803.436279297,12076910.018920898,21802093.505859375,2189005.136489868,1141442.7757263184,7342112.5411987305,2872406.244277954,1724895.95413208,4639729.976654053,5270517.826080322,8094037.055969238,22493318.557739258,2041879.1770935059,1747524.619102478,1039934.6351623535,6974762.916564941,5691903.591156006,4833073.139190674,8537770.27130127,8946693.420410156,8131031.036376953,1061362.0281219482,1151994.9436187744,1424017.7869796753,5332141.399383545,7584475.994110107,7338502.883911133,7610134.601593018,1493842.7209854126,1580847.6209640503,7580333.709716797,5910955.905914307,6557617.664337158
0.175,-15825225.830078125,4602369.785308838,-6585352.897644043,15658554.077148438,10482119.5602417,811333.1198692322,1006816.2679672241,1345841.884613037,6285582.542419434,5414097.309112549,3164380.3119659424,3334093.3322906494,4321234.226226807,14103226.661682129,1492122.769355774,3106135.845184326,2972049.4747161865,3043278.455734253,3506622.791290283,3260719.5377349854,2983197.6890563965,3197691.6790008545,15150098.80065918,475853.0855178833,764336.5263938904,3816019.7734832764,-648070.0373649597,1485141.0388946533,1262846.3506698608,3325236.5589141846,7374980.449676514,15551515.579223633,2784666.5382385254,1583567.1424865723,4391656.875610352,1643566.7276382446,1802047.3718643188,1953086.9722366333,3205388.307571411,5538314.8193359375,15866251.945495605,2518692.2550201416,1967251.0623931885,1252434.8497390747,4666736.602783203,3185579.299926758,2015096.4260101318,6008196.830749512,6262087.345123291,5674421.787261963,1598148.7035751343,1577987.0748519897,1865116.000175476,2925900.2208709717,5262881.755828857,5005887.985229492,5071541.786193848,1752882.2422027588,1828963.1605148315,5037969.11239624,3385957.2410583496,4096858.9782714844
0.18,-11748401.641845703,8308443.069458008,-2660069.227218628,16821670.532226562,13036328.315734863,-240383.7889432907,-129680.67824840546,317037.6121997833,7105028.6293029785,8261342.0486450195,4844108.581542969,5072811.603546143,6081222.5341796875,11440834.045410156,299334.0194225311,1717739.7012710571,834039.4496917725,2803459.405899048,5339615.821838379,5096929.07333374,4906071.662902832,4865539.55078125,12577906.608581543,-791730.2250862122,-2023545.265197754,1284926.7721176147,-1115636.8255615234,1684860.2294921875,1471057.7726364136,2905443.6683654785,4581051.826477051,13180194.854736328,1236712.93258667,164115.83125591278,1937107.5630187988,-82366.943359375,2011163.2347106934,428753.88264656067,2758777.856826782,4646059.036254883,13239125.25177002,937304.5563697815,405567.88444519043,-246786.35597229004,3529810.4286193848,2037103.1761169434,528975.6059646606,5243245.601654053,5273354.530334473,4772589.206695557,305113.2261753082,-32880.47760725021,366384.3870162964,1936204.3142318726,4544395.923614502,4298116.207122803,4064903.2592773438,135479.6439409256,228060.94586849213,3894849.3003845215,2514148.712158203,3223263.97895813
0.185,-22640472.412109375,3743668.794631958,-2590597.629547119,11485320.091247559,17404890.060424805,-3719215.6314849854,-3620423.7937927246,-3163822.1740722656,6601767.063140869,9105974.197387695,7182979.106903076,7572570.323944092,8814558.982849121,18602245.330810547,-2882450.819015503,-903356.1944961548,1025728.9409637451,2598718.1663513184,7633371.353149414,7576791.763305664,7411847.5914001465,7474288.9404296875,19794628.143310547,-3743968.0099487305,-2861612.558364868,-347688.0192756653,-1868097.9013442993,1806579.9474716187,1651360.1541519165,5680463.790893555,8082910.537719727,20330675.12512207,-1316622.8532791138,-1975350.1415252686,4538593.292236328,328288.4657382965,2174794.6739196777,2036523.1037139893,5358509.540557861,7827012.062072754,20508249.282836914,-1446388.0062103271,-1647091.031074524,-2372389.793395996,6204697.608947754,4917918.2052612305,2183298.349380493,8433570.861816406,8450636.863708496,7932865.619659424,-1801458.5971832275,-2299788.9518737793,-1817908.4062576294,4818538.188934326,7694565.296173096,7528393.745422363,7183610.439300537,-1987854.4807434082,-1867745.1610565186,6821883.678436279,5596075.057983398,6382380.00869751
0.19,-39342548.37036133,-6971155.166625977,-8080446.243286133,4655650.615692139,18706624.98474121,-7026896.953582764,-6833639.144897461,-6459018.230438232,5558998.107910156,8332340.240478516,8119722.366333008,8682106.971740723,10050500.869750977,26623262.405395508,-5841875.076293945,-2275617.1226501465,3369850.3971099854,2881789.445877075,8527093.887329102,8580236.434936523,8334325.790405273,8706979.751586914,27877988.815307617,-6568037.033081055,-1742883.4438323975,266680.8068752289,-2176931.858062744,1806415.2002334595,1642289.8769378662,7657885.0746154785,12338975.90637207,28140312.19482422,-3523648.977279663,-3927390.5754089355,8661430.358886719,2070883.03565979,2246613.025665283,3268234.2529296875,7329182.6248168945,9504958.152770996,28547569.274902344,-3490782.0224761963,-3382973.1941223145,-4387337.207794189,7869500.637054443,6758903.980255127,3272470.474243164,9933334.350585938,10191777.229309082,9638035.774230957,-3901186.70463562,-4242689.609527588,-3842362.16545105,6463180.5419921875,9227091.789245605,9217977.523803711,8958343.505859375,-3837399.959564209,-3673032.04536438,8690032.005310059,7213809.490203857,8130174.63684082
0.195,-44317962.646484375,-12034333.229064941,-11781696.319580078,3650115.2515411377,17751157.760620117,-7987285.614013672,-7724349.021911621,-7353094.100952148,5719120.025634766,9185591.697692871,8289769.172668457,8910058.02154541,10114797.592163086,25875850.677490234,-6820778.369903564,-1435835.838317871,5034986.972808838,3688337.564468384,8797991.752624512,8636619.567871094,8400969.505310059,8939022.064208984,27230346.6796875,-7839657.783508301,-1223379.6119689941,1482437.8490447998,-1942420.1250076294,1813964.84375,1572174.9067306519,5776967.0486450195,11127115.249633789,27335517.88330078,-4742429.256439209,-5355499.267578125,8222716.331481934,2269887.4473571777,2254110.57472229,665495.5148696899,5772521.018981934,4970112.8005981445,27737554.5501709,-4782917.022705078,-4666233.062744141,-5906678.676605225,3889257.4310302734,2783433.675765991,415979.89201545715,5239290.714263916,5678842.544555664,5084918.975830078,-5566771.030426025,-5668899.059295654,-5399725.914001465,2286874.532699585,4564491.748809814,4632564.067840576,4481926.441192627,-5316763.401031494,-5041760.9214782715,4644268.51272583,2781719.923019409,3709885.835647583
0.2,-33725330.3527832,-5033697.128295898,-7144826.412200928,9362640.380859375,19326515.197753906,-6394755.840301514,-6189071.6552734375,-5668892.383575439,7596737.384796143,12566581.726074219,9703299.522399902,10309370.040893555,11332520.484924316,20967149.73449707,-5564546.10824585,800701.2605667114,4751250.267028809,4444097.995758057,10357737.54119873,9754480.361938477,9790545.463562012,10317302.703857422,22379743.576049805,-6995057.582855225,-1857639.7895812988,1551445.9609985352,-1806556.3440322876,1865330.5768966675,1597136.8551254272,2977367.639541626,7511548.99597168,22606386.184692383,-4466541.290283203,-5523946.762084961,4031904.697418213,460457.56340026855,2179022.0737457275,-3660919.189453125,3299287.3191833496,-1631600.9759902954,22801570.892333984,-4745194.911956787,-4792045.593261719,-5984120.845794678,-2368100.643157959,-3539493.7992095947,-3973390.817642212,-1322778.9402008057,-1006785.8695983887,-1636623.8594055176,-5872231.960296631,-5930009.841918945,-5614762.306213379,-4033108.2344055176,-2135679.006576538,-2247250.0801086426,-2358928.680419922,-5650586.6050720215,-5222131.729125977,-1815328.598022461,-3753005.266189575,-2956616.6400909424
0.205,-19345314.025878906,6838698.863983154,2342546.4630126953,16741792.678833008,24131225.5859375,-3233157.6347351074,-3077647.4475860596,-2421235.3229522705,10147292.137145996,15567755.699157715,12003752.708435059,12697163.581848145,13798563.003540039,21930641.174316406,-2736686.2297058105,3929135.56098938,4690070.629119873,4913114.547729492,12679428.100585938,11838551.52130127,12189883.2321167,12749932.289123535,23274608.612060547,-4223236.560821533,-1302863.1210327148,1545608.8781356812,-1892754.5547485352,1816725.6116867065,1612990.4985427856,3481245.756149292,8163134.574890137,23687454.223632812,-2281613.1114959717,-3624010.8013153076,2256887.435913086,-847319.6625709534,1990454.4353485107,-5106204.509735107,3749017.2386169434,-3131019.353866577,23773406.982421875,-2743778.705596924,-2799957.275390625,-3781848.192214966,-4149353.504180908,-5337312.2215271,-5161806.583404541,-2684158.5636138916,-2618130.4454803467,-3245009.183883667,-3904182.9109191895,-4093507.766723633,-3581251.859664917,-5661529.541015625,-3712109.8041534424,-4174234.390258789,-4278772.830963135,-3782882.9288482666,-3306883.5735321045,-3711593.1510925293,-5432276.248931885,-4721117.4964904785
0.21,-12327975.273132324,12222140.312194824,7528180.5992126465,21260053.634643555,27117933.27331543,-211067.90006160736,74007.62289762497,680332.6606750488,11961644.172668457,15648801.803588867,12459316.25366211,13339778.900146484,14592306.137084961,27181570.053100586,115382.73841142654,7528409.004211426,6742004.39453125,5427400.588989258,13011220.932006836,12432594.299316406,12735671.043395996,13415657.043457031,28380475.997924805,-1163594.8419570923,1248001.5754699707,3271198.272705078,-1592638.611793518,1568434.3576431274,1411199.927330017,6035040.855407715,11979526.51977539,28750974.655151367,571859.0617179871,-824227.4522781372,4784481.048583984,-178919.89648342133,1741707.682609558,-3331619.7395324707,5989400.386810303,78329.80901002884,28959833.1451416,37748.67206811905,189483.79158973694,-721987.1878623962,-1282224.8935699463,-2427663.803100586,-3092882.3947906494,556169.6887016296,561415.2550697327,-42063.27721476555,-907192.7070617676,-1201302.7667999268,-635088.9205932617,-2663198.709487915,-485834.41972732544,-1182568.7885284424,-1256547.8086471558,-833345.5324172974,-510457.5753211975,-866158.664226532,-2466885.566711426,-1662984.2519760132
0.215,-12715621.948242188,9588108.06274414,5571373.93951416,22372554.779052734,25232931.13708496,515483.8562011719,1005479.4549942017,1472146.0342407227,12346468.925476074,13916906.356811523,10127698.89831543,11034045.219421387,12169051.170349121,26604969.024658203,785812.258720398,9725214.004516602,9246825.218200684,6003281.116485596,10503528.594970703,10466104.507446289,10340026.85546875,11052117.347717285,27709449.768066406,-504158.079624176,2962669.3725585938,5763308.525085449,-820668.0417060852,1255474.2097854614,1040521.7409133911,6100185.871124268,12023954.391479492,27833400.72631836,1263703.9422988892,-107367.06852912903,6958827.495574951,874170.5417633057,1548467.0400619507,-2307885.4084014893,5931080.341339111,1184562.4446868896,28236503.60107422,694082.3197364807,988639.1162872314,-25332.096964120865,-33304.10644412041,-1074579.0004730225,-2129643.440246582,1570979.7143936157,1695063.591003418,1064041.7337417603,-75571.14213705063,-358902.4841785431,-29997.15879559517,-1427249.3124008179,740411.639213562,37060.6854557991,23880.871012806892,-53078.81161570549,66656.72361850739,353714.7045135498,-1349283.218383789,-395193.6364173889
0.22,-14087076.187133789,7395185.947418213,2967816.8296813965,22223775.86364746,22476415.634155273,-1565747.7378845215,-1036939.8593902588,-559150.5169868469,11762043.952941895,13105502.128601074,7781463.146209717,8400624.27520752,9238835.334777832,18949802.39868164,-1301891.565322876,9009712.219238281,9680446.62475586,6209997.177124023,7981119.632720947,8266521.453857422,7796654.224395752,8418203.353881836,20052305.221557617,-2957332.6110839844,1669850.23021698,6593408.584594727,-328310.0128173828,1127552.6285171509,813077.449798584,3124684.8106384277,7095375.061035156,20016603.469848633,-1178530.216217041,-2485692.9779052734,5466456.890106201,527694.3445205688,1492740.511894226,-4258291.244506836,3156431.4365386963,-2533342.8382873535,20502443.313598633,-1750251.4123916626,-1593546.986579895,-2650171.5183258057,-3532241.106033325,-4418632.984161377,-4475082.874298096,-2232269.287109375,-2043623.2089996338,-2750420.331954956,-2602869.987487793,-2841953.0391693115,-2788263.7977600098,-4895620.346069336,-2919196.844100952,-3577733.5166931152,-3540256.2618255615,-2695028.54347229,-2565819.263458252,-3143781.4235687256,-4885815.143585205,-3926262.617111206
0.225,-12543871.879577637,11124061.584472656,5613296.031951904,22939805.98449707,23962511.06262207,-3774531.126022339,-3343009.2334747314,-2718335.8669281006,11484173.774719238,13967129.707336426,8295558.929443359,8572141.647338867,9335028.648376465,14115686.416625977,-3503320.9323883057,7350775.718688965,8801769.256591797,6178549.766540527,8345228.19519043,8549745.559692383,8161628.723144531,8739436.149597168,15247598.648071289,-5526885.509490967,-368011.5342140198,5881847.381591797,-374876.55878067017,1262867.3315048218,915300.8460998535,1012244.2245483398,3440726.5186309814,15302340.507507324,-3804803.8482666016,-4982707.0236206055,3029813.289642334,-456298.73871803284,1580396.8906402588,-7171437.2634887695,1230546.5936660767,-6451498.508453369,15782102.584838867,-4323401.45111084,-4410653.591156006,-5369858.264923096,-7775967.597961426,-8612802.505493164,-7659088.611602783,-6208766.460418701,-6038198.947906494,-6763846.874237061,-5469539.165496826,-5720913.887023926,-5624863.147735596,-8947930.335998535,-6976566.791534424,-7671755.790710449,-7669615.268707275,-5668885.707855225,-5286157.131195068,-7270850.18157959,-8827974.319458008,-8022856.712341309
0.23,-9552358.627319336,15794533.729553223,10487464.904785156,24674316.40625,28105272.29309082,-3082873.821258545,-2617421.1502075195,-2050437.4504089355,12352743.148803711,15155138.969421387,10769650.45928955,11026530.265808105,12006188.39263916,17270338.05847168,-2856012.8211975098,8276243.209838867,9265457.153320312,6671003.818511963,10776858.32977295,10779953.956604004,10668603.897094727,11304432.86895752,18405290.603637695,-4943135.2615356445,285387.7544403076,6014982.223510742,-240829.76579666138,1485126.8529891968,1188914.179801941,1758087.5158309937,4587023.735046387,18655939.10217285,-3310496.8070983887,-4414211.273193359,3143868.4463500977,-415061.71226501465,1763684.5111846924,-8702578.5446167,1849223.4945297241,-6448829.650878906,19164470.672607422,-3821073.055267334,-3931947.946548462,-4848567.008972168,-8331136.703491211,-9390489.57824707,-9024109.840393066,-6322982.311248779,-6089292.526245117,-6721066.951751709,-5198773.8609313965,-5518190.860748291,-5074280.738830566,-9369349.479675293,-7187804.698944092,-7869201.66015625,-8024399.757385254,-5432543.2777404785,-4821744.441986084,-7692413.806915283,-9098110.19897461,-8437955.856323242
0.235,-7638402.462005615,15004866.600036621,11448517.799377441,25970872.87902832,29294498.443603516,-47083.73919129372,628393.9480781555,698692.0833587646,13818065.643310547,15685509.68170166,12058294.296264648,12594765.663146973,13699809.074401855,21201303.482055664,50448.14199209213,11867156.982421875,11217777.252197266,7799478.530883789,12174244.88067627,12167953.491210938,12081699.37133789,12731618.881225586,22290863.037109375,-1863865.0178909302,3241011.381149292,7669320.106506348,498618.2153224945,1584942.102432251,1365739.8223876953,2930889.129638672,6523040.294647217,22626440.048217773,-372225.3739833832,-1595282.9122543335,4658624.649047852,455418.82514953613,1968816.7572021484,-9262346.267700195,2725896.8353271484,-4436692.237854004,23211557.388305664,-1015573.6207962036,-918271.8992233276,-1961061.2392425537,-6292697.906494141,-7684796.8101501465,-9226162.910461426,-4441184.043884277,-4089561.4624023438,-4612170.219421387,-2337703.9432525635,-2726719.856262207,-2008348.4649658203,-7448383.331298828,-5219288.8259887695,-5693212.985992432,-6017694.473266602,-2594000.3395080566,-2008034.7061157227,-5673236.37008667,-7204154.491424561,-6551753.044128418
0.24,-5647929.668426514,12116871.83380127,9467715.2633667,26384410.858154297,26501096.725463867,2457108.974456787,3219385.1470947266,2611525.535583496,14710257.530212402,15818442.344665527,11033673.286437988,11722680.09185791,12617649.07836914,17996856.689453125,2410921.096801758,14821770.668029785,12408108.711242676,8709218.978881836,11291482.925415039,11415631.294250488,11052256.58416748,11609854.698181152,18965244.29321289,674812.0784759521,5608776.092529297,9177238.464355469,1327281.5942764282,1562563.180923462,1379576.563835144,2130144.3576812744,4933004.856109619,19260431.28967285,2013217.6876068115,582028.4485816956,4882440.567016602,935639.9178504944,2122859.7164154053,-9953821.182250977,1815961.5993499756,-3886562.8242492676,19871265.411376953,1221435.4276657104,1433203.101158142,279674.1724014282,-5069399.356842041,-6486317.157745361,-9805964.469909668,-3844437.599182129,-3539632.558822632,-4067190.647125244,149868.38400363922,-258559.34619903564,382020.38407325745,-6385986.804962158,-4473414.421081543,-4668277.263641357,-4999137.878417969,-189883.32152366638,217467.18883514404,-4570310.115814209,-6323654.1748046875,-5578318.119049072
0.245,-1798542.6187515259,13937287.330627441,9488883.972167969,26730649.948120117,23614044.189453125,3366988.6589050293,3908650.6366729736,2979082.8227996826,14462522.506713867,15532512.664794922,9154625.89263916,9603539.46685791,10212985.038757324,10283616.065979004,3267855.8826446533,15313410.758972168,12144149.780273438,8800905.227661133,9454378.128051758,9590665.817260742,8986783.981323242,9452547.073364258,11059670.448303223,1616137.5045776367,6599358.081817627,9799939.155578613,1760094.8810577393,1562847.2566604614,1319712.0428085327,309330.9998512268,1438589.4536972046,11341270.446777344,2923792.1237945557,1439690.5899047852,4641510.009765625,1209591.5079116821,2164660.930633545,-10121799.46899414,173906.44550323486,-4425407.886505127,11879425.048828125,2195825.8152008057,2216457.6053619385,1167981.2669754028,-4963424.205780029,-5981702.3277282715,-10125750.541687012,-4125688.5528564453,-4028668.8804626465,-4654599.666595459,1237849.235534668,884600.1625061035,1228959.9180221558,-6179311.275482178,-4709343.910217285,-4776465.892791748,-4950693.607330322,808673.620223999,1138781.6667556763,-4473800.182342529,-6262899.875640869,-5427184.104919434
0.25,-584846.1985588074,16214256.286621094,9248641.014099121,25804973.602294922,21768024.444580078,3437680.959701538,3691404.104232788,3028889.1792297363,13042901.039123535,13837766.647338867,7474730.014801025,7546602.725982666,8154602.05078125,5751671.79107666,3404500.4844665527,14526087.760925293,12042573.928833008,8341295.24230957,7790571.212768555,7766297.340393066,7173468.589782715,7561648.368835449,6369272.708892822,1789064.884185791,7363918.304443359,10582213.401794434,1908896.4462280273,1595968.48487854,1208336.9493484497,-644293.9043045044,-309728.20520401,6761249.542236328,3221768.856048584,1891993.761062622,6203436.374664307,2253878.355026245,2039823.7705230713,-8931294.441223145,-538219.2730903625,-4148282.051086426,7188594.341278076,2757878.7803649902,2466852.6649475098,1657016.396522522,-4376528.739929199,-4998363.971710205,-9002984.046936035,-3644704.1034698486,-3628852.605819702,-4300187.110900879,1617460.3700637817,1362272.024154663,1525963.306427002,-5343657.970428467,-4183082.5805664062,-4290603.6376953125,-4352969.646453857,1203559.0410232544,1616766.095161438,-3787950.7541656494,-5521786.212921143,-4630259.990692139
0.255,-8324804.306030273,9074915.885925293,2742147.207260132,21057767.868041992,18519195.556640625,2280537.6052856445,2502626.1806488037,2383108.615875244,10861827.850341797,10850747.108459473,5915401.458740234,5919541.835784912,6774357.795715332,6707731.246948242,2360358.238220215,13532873.153686523,12932310.104370117,7735864.162445068,6341289.043426514,6210021.495819092,5752224.922180176,5972457.408905029,7328234.1957092285,779301.8817901611,7570157.527923584,11508918.762207031,1670676.9466400146,1489527.4639129639,1011027.5745391846,-568670.2132225037,81772.20821380615,7885824.680328369,2296255.111694336,1159165.5015945435,8370740.89050293,3371572.256088257,1734032.2732925415,-7626750.946044922,-385493.3977127075,-4020371.437072754,8246394.157409668,2023235.79788208,1613370.1801300049,972123.8017082214,-4017479.419708252,-4677590.847015381,-7561758.995056152,-3615590.3339385986,-3448525.1903533936,-4053823.471069336,632369.4586753845,421177.7448654175,657056.2124252319,-4977765.083312988,-4008320.3315734863,-4196456.9091796875,-4307972.431182861,341463.44661712646,839408.1592559814,-3480685.234069824,-5346929.07333374,-4406716.346740723
0.26,-16723596.572875977,504719.7937965393,-2041176.5575408936,16299726.486206055,16970479.96520996,-620081.9611549377,-204815.49203395844,24229.371920228004,10029280.662536621,9731275.55847168,5817151.5464782715,6146176.815032959,7205492.4964904785,10551399.230957031,-539966.4044380188,12518772.12524414,14085645.67565918,7345167.16003418,6244915.962219238,6256069.183349609,5884463.310241699,6006448.745727539,11333309.173583984,-2158978.223800659,6104780.197143555,10982244.491577148,569897.7708816528,1204874.1579055786,816319.4060325623,192057.3115348816,1563362.4792099,11943521.499633789,-855261.8622779846,-1885825.0379562378,8010672.569274902,2726944.923400879,1361894.6075439453,-8209057.807922363,307855.87430000305,-6334939.479827881,12323909.759521484,-1197644.591331482,-1491708.3978652954,-2058607.3398590088,-6203278.541564941,-7213872.909545898,-8068645.477294922,-6207397.937774658,-5915676.116943359,-6484232.9025268555,-2623802.661895752,-2930266.1418914795,-2514034.9864959717,-7473292.827606201,-6605487.34664917,-6896183.013916016,-7058165.073394775,-2812455.177307129,-2321832.1800231934,-5961761.474609375,-8096574.783325195,-7121005.058288574
0.265,-1760076.642036438,18000728.607177734,17217868.80493164,23440618.51501465,27803697.58605957,-2592900.7530212402,-2014292.0017242432,-1735710.859298706,14165731.430053711,14507891.654968262,10122044.563293457,10831068.03894043,11966251.373291016,16269586.563110352,-2818258.285522461,13288695.335388184,15865691.184997559,8143271.446228027,10036612.510681152,10345026.969909668,10046037.673950195,10604205.131530762,17242038.72680664,-4721217.632293701,4689868.927001953,9120036.125183105,-1006192.8033828735,1026627.6597976685,802467.3461914062,2094521.7609405518,4805614.948272705,17670850.75378418,-3976287.603378296,-4970387.935638428,5679986.476898193,549904.8233032227,1154775.3810882568,-10691677.09350586,2157364.1300201416,-10612007.141113281,18165740.966796875,-4542522.90725708,-4698547.36328125,-5192846.298217773,-10838394.165039062,-12069851.875305176,-10691751.480102539,-10591597.557067871,-10387027.740478516,-11112455.368041992,-5883200.645446777,-6383718.967437744,-5877480.983734131,-12400441.16973877,-11414226.531982422,-11899061.20300293,-11922213.554382324,-6115235.805511475,-5644717.216491699,-10848090.171813965,-13100617.408752441,-12150670.051574707
0.27,48339431.76269531,73373703.00292969,68064727.78320312,48809646.60644531,54867202.75878906,69573.0447769165,732497.8709220886,1052405.2381515503,24243280.4107666,24979400.634765625,18873176.57470703,19702669.143676758,20922332.763671875,23351339.34020996,-813990.3545379639,18286327.362060547,19812278.747558594,11065786.361694336,17808641.43371582,18272056.579589844,18124822.61657715,19732471.466064453,24438352.584838867,-3334040.880203247,6502997.398376465,8609282.493591309,-1584327.6977539062,1211382.7466964722,976250.0524520874,4439585.6857299805,9256483.07800293,24520477.294921875,-3302705.2879333496,-4329212.665557861,5182208.53805542,-573358.0589294434,1232271.3136672974,-13476266.860961914,4501002.788543701,-14592695.236206055,25162717.819213867,-4044709.6824645996,-4199261.665344238,-4653669.834136963,-15439698.219299316,-16640607.833862305,-13587583.541870117,-14415267.944335938,-14323391.914367676,-15316766.738891602,-5540825.366973877,-6172399.044036865,-5727733.612060547,-17045339.584350586,-15797792.434692383,-16507728.576660156,-16282983.779907227,-5962870.5978393555,-5468244.0757751465,-15385586.738586426,-17636001.586914062,-16774137.496948242
0.275,108343528.7475586,135884185.79101562,122229667.66357422,79515495.30029297,83213424.68261719,6143304.824829102,6986024.856567383,7563468.456268311,34961391.44897461,34917926.78833008,26617929.458618164,27346416.473388672,28667776.107788086,27235507.96508789,4543422.698974609,25805885.314941406,24966627.12097168,15002532.958984375,24848501.205444336,25130443.572998047,25152379.989624023,27677316.665649414,28352396.01135254,1298215.8660888672,10853958.129882812,10626582.145690918,-572654.6049118042,1549957.275390625,1110441.6847229004,4663854.122161865,10671951.293945312,28194347.381591797,741377.3536682129,-442792.71364212036,7413542.2706604,621760.0107192993,1419860.83984375,-15520841.598510742,4649296.760559082,-17670064.92614746,28857162.475585938,-79318.13597679138,-351031.18419647217,-893304.1095733643,-18505229.949951172,-19700222.01538086,-15497475.624084473,-17360776.901245117,-17196855.545043945,-18271825.790405273,-2069891.9296264648,-2643168.2109832764,-2343461.751937866,-20046609.87854004,-18829845.428466797,-19637601.852416992,-19291946.411132812,-2696327.6863098145,-2212556.6005706787,-18236413.955688477,-20690710.067749023,-19904388.427734375
0.28,135876998.9013672,158821151.73339844,139443222.04589844,92934799.19433594,90747985.83984375,10328844.07043457,11465278.625488281,12337588.3102417,38491920.471191406,37153110.50415039,27152482.986450195,27787672.04284668,29030992.50793457,22643770.217895508,8440676.68914795,30461540.22216797,27319828.033447266,16991731.643676758,25638322.830200195,25497655.868530273,25577507.01904297,28024938.583374023,23734172.821044922,4787456.98928833,13505896.56829834,12721837.997436523,660958.5881233215,1572999.358177185,1021844.8638916016,1856866.478919983,6190835.475921631,23676107.40661621,3977555.990219116,2550762.176513672,8807923.316955566,2109089.8513793945,1431048.3932495117,-16691953.659057617,1628572.2255706787,-20183462.142944336,24120513.916015625,3096691.370010376,2666307.4493408203,1999446.7496871948,-20157608.032226562,-21518035.888671875,-16504203.796386719,-20021055.221557617,-19735115.05126953,-20558771.13342285,639925.2414703369,255965.02423286438,434610.0389957428,-21695623.39782715,-21004074.096679688,-21765647.888183594,-21486402.51159668,-52517.75681972504,333474.9937057495,-19885065.07873535,-22713809.967041016,-21945514.678955078
0.285,116737152.09960938,130906021.11816406,111522171.02050781,81349685.66894531,72817352.29492188,10688348.770141602,11971169.471740723,12832586.288452148,32838047.02758789,30743305.206298828,20651193.618774414,21280405.044555664,22201707.83996582,12143995.28503418,9158581.733703613,30037645.33996582,24833740.234375,15423607.82623291,20103649.139404297,19589435.577392578,19623380.661010742,21107702.255249023,13175189.971923828,5610439.300537109,13135429.382324219,12530145.645141602,549036.3836288452,1210406.78024292,809311.8667602539,-686808.6457252502,206679.70180511475,13459936.141967773,4952770.233154297,3366791.4867401123,7191962.718963623,1567707.5386047363,1244720.3397750854,-16613784.790039062,-1101894.0210342407,-20536830.90209961,13590564.727783203,4000422.477722168,3438448.905944824,2820804.8343658447,-19848041.534423828,-21299877.166748047,-16550985.336303711,-20654512.405395508,-20421411.514282227,-20885349.27368164,1511097.3119735718,1265976.7866134644,1418817.0433044434,-21345256.805419922,-21162942.88635254,-21868618.01147461,-21691726.684570312,927623.6295700073,1223649.263381958,-19789886.474609375,-22632762.908935547,-21876630.783081055
0.29,76410026.55029297,85003654.47998047,69299133.30078125,59278427.12402344,47885593.41430664,10345293.045043945,11430895.805358887,11974822.044372559,24021642.684936523,21845880.50842285,13655674.934387207,14246797.561645508,14858993.530273438,5569252.490997314,9542836.18927002,27902202.606201172,20491773.60534668,11910756.11114502,13820470.809936523,13183359.146118164,13198179.244995117,13849282.264709473,6547181.129455566,6390621.185302734,13112517.356872559,11095475.196838379,-751505.434513092,934707.8800201416,733962.9530906677,760750.0553131104,146594.40517425537,7057973.861694336,6210467.81539917,4653451.442718506,5414340.496063232,-225141.80839061737,1143229.365348816,-14963918.685913086,393094.42043304443,-16982803.344726562,7091904.640197754,5240466.117858887,4674879.07409668,4255420.207977295,-16686046.600341797,-17908456.802368164,-15207767.486572266,-17171957.01599121,-17083051.681518555,-17404184.341430664,3116923.3322143555,2876803.8749694824,3067833.662033081,-17989116.668701172,-17685583.114624023,-18375194.549560547,-18228233.337402344,2712739.7060394287,3014748.3348846436,-16715225.219726562,-18997808.4564209,-18282430.64880371
0.295,45029331.20727539,55342121.12426758,44369029.9987793,44198402.404785156,36092735.290527344,10643739.700317383,11348675.727844238,11666669.845581055,18809829.711914062,16966093.063354492,11535789.489746094,11979722.97668457,12592234.61151123,8786950.11138916,10463842.391967773,26806171.417236328,18210269.927978516,8991639.137268066,11595125.198364258,11015018.463134766,11114511.489868164,11773573.875427246,9750267.98248291,7693141.460418701,15196208.953857422,10350095.748901367,-2150853.8722991943,1116539.0014648438,920381.3076019287,5100040.435791016,6771065.711975098,10187378.883361816,8101542.4728393555,6693461.4181518555,6843446.731567383,-674667.8948402405,1322072.6251602173,-12541558.265686035,4950123.7869262695,-11766981.12487793,10430512.428283691,7224271.297454834,6857042.7894592285,6475836.753845215,-12231486.320495605,-13065365.7913208,-12883710.861206055,-11738610.26763916,-11659197.807312012,-12078280.448913574,5479170.799255371,5207623.481750488,5391136.169433594,-13349781.036376953,-12511039.733886719,-13131620.407104492,-12989453.315734863,5206606.864929199,5537986.278533936,-12074938.774108887,-13844580.65032959,-13099243.1640625
0.3,27510622.024536133,43911918.64013672,38034523.010253906,38434730.529785156,38343349.45678711,8333436.012268066,8802055.358886719,9260913.848876953,17632732.391357422,16548669.815063477,13035212.516784668,13330057.144165039,14239236.831665039,16931364.059448242,8438276.290893555,24718595.504760742,17800765.991210938,7112170.696258545,12600913.047790527,12032455.444335938,12275088.3102417,13453424.453735352,17895992.279052734,5982465.2671813965,15925596.237182617,9597661.972045898,-3436315.0596618652,1522561.9077682495,1247404.0985107422,7837525.367736816,13237392.42553711,18171607.971191406,6814220.428466797,5555340.766906738,10039919.85321045,880907.952785492,1623341.9179916382,-10348293.30444336,7789308.547973633,-9341955.184936523,18639415.740966797,6095663.070678711,6040622.234344482,5363400.459289551,-9698698.043823242,-10376277.923583984,-10481837.272644043,-9054077.1484375,-8884902.954101562,-9415184.97467041,4498032.569885254,4253135.204315186,4351612.567901611,-10871950.149536133,-9872348.78540039,-10354249.954223633,-10249072.074890137,4286870.002746582,4575988.292694092,-9364775.657653809,-11355419.158935547,-10411700.248718262
0.305,14405950.546264648,34561992.64526367,33124645.233154297,34307815.55175781,40835311.88964844,2390803.813934326,2874743.938446045,3604652.6432037354,16398420.333862305,16205419.540405273,13329964.637756348,13612841.606140137,14840599.060058594,21122547.149658203,2518346.3096618652,19821134.567260742,16500991.821289062,5160304.546356201,12774440.76538086,12084197.044372559,12454847.33581543,13900114.059448242,22061656.951904297,378136.3070011139,12354800.2243042,7298102.378845215,-4996993.541717529,1688236.117362976,1491670.846939087,7385963.439941406,14418739.318847656,22358215.33203125,1291746.4971542358,133736.2825870514,10962248.802185059,2549653.5301208496,1769067.0490264893,-7821185.111999512,7222068.309783936,-9959276.19934082,22772575.37841797,673802.0777702332,838673.1147766113,-209509.2236995697,-9462416.648864746,-10346108.436584473,-7715401.172637939,-9590778.350830078,-9440024.375915527,-9993334.770202637,-879486.9780540466,-1108803.153038025,-1044070.4822540283,-10853157.997131348,-10238412.857055664,-10659358.024597168,-10586855.8883667,-1065533.8764190674,-820814.1326904297,-9205655.097961426,-11877266.883850098,-10704228.401184082
0.31,4735581.398010254,22344301.223754883,22424743.65234375,28797931.671142578,35049011.23046875,-1821248.7697601318,-1246508.5983276367,-535045.9814071655,13148081.77947998,13178339.004516602,10670598.983764648,11040134.42993164,12390370.36895752,18737751.007080078,-1770605.5641174316,15496788.024902344,13944005.012512207,3065829.038619995,10481191.635131836,9687708.854675293,10152257.919311523,11362928.39050293,19636777.877807617,-3683343.8873291016,7725622.653961182,4723832.130432129,-6318402.7671813965,1570717.9307937622,1516186.3565444946,6696895.599365234,12592611.312866211,20073076.248168945,-2941608.190536499,-4058778.762817383,8954463.958740234,2801259.5176696777,1723096.0130691528,-3837401.3900756836,6438916.206359863,-9154723.167419434,20262613.29650879,-3603331.5658569336,-3401138.5440826416,-4501448.631286621,-8371916.770935059,-9562171.936035156,-3659522.533416748,-8847095.489501953,-8808196.067810059,-9406455.039978027,-4998866.081237793,-5319692.611694336,-5120384.216308594,-9850169.18182373,-9464918.13659668,-9988620.75805664,-9893663.40637207,-5179790.496826172,-4874119.758605957,-8259724.6170043945,-11159940.719604492,-10010615.348815918
0.315,3291860.818862915,14540036.20147705,12912549.97253418,24955404.28161621,25915075.302124023,-76442.25656986237,503871.5600967407,914898.7531661987,10073696.13647461,9639091.491699219,7858584.403991699,8238251.686096191,9504255.294799805,13513413.429260254,-111352.27233171463,15729861.25946045,12535061.836242676,2178741.693496704,7991525.650024414,7262915.134429932,7813399.314880371,8576777.458190918,14389502.52532959,-2021034.0023040771,7052061.557769775,4567535.400390625,-6261691.570281982,1515555.739402771,1357750.7734298706,7897346.973419189,11780949.592590332,14837591.171264648,-1411810.5173110962,-2561353.4450531006,7208350.658416748,2225137.948989868,1671540.2603149414,392476.79710388184,7761444.091796875,-5259795.188903809,14967500.686645508,-2207987.070083618,-2027984.857559204,-2844111.442565918,-5216429.710388184,-6507381.916046143,567308.9027404785,-5008816.719055176,-4966339.111328125,-5656922.817230225,-3376249.313354492,-3804000.6160736084,-3409513.235092163,-6571322.917938232,-5841568.470001221,-6490648.7464904785,-6330099.582672119,-3547558.546066284,-3168813.943862915,-5008927.345275879,-7437963.962554932,-6608577.728271484
0.32,5411566.257476807,12386178.016662598,8939568.519592285,23309247.970581055,21340724.94506836,3347003.221511841,3893476.963043213,4149906.1584472656,9632652.282714844,9293368.339538574,7645755.290985107,7882588.863372803,8941732.406616211,7729126.453399658,3231807.9471588135,18332908.630371094,13418161.392211914,3280598.8788604736,7738051.414489746,7130521.297454834,7775076.389312744,8086876.86920166,8577682.495117188,1196381.4496994019,9463885.307312012,6677227.973937988,-4762013.912200928,1693714.1418457031,1199872.2553253174,8514575.958251953,10583748.817443848,8896864.891052246,1905339.5986557007,699151.337146759,7744299.88861084,2071550.3692626953,1728471.3983535767,1663339.2572402954,8523560.523986816,-3170052.0515441895,9196475.982666016,1030319.8099136353,1283091.5451049805,707610.4283332825,-3699360.132217407,-4881030.559539795,1852675.199508667,-2920409.2025756836,-2735439.3005371094,-3419163.227081299,-67978.68013381958,-455153.7036895752,-16210.692003369331,-4958552.837371826,-3929056.406021118,-4538096.904754639,-4312749.862670898,-161618.6499595642,98687.082529068,-3253540.515899658,-5300849.437713623,-4764646.530151367
0.325,808211.4458084106,8448581.69555664,5696638.107299805,20775089.263916016,21549863.815307617,1521196.2461471558,2089477.0622253418,2556140.184402466,11464144.706726074,12534777.641296387,9195455.551147461,9265162.467956543,10062442.779541016,6009.386386722326,1305671.6918945312,17744413.375854492,14939814.567565918,5567010.402679443,9209905.624389648,8517307.28149414,9238624.572753906,9062525.749206543,791530.3707122803,-736744.8210716248,9710163.116455078,8170302.391052246,-3108958.7211608887,1913403.1534194946,1234666.347503662,5487384.31930542,5217145.919799805,1064560.890197754,190023.09441566467,-974894.7024345398,9059115.409851074,2434356.212615967,1841168.8804626465,-934589.5051956177,5367419.242858887,-7185328.960418701,1475242.8531646729,-634420.2160835266,-235657.40883350372,-891075.5515098572,-7031236.171722412,-8124983.787536621,-810296.5950965881,-6906962.3947143555,-6638914.585113525,-7193023.204803467,-1875671.0290908813,-2133884.906768799,-1794269.323348999,-8416145.324707031,-7838182.44934082,-8268142.7001953125,-8016294.479370117,-1811551.570892334,-1845826.1489868164,-6576374.530792236,-9002884.864807129,-8437082.290649414
0.33,-10654027.938842773,400224.08962249756,-269355.80372810364,17071542.739868164,21990962.982177734,-4659115.314483643,-4082554.340362549,-3352466.821670532,13534339.904785156,16236804.962158203,10041735.649108887,10090565.68145752,10657267.570495605,-8427038.192749023,-4989042.75894165,13215350.151062012,15378540.0390625,7564948.081970215,10323317.527770996,9305739.402770996,10027237.892150879,9456631.660461426,-7691321.849822998,-6842495.441436768,6389289.855957031,7647636.413574219,-2482239.4847869873,1983419.65675354,1491073.727607727,949080.9440612793,-2139484.8823547363,-7310536.861419678,-5802722.454071045,-6766686.916351318,9379450.798034668,2633069.9920654297,1950747.6091384888,-3898004.7702789307,525179.6245574951,-13289658.546447754,-7036427.021026611,-6511711.597442627,-6049433.23135376,-6937911.033630371,-11909316.062927246,-13062853.813171387,-3981114.625930786,-12959944.725036621,-12742260.932922363,-13238995.552062988,-7893816.4710998535,-8163487.434387207,-7833737.373352051,-13499511.71875,-13707850.456237793,-14024083.137512207,-13801305.770874023,-7704488.277435303,-7932786.94152832,-11716835.975646973,-14852928.161621094,-14051708.221435547
0.335,-18160209.65576172,-4302547.454833984,-4197695.255279541,16069440.841674805,21712671.279907227,-7621194.839477539,-7175584.79309082,-6506384.372711182,14717260.360717773,17773157.119750977,9716629.981994629,9891005.516052246,10375650.405883789,-11655043.601989746,-7992978.096008301,9847412.109375,15135052.680969238,8353672.027587891,10382796.287536621,9122619.62890625,9723697.662353516,9181447.02911377,-10891163.82598877,-9622880.935668945,4067296.9818115234,6842072.010040283,-2846875.6675720215,1941048.6221313477,1781481.385231018,220125.83911418915,-4142234.8022460938,-10431100.845336914,-8614240.646362305,-9330744.743347168,9446452.140808105,2503881.4544677734,2049679.9945831299,-3461197.3762512207,-286079.5855522156,-13739846.229553223,-10360270.500183105,-9237630.844116211,-8873749.732971191,-9785791.397094727,-12168072.700500488,-13380946.159362793,-3739488.6016845703,-13364680.290222168,-13182126.04522705,-13770306.587219238,-10580111.503601074,-11011590.003967285,-10515995.025634766,-13745230.674743652,-14070410.72845459,-14450903.89251709,-14278404.235839844,-10419385.91003418,-10546362.87689209,-12112472.534179688,-15386908.531188965,-14487695.693969727
0.34,-14382544.51751709,476847.0823764801,-571871.9363212585,20067708.96911621,23532098.7701416,-3648899.0783691406,-3387930.8700561523,-3017582.654953003,15419466.972351074,17687593.460083008,9632322.311401367,9914003.372192383,10499703.407287598,-7055199.62310791,-3926725.6259918213,11720151.901245117,15599778.175354004,8056406.9747924805,10260347.366333008,9160168.647766113,9556121.826171875,9459972.381591797,-6232522.487640381,-5472068.309783936,6641753.673553467,7812735.557556152,-3271909.713745117,1850053.5488128662,1847362.1606826782,4252521.991729736,1507741.093635559,-5824028.015136719,-4560796.737670898,-5173400.402069092,10683583.25958252,2503230.094909668,2071573.257446289,-653326.0345458984,4001973.1521606445,-8097561.836242676,-5771664.142608643,-5160950.183868408,-4950399.398803711,-5596099.376678467,-7576762.1994018555,-8642389.297485352,-941313.5051727295,-7763291.358947754,-7520989.418029785,-8145311.35559082,-6381280.422210693,-6836376.190185547,-6234746.45614624,-8847310.066223145,-8567818.641662598,-9076692.581176758,-8907485.961914062,-6369579.792022705,-6218231.678009033,-7287427.90222168,-10036470.413208008,-9266273.498535156
0.345,-2849354.2671203613,11111142.1585083,8172244.071960449,26583942.413330078,27512063.98010254,3140674.352645874,3390669.584274292,3597046.375274658,16284812.927246094,17928583.1451416,10152503.01361084,10399703.025817871,11148488.04473877,-1038688.3020401001,2972619.05670166,17477375.030517578,17121614.456176758,7627377.033233643,10304664.611816406,9671732.902526855,9890413.284301758,10127441.40625,-228026.67319774628,1345173.4781265259,12286981.582641602,10429709.434509277,-2863816.499710083,1659064.769744873,1592429.518699646,7739492.893218994,7752331.733703613,142909.61623191833,2052768.7072753906,1347543.8356399536,12534719.467163086,2930620.9087371826,1915881.1569213867,200179.26394939423,7766295.433044434,-4008733.7493896484,321966.3202762604,1410557.0316314697,1591414.6900177002,1214380.8603286743,-4327488.899230957,-5090882.301330566,50671.56255245209,-3818115.711212158,-3532462.3584747314,-4014626.0261535645,211790.5169725418,13081.496581435204,448511.2130641937,-5238201.141357422,-4652833.461761475,-5169465.5418396,-4961533.546447754,87414.97993469238,449666.47028923035,-3729513.40675354,-6058761.5966796875,-5408169.269561768
0.35,7621058.940887451,18879245.75805664,14261948.585510254,31117733.001708984,29481626.510620117,7344284.0576171875,7745679.3785095215,8041365.623474121,16829824.447631836,18577413.55895996,9927580.833435059,10059507.369995117,10895595.55053711,-827784.1806411743,7117322.92175293,22766960.14404297,18611690.521240234,7737730.503082275,9761015.892028809,9467679.977416992,9634179.11529541,9700293.54095459,-95069.63193416595,5349900.722503662,16399454.116821289,12950089.454650879,-1612426.8770217896,1388017.0583724976,1180459.1417312622,6367091.178894043,7599346.160888672,367199.71895217896,5714133.262634277,4871689.796447754,13452895.164489746,3626079.559326172,1640468.4782028198,-2204530.2391052246,6427444.934844971,-5910670.280456543,605678.379535675,4977941.513061523,5280223.369598389,4913234.233856201,-5797208.309173584,-6401040.554046631,-2210926.5327453613,-5840597.152709961,-5583328.723907471,-5967230.796813965,3743681.6692352295,3787286.2815856934,3954374.074935913,-6584960.460662842,-6507023.334503174,-6881709.575653076,-6708303.451538086,3549294.7101593018,3958004.7130584717,-5236177.444458008,-7708141.326904297,-6992032.051086426
0.355,8957250.595092773,18105501.174926758,13052700.996398926,30169694.900512695,27046756.744384766,7654870.510101318,8056849.479675293,8478268.62335205,15445466.995239258,17652132.034301758,8491027.83203125,8585371.017456055,9450555.801391602,-2718141.0789489746,7297287.940979004,23958738.327026367,18352428.436279297,7450669.288635254,8501791.954040527,8158133.506774902,8387266.159057617,8143464.088439941,-2036928.8921356201,5540103.435516357,16716714.859008789,13435521.125793457,-835850.715637207,1226054.1915893555,902504.6229362488,3080795.2880859375,4357346.057891846,-1486479.9976348877,5726678.848266602,4892431.259155273,13360095.024108887,4171732.4256896973,1470079.8988342285,-4088828.5636901855,3049576.997756958,-8435550.689697266,-1292268.7530517578,4958583.831787109,5342289.924621582,4810328.483581543,-7422380.9242248535,-8194287.300109863,-3994232.177734375,-8346079.8263549805,-8071187.0193481445,-8613912.582397461,3828722.0001220703,3753283.2622528076,3908869.504928589,-8372216.22467041,-8751365.661621094,-8985093.116760254,-8980515.480041504,3594693.183898926,3932772.159576416,-7177912.712097168,-9875890.731811523,-9033039.093017578
0.36,-2599771.022796631,8969208.717346191,6335556.0302734375,22774963.37890625,23065910.33935547,5234285.831451416,5342756.271362305,5759100.437164307,11228080.749511719,14143877.029418945,7502325.534820557,7690264.701843262,8631707.191467285,3601170.301437378,5048990.726470947,19866277.69470215,15350371.360778809,5029680.7289123535,7758241.176605225,7184499.740600586,7488608.360290527,7450586.318969727,4274143.695831299,3624553.680419922,14153406.143188477,10828904.151916504,-2150678.873062134,1252647.3999023438,899039.7453308105,3869241.237640381,6873165.130615234,4752091.884613037,4235540.866851807,3556507.8258514404,13287388.801574707,4067161.5600585938,1493451.9529342651,-2039100.4085540771,3835482.597351074,-4638268.947601318,4944864.749908447,3659068.1076049805,3886034.2502593994,3281611.442565918,-3739037.51373291,-4832300.186157227,-1861653.3279418945,-4461249.351501465,-4066298.007965088,-4841067.790985107,2778053.7605285645,2331889.3909454346,2791312.4561309814,-4929432.8689575195,-4717775.821685791,-4949650.287628174,-5114105.224609375,2552039.14642334,2751750.946044922,-3638682.8422546387,-6007867.336273193,-5180504.322052002
0.365,-21927440.643310547,-3814403.295516968,-1257578.96900177,11947493.553161621,20865398.406982422,1233429.4319152832,1085579.9913406372,1422413.5875701904,5678762.435913086,9729473.114013672,8161259.651184082,8455725.66986084,9513589.859008789,18753845.21484375,1649755.597114563,12727216.720581055,10724602.699279785,730662.1074676514,8178108.215332031,7585819.721221924,7883696.07925415,8550369.262695312,19403017.044067383,777549.4456291199,10684465.408325195,6301496.505737305,-5285467.147827148,1256732.5830459595,1012774.7058868408,8901082.038879395,16012798.309326172,19724977.493286133,2293237.6861572266,1720497.965812683,13235383.987426758,3088549.6139526367,1504812.479019165,1968550.443649292,8913255.69152832,3307020.1873779297,20006135.940551758,2088764.9059295654,1985359.787940979,1482632.1601867676,3031401.3957977295,1796526.551246643,2181032.657623291,3481749.2961883545,3951858.2820892334,3183826.9233703613,1368201.9710540771,729376.8525123596,1477697.730064392,1750292.7780151367,3202479.600906372,2862258.6727142334,2717191.219329834,1266682.505607605,1314060.2111816406,3361548.900604248,1719116.9261932373,2390858.8886260986
0.37,-36522430.419921875,-14059798.240661621,-6681658.2679748535,3434278.4881591797,19330165.86303711,-2692935.9436035156,-2690319.061279297,-2436800.718307495,1634338.8557434082,6658484.45892334,9020004.272460938,9297346.115112305,10400177.955627441,30582506.17980957,-1665852.0698547363,7271672.248840332,7331480.026245117,-2590291.976928711,8448748.588562012,8135909.080505371,8333292.9611206055,9520558.35723877,31211008.071899414,-2128111.8392944336,7960996.627807617,3135845.66116333,-7784430.980682373,1046754.002571106,973831.9516181946,12276088.71459961,22883056.640625,31471277.236938477,8287.143893539906,-640491.0087585449,12298505.783081055,1782653.80859375,1302945.7330703735,3463641.64352417,12236965.17944336,7136506.5574646,31799846.649169922,63614.40569162369,-265902.7874469757,-648659.1696739197,6016215.3244018555,4922282.695770264,3618780.3745269775,7215664.386749268,7592425.346374512,7026735.305786133,-712667.8824424744,-1186066.746711731,-464420.49741744995,4832766.056060791,6889222.621917725,6448658.466339111,6494405.746459961,-606646.3589668274,-607611.894607544,6660384.178161621,5429904.937744141,5970829.010009766
0.375,-38914173.1262207,-18344232.5592041,-9411565.780639648,372889.6975517273,16202444.076538086,-4657449.245452881,-4265377.044677734,-4123677.7305603027,397434.264421463,5250662.803649902,8229218.482971191,8389526.3671875,9466175.079345703,30857088.088989258,-3489795.684814453,6352032.18460083,7007210.731506348,-2826946.258544922,7300454.616546631,7277188.301086426,7343010.425567627,8524617.195129395,31550674.438476562,-3880250.930786133,6840188.980102539,3456571.578979492,-7863588.809967041,786131.1435699463,736091.673374176,10749538.42163086,21794416.427612305,31857210.159301758,-1921846.628189087,-2678494.930267334,10884978.294372559,1262018.084526062,1027884.0065002441,1990931.0340881348,10607326.50756836,4528591.632843018,32106952.667236328,-1896089.9114608765,-2202380.895614624,-2564145.565032959,3729765.4151916504,2851573.4672546387,2041837.9306793213,4564194.679260254,4783894.062042236,4332783.6990356445,-2778552.293777466,-2973909.616470337,-2517027.1396636963,2684414.6251678467,4308112.621307373,3818277.8358459473,4010623.4550476074,-2532394.8860168457,-2399946.928024292,4428199.768066406,3007872.5814819336,3538704.6337127686
0.38,-35055210.11352539,-17926538.467407227,-9693303.108215332,379181.4148426056,13963185.31036377,-4747247.695922852,-4226348.876953125,-4183852.195739746,1080366.7306900024,4910865.783691406,7006343.841552734,7102268.218994141,8226757.049560547,26831026.077270508,-3820648.670196533,7827585.220336914,8630175.590515137,-1241726.1600494385,6111668.586730957,6118129.730224609,6106276.035308838,7218932.628631592,27640544.891357422,-4254374.980926514,6984101.295471191,5459567.070007324,-6678791.522979736,764134.5262527466,528965.2943611145,8105287.551879883,18133596.420288086,27990537.643432617,-2861774.9214172363,-3487951.9939422607,10937679.290771484,2092672.8248596191,983037.8293991089,1388248.324394226,7948801.9943237305,1858612.8950119019,28123882.293701172,-2944689.2738342285,-3133482.4562072754,-3501165.1515960693,1805466.651916504,991543.7698364258,1386948.1086730957,1961729.4073104858,2131178.617477417,1652950.1676559448,-3784023.0464935303,-3881240.129470825,-3610743.761062622,784780.0850868225,1822367.4297332764,1311613.7981414795,1455724.2393493652,-3554155.111312866,-3218870.6398010254,2334624.0520477295,536676.4664649963,1128911.3759994507
0.385,-34358654.0222168,-15463992.11883545,-7369943.618774414,286121.6366291046,17518728.256225586,-4622927.665710449,-4330749.988555908,-4239415.168762207,2965595.006942749,6546660.423278809,8451601.9821167,8614015.579223633,9892310.14251709,29265533.447265625,-3846439.1231536865,8080778.121948242,10001832.962036133,-89838.31107616425,7601846.694946289,7432109.832763672,7444071.292877197,8888420.104980469,30101907.73010254,-4179686.5463256836,7470449.924468994,5939206.600189209,-6341171.741485596,933995.1872825623,528944.4923400879,8616232.872009277,19097406.3873291,30454090.118408203,-2980867.385864258,-3245786.190032959,13249043.464660645,3623105.049133301,1172848.7014770508,3383194.2081451416,8506465.911865234,3921007.3947906494,30546987.533569336,-2970370.292663574,-3141200.542449951,-3449399.948120117,4042356.9679260254,3135912.8952026367,3426131.248474121,4088047.504425049,4322316.1697387695,3851058.7215423584,-3672232.151031494,-3872012.8536224365,-3529555.7975769043,2922506.332397461,3939502.716064453,3490568.161010742,3457291.1262512207,-3544749.975204468,-3148223.876953125,4454623.222351074,2510319.709777832,3155094.1467285156
0.39,-35710662.841796875,-11402677.536010742,-2781008.720397949,1257871.7470169067,26225568.771362305,-4453558.921813965,-4320495.128631592,-4038443.088531494,6605964.660644531,11461133.003234863,12922024.726867676,13185504.913330078,14528069.496154785,35739490.5090332,-3600190.4010772705,7409058.570861816,10922216.415405273,987404.7636985779,11908111.572265625,11590814.590454102,11709449.768066406,13569543.838500977,36494640.3503418,-3843983.1733703613,8115714.073181152,5005822.18170166,-6581701.278686523,980491.5189743042,624369.8596954346,10278092.384338379,22378499.98474121,36834251.403808594,-2367907.762527466,-2385401.0105133057,15975612.64038086,4766086.101531982,1274328.112602234,4554784.774780273,10145251.274108887,6818899.154663086,36946880.34057617,-2167936.5634918213,-2373642.4446105957,-2600340.3663635254,6773615.36026001,5760415.554046631,4709750.652313232,6946996.688842773,7264593.601226807,6847046.375274658,-2832549.810409546,-3176658.1535339355,-2617547.5120544434,5556632.518768311,6671275.1388549805,6464565.277099609,6291745.662689209,-2777460.0982666016,-2514969.825744629,7229111.671447754,5274460.315704346,5940667.629241943
0.395,-31425981.521606445,-5527575.969696045,2107026.1001586914,5634016.990661621,32999526.977539062,-3011034.4886779785,-2695872.0684051514,-2295153.3794403076,11534112.930297852,17781963.348388672,16898132.32421875,17174430.84716797,18352598.190307617,35174602.50854492,-2205842.7333831787,8590296.745300293,12695677.757263184,3719938.278198242,15780126.571655273,15436846.733093262,15678690.910339355,17445068.359375,35867927.55126953,-2684036.7317199707,9119398.11706543,5431063.652038574,-5530799.865722656,822562.3965263367,627633.5716247559,8580731.391906738,20621007.919311523,36164886.474609375,-1015486.3595962524,-1154164.9103164673,16646848.678588867,5054798.126220703,1105612.874031067,1537338.6144638062,8362740.516662598,4499486.923217773,36282096.86279297,-871260.2853775024,-1021411.5381240845,-1215978.2648086548,4764890.670776367,3724266.290664673,1806254.0292739868,4537708.759307861,4925174.236297607,4435463.905334473,-1643665.5521392822,-2050527.811050415,-1358787.5366210938,3585516.4527893066,4219400.882720947,4336896.896362305,4161809.9212646484,-1591988.8019561768,-1490253.3292770386,5280186.653137207,3199487.2093200684,3881599.4262695312
0.4,-22501230.239868164,-679907.500743866,4433988.094329834,10703882.217407227,32836990.356445312,-1325243.1154251099,-765272.6769447327,-448816.77627563477,14735642.433166504,20702299.118041992,17270864.486694336,17498640.060424805,18453634.26208496,25574954.986572266,-904506.8621635437,10915278.434753418,14953148.84185791,7086697.101593018,16352249.145507812,16001041.412353516,16322425.842285156,17591096.878051758,26263479.232788086,-1830649.1374969482,9335402.488708496,7300114.154815674,-3517807.0068359375,733535.4089736938,582558.3934783936,4466455.459594727,13910842.895507812,26492321.014404297,-358796.8349456787,-817080.4381370544,14779388.427734375,4546847.343444824,879752.3975372314,-3499847.650527954,4219641.208648682,-1829502.1057128906,26593709.94567871,-538311.6602897644,-590389.7285461426,-776051.938533783,-937133.6102485657,-1927163.7201309204,-3207361.2213134766,-1837170.8393096924,-1389931.9171905518,-2055332.899093628,-1432735.562324524,-1783782.6013565063,-1135266.0655975342,-1935195.803642273,-2020715.2366638184,-1813581.109046936,-1871903.419494629,-1333062.767982483,-1249452.9485702515,-474863.201379776,-2682147.979736328,-1959826.3502120972
0.405,-19474012.37487793,-1315426.3496398926,2522018.1941986084,10737212.181091309,28279233.932495117,-2855501.651763916,-2329367.160797119,-2156710.624694824,13532032.96661377,17828210.830688477,14851131.439208984,15094582.557678223,16014194.48852539,16609184.265136719,-2830819.1299438477,10024385.452270508,15123947.143554688,7560238.361358643,14248849.868774414,13826889.991760254,14171250.343322754,15185084.342956543,17244180.67932129,-3974911.2129211426,6668581.485748291,6831232.070922852,-3458378.314971924,890547.9311943054,666031.2414169312,3243216.9914245605,9836200.714111328,17482675.552368164,-2747697.114944458,-3373741.1499023438,11665107.727050781,3166058.301925659,873391.0322189331,-5665585.041046143,3038126.230239868,-5832869.529724121,17598283.767700195,-3159200.429916382,-3225934.0286254883,-3403801.441192627,-4971370.220184326,-5870765.209197998,-5505936.622619629,-5829493.522644043,-5400004.863739014,-6085872.650146484,-4084430.694580078,-4295133.113861084,-3763457.5366973877,-5796052.932739258,-5871245.861053467,-5969449.520111084,-5896699.42855835,-3916360.378265381,-3733078.4797668457,-4627074.718475342,-6674258.232116699,-5884929.180145264
0.41,-27127389.907836914,-7870986.461639404,-2768518.9247131348,4963560.104370117,24557432.174682617,-8517443.656921387,-8182931.900024414,-8017428.398132324,9176473.617553711,12546566.9631958,12525883.674621582,12879790.306091309,13891963.005065918,14766415.5960083,-8482529.640197754,4415018.081665039,11775279.04510498,4022655.0102233887,12073299.407958984,11589480.40008545,11928337.097167969,13094356.536865234,15304018.9743042,-9494487.762451172,1135768.4135437012,1949002.5043487549,-6660286.903381348,1110787.9877090454,869321.5847015381,6163723.945617676,11636830.32989502,15674030.303955078,-8164156.913757324,-8730113.02947998,8557290.077209473,957893.7292098999,1045382.6189041138,-4126175.880432129,5991926.193237305,-5416131.019592285,15857094.764709473,-8506831.169128418,-8654853.820800781,-8910742.75970459,-5377710.342407227,-6202106.952667236,-4188391.2086486816,-5357768.0587768555,-5086233.139038086,-5555788.516998291,-9380170.822143555,-9478533.744812012,-9005273.818969727,-6223602.294921875,-5434662.818908691,-5965010.166168213,-5867832.660675049,-9183753.01361084,-8931632.995605469,-5110358.715057373,-6802010.059356689,-5956304.07333374
0.415,-36701633.45336914,-14350293.159484863,-7687937.259674072,-529291.7490005493,23406139.373779297,-14196664.810180664,-13890825.271606445,-13621768.951416016,5839126.5869140625,10331986.427307129,11657838.821411133,12106358.528137207,13080294.609069824,15907755.851745605,-13835824.966430664,-1506962.2993469238,7184713.363647461,-68746.11228704453,11200003.623962402,10768033.981323242,11111509.323120117,12317994.117736816,16477573.39477539,-14733483.31451416,-3774288.8927459717,-3749609.94720459,-10362427.711486816,1176139.5931243896,1002008.318901062,8412940.02532959,13972748.756408691,16944208.1451416,-13081145.286560059,-13561308.860778809,6340519.905090332,-1065627.098083496,1160000.6818771362,-2536617.9943084717,8277021.408081055,-4568185.806274414,17217924.118041992,-13266874.313354492,-13362529.754638672,-13816603.660583496,-5060055.732727051,-5895774.841308594,-2725143.4326171875,-4390191.078186035,-4326578.617095947,-4594646.453857422,-14073835.372924805,-14186071.395874023,-13721158.027648926,-6144990.921020508,-4622132.778167725,-5314718.246459961,-5318505.764007568,-13947369.575500488,-13717725.75378418,-4823863.506317139,-6392734.050750732,-5549633.979797363
0.42,-37002216.33911133,-13513646.125793457,-7313167.095184326,137400.98476409912,24304939.27001953,-15221351.623535156,-14786693.572998047,-14461730.95703125,6353662.490844727,12856184.005737305,11941781.044006348,12373375.89263916,13162698.745727539,14865547.180175781,-14692933.082580566,-2503466.3677215576,5577857.01751709,-608492.0763969421,11438694.953918457,11160652.160644531,11527615.547180176,12401971.817016602,15621675.491333008,-15771338.46282959,-4191478.2524108887,-4941179.275512695,-10946948.051452637,1159002.423286438,987560.2126121521,6743026.7333984375,12367124.557495117,16001192.092895508,-13999254.22668457,-14478408.813476562,6196246.147155762,-1348718.285560608,1147065.52028656,-3184726.4766693115,6716874.122619629,-6112915.992736816,16318727.493286133,-14194062.232971191,-14114054.679870605,-14711650.848388672,-6170833.587646484,-7114475.250244141,-3303867.5785064697,-5786682.12890625,-5798426.628112793,-6091329.097747803,-15018137.93182373,-15210878.372192383,-14807044.02923584,-7520959.854125977,-6128030.776977539,-6684274.196624756,-6787284.374237061,-15023138.046264648,-14809548.377990723,-5988728.046417236,-7799155.712127686,-7024739.742279053
0.425,-29106637.954711914,-5881793.49899292,-1035379.4097900391,5830585.956573486,27445652.00805664,-11901452.06451416,-11428003.311157227,-11130269.050598145,9867353.439331055,17137224.197387695,13252038.00201416,13590808.868408203,14331674.575805664,13740512.84790039,-11572035.789489746,1483219.861984253,8815110.206604004,2479719.400405884,12605075.83618164,12480741.500854492,12854013.442993164,13504908.561706543,14593665.12298584,-12922965.049743652,-65063.45421075821,-1117817.6403045654,-8420409.202575684,1220807.0755004883,933163.046836853,4402357.578277588,10160497.665405273,14827209.47265625,-11347607.612609863,-11799568.176269531,8791986.465454102,447101.891040802,1131449.1033554077,-4238835.334777832,4505056.858062744,-7704060.5545043945,15056285.858154297,-11644958.49609375,-11522426.60522461,-12020270.347595215,-7153024.673461914,-8206745.147705078,-4207874.298095703,-7332530.498504639,-7226994.514465332,-7668316.36428833,-12645156.860351562,-12830020.904541016,-12536804.19921875,-8594085.693359375,-7731251.7166137695,-8159422.874450684,-8230359.077453613,-12723429.679870605,-12406731.605529785,-7070875.16784668,-9090543.746948242,-8397308.349609375
0.43,-25664789.1998291,-2180601.3584136963,3390694.1413879395,9660970.687866211,31341703.414916992,-8884167.671203613,-8491621.017456055,-8210475.921630859,13131832.122802734,19527990.341186523,15383041.381835938,15641064.643859863,16601869.583129883,16136796.951293945,-8806972.50366211,5791831.970214844,14090728.759765625,5653720.855712891,14470807.075500488,14427293.77746582,14748583.793640137,15706369.400024414,16866527.557373047,-10189574.241638184,4573988.437652588,3011361.598968506,-6111599.922180176,1303923.487663269,918470.9191322327,5679411.888122559,12173576.354980469,17114179.611206055,-8816617.965698242,-9144010.543823242,12500533.103942871,2627900.3620147705,1191277.5039672852,-3610134.6015930176,5785630.702972412,-6622084.617614746,17117832.18383789,-9108596.801757812,-9175655.364990234,-9435671.80633545,-6331961.154937744,-7395771.503448486,-3534570.2171325684,-6359889.984130859,-6079254.627227783,-6599136.3525390625,-10356304.168701172,-10435019.493103027,-10159804.344177246,-7703878.402709961,-6894048.690795898,-7348071.575164795,-7300147.05657959,-10393991.470336914,-9901693.344116211,-6342200.756072998,-8164836.883544922,-7508016.586303711
0.435,-35144447.326660156,-11693532.943725586,-2724873.0659484863,6536375.999450684,31451843.26171875,-9797465.324401855,-9397434.23461914,-9079011.917114258,13428041.458129883,19069223.403930664,16854282.37915039,17063217.163085938,18275230.407714844,19878314.971923828,-9644154.54864502,6104118.824005127,16311668.395996094,5979072.093963623,15801835.060119629,15759335.5178833,15998582.83996582,17397003.173828125,20499502.182006836,-10821553.230285645,5517898.082733154,3068889.1410827637,-6501499.652862549,1273226.6187667847,925979.3758392334,9104035.377502441,16464866.638183594,20854732.513427734,-9347946.166992188,-9582656.860351562,13965729.713439941,3009686.7084503174,1284618.1392669678,-2456912.040710449,9076828.002929688,-4502595.4246521,20655097.96142578,-9546529.769897461,-9791586.875915527,-9976217.269897461,-5116739.749908447,-6103751.659393311,-2481042.8619384766,-4366489.410400391,-4030599.1172790527,-4547477.722167969,-10858161.926269531,-10908545.49407959,-10500191.688537598,-6430934.906005859,-5135390.281677246,-5582943.439483643,-5485631.942749023,-10818291.664123535,-10267005.920410156,-5150971.412658691,-6535268.306732178,-5871001.243591309
0.44,-46688091.27807617,-25042545.318603516,-13279661.178588867,389324.99289512634,27087181.091308594,-13410272.598266602,-12843955.993652344,-12472142.219543457,11323379.516601562,17776729.583740234,16400859.832763672,16567823.41003418,17805122.37548828,20318460.46447754,-12964019.775390625,2719074.9645233154,13626456.260681152,4163268.0892944336,15538424.491882324,15421743.392944336,15658761.978149414,16974256.51550293,21073511.123657227,-13998155.59387207,2470931.2915802,-444103.6880016327,-8610445.976257324,1204310.2979660034,983384.4304084778,9673220.63446045,17085821.1517334,21356536.865234375,-12267603.874206543,-12578704.833984375,11507945.06072998,1189218.0442810059,1384103.8942337036,-3210926.055908203,9509082.794189453,-4912803.173065186,21171997.0703125,-12466653.823852539,-12645182.609558105,-13001101.49383545,-6029934.883117676,-6954706.66885376,-3364687.919616699,-4800189.971923828,-4561880.111694336,-5073908.805847168,-13548291.206359863,-13755173.683166504,-13227303.504943848,-7375265.598297119,-5745937.347412109,-6036127.090454102,-5992489.814758301,-13498713.493347168,-13113747.596740723,-6028345.108032227,-7179546.356201172,-6524785.51864624
0.445,-34151752.47192383,-15225179.672241211,-5600768.089294434,3554814.577102661,27375919.342041016,-14705906.867980957,-13950276.374816895,-13525142.669677734,11321505.546569824,19197843.551635742,15754888.534545898,15903184.89074707,17007280.349731445,16794105.529785156,-14310193.061828613,974309.0271949768,10458610.534667969,3746995.687484741,15164612.770080566,14910571.098327637,15300012.588500977,16108812.33215332,17724184.036254883,-15553689.002990723,-476724.5650291443,-3041976.4518737793,-9521247.863769531,1249356.2698364258,1146627.9029846191,5954014.301300049,12379028.3203125,17738075.256347656,-13975647.926330566,-14482625.007629395,7386621.952056885,-1094860.553741455,1499192.237854004,-6272229.194641113,5717259.883880615,-8891587.257385254,17774068.83239746,-14333393.096923828,-14302860.260009766,-14852393.15032959,-9708610.534667969,-10649743.08013916,-6480105.400085449,-8815506.935119629,-8684638.977050781,-9175548.553466797,-15190055.847167969,-15602258.682250977,-15153576.850891113,-11091179.847717285,-9730076.789855957,-9928362.846374512,-9901206.016540527,-15227128.028869629,-15082738.876342773,-9696612.358093262,-11002215.385437012,-10418716.430664062
0.45,17168550.491333008,33805366.51611328,35221336.364746094,24995658.87451172,42433601.37939453,-9725990.295410156,-8803726.196289062,-8319237.70904541,17951053.619384766,25649461.74621582,18418466.567993164,18613355.63659668,19634435.653686523,11489241.600036621,-10089769.36340332,6822754.859924316,13284317.970275879,7438115.59677124,17743457.794189453,17356231.689453125,17977617.263793945,18586244.583129883,12291122.436523438,-12017886.1618042,1401255.9652328491,-848729.7892570496,-7631682.395935059,1338571.310043335,1322757.0056915283,1383422.1363067627,6165865.898132324,12153803.825378418,-11400789.260864258,-12080358.505249023,5737983.703613281,-1813791.7518615723,1582100.27217865,-10329856.872558594,1083485.6033325195,-15125103.950500488,12384217.262268066,-11987046.241760254,-11850288.391113281,-12426160.81237793,-15228540.420532227,-16262451.171875,-10518570.899963379,-15253246.307373047,-15084124.565124512,-15483220.100402832,-13072187.423706055,-13525714.874267578,-13295631.408691406,-16615251.541137695,-15963217.735290527,-16338478.088378906,-16201591.491699219,-13259949.684143066,-13151604.652404785,-15326661.109924316,-17057024.002075195,-16562557.220458984
0.455,85537109.375,100031188.96484375,91168403.62548828,56891372.68066406,67722557.0678711,-166933.3577156067,992692.7089691162,1489883.7804794312,29632211.685180664,35000320.43457031,24781925.201416016,25071195.602416992,26061923.98071289,5520703.7925720215,-1652023.434638977,19866109.84802246,22630777.35900879,13804123.878479004,23649080.276489258,23220829.010009766,24003953.93371582,25009561.53869629,5964580.059051514,-4571951.389312744,8636336.326599121,5528369.903564453,-4230852.127075195,1321769.2375183105,1350542.7837371826,-602749.8841285706,2334000.3490448,5984058.856964111,-5350720.405578613,-6109776.020050049,8459502.220153809,-494425.2669811249,1578405.737876892,-14035217.28515625,-958938.1814002991,-21962633.13293457,6218974.590301514,-6134484.29107666,-6033649.444580078,-6542298.793792725,-21173358.917236328,-22365062.713623047,-14203067.779541016,-22322650.909423828,-22000907.89794922,-22275693.893432617,-7938867.092132568,-8228229.522705078,-8140509.605407715,-22643842.697143555,-22841566.08581543,-23460733.41369629,-23209863.662719727,-8283097.267150879,-7939885.139465332,-21497983.932495117,-23827482.223510742,-23330507.278442383
0.46,124916099.54833984,137424026.4892578,122450607.29980469,77932212.82958984,84671234.13085938,7504444.599151611,8922049.522399902,9322806.358337402,38520832.06176758,41228069.30541992,30450607.299804688,30802032.470703125,31679609.298706055,-353347.68891334534,5308848.857879639,31807628.631591797,31543020.248413086,18242330.55114746,28947217.94128418,28554985.04638672,29391849.517822266,30838500.9765625,-90337.23920583725,1623634.5767974854,16750175.476074219,11619195.938110352,-1973696.1126327515,1325204.7300338745,1296754.8370361328,201271.48926258087,1694434.642791748,198209.7029685974,-34952.57347822189,-784633.457660675,13694766.0446167,1794023.5137939453,1562741.8756484985,-15944763.18359375,-107979.02196645737,-26999546.05102539,324470.9074497223,-904052.734375,-850425.7798194885,-1330025.7921218872,-25109718.322753906,-26490676.879882812,-16146654.12902832,-27326332.092285156,-26938188.552856445,-27145662.307739258,-3432322.0252990723,-3490772.008895874,-3404046.058654785,-26807407.37915039,-27819629.669189453,-28400018.6920166,-28200889.587402344,-3858112.8120422363,-3264666.5573120117,-25643566.131591797,-28655712.127685547,-28021911.62109375
0.465,110232208.25195312,122480224.609375,108312332.15332031,74414108.27636719,80406173.70605469,8561024.66583252,10034607.887268066,10284733.772277832,38532649.993896484,40180709.83886719,30799213.409423828,31131866.455078125,31840644.83642578,-4342649.936676025,6453205.585479736,34451145.17211914,33474716.186523438,17925086.975097656,29395753.860473633,28987329.483032227,29846332.550048828,31169885.635375977,-3937548.875808716,2780348.777770996,20723276.138305664,13719104.766845703,-1984522.7003097534,1595045.3281402588,1399946.3319778442,2146643.1617736816,3171590.566635132,-3519113.063812256,1305053.1148910522,638794.3029403687,17997035.98022461,3748179.4357299805,1642380.714416504,-14727717.399597168,1997411.608695984,-27163368.225097656,-3481896.6388702393,534493.3867454529,573092.2222137451,123791.38171672821,-24421075.82092285,-25908277.51159668,-14995644.569396973,-27225158.69140625,-26950571.060180664,-27199832.916259766,-2230674.7436523438,-2151780.128479004,-2051212.7876281738,-26318546.295166016,-27812644.958496094,-28118228.912353516,-28094434.73815918,-2612199.544906616,-2025781.8698883057,-24999444.96154785,-28443189.62097168,-27656761.169433594
0.47,63043491.36352539,77140968.3227539,67722595.21484375,54234649.658203125,61406246.185302734,4508628.845214844,5782574.653625488,5960752.964019775,31571609.497070312,33810867.30957031,25809400.55847168,26071302.41394043,26730127.334594727,-6428787.708282471,2936145.067214966,28262809.75341797,29232448.57788086,14633233.070373535,24919912.338256836,24388229.370117188,25226625.442504883,25963920.59326172,-5819336.414337158,15124.574303627014,19537460.327148438,12184439.659118652,-3007103.443145752,1984956.0260772705,1647647.500038147,3648977.279663086,4936416.149139404,-5378969.669342041,-655090.8088684082,-1217732.310295105,19170780.181884766,4708035.469055176,1733175.9929656982,-11249949.45526123,3629190.9217834473,-22376390.45715332,-5422611.713409424,-1196203.2318115234,-1192242.5031661987,-1521365.1657104492,-19765287.399291992,-21156944.274902344,-11519004.821777344,-22329473.4954834,-22164524.07836914,-22575691.22314453,-3682647.466659546,-3648134.469985962,-3572939.63432312,-21612232.208251953,-22923257.82775879,-23118446.350097656,-23166580.200195312,-3954000.234603882,-3588911.294937134,-20220157.623291016,-23487205.505371094,-22698209.762573242
0.475,23001789.093017578,38861293.79272461,33690464.01977539,34818889.61791992,43331577.30102539,-498317.6589012146,545653.760433197,762408.4949493408,23367406.845092773,26567420.959472656,18982095.71838379,19165815.353393555,19922960.28137207,-9479437.828063965,-1633328.0801773071,19965244.29321289,23701730.728149414,11348301.887512207,18708744.049072266,18091995.239257812,18737115.85998535,18961563.110351562,-8807246.208190918,-3709475.27885437,15517156.600952148,9344908.714294434,-3772008.8958740234,2004386.6634368896,1698848.2475280762,3600257.158279419,4943815.7081604,-8325065.612792969,-3741262.674331665,-4273382.663726807,17226415.634155273,4529860.019683838,1635073.6618041992,-8605528.831481934,3569587.7075195312,-17482879.638671875,-8470804.214477539,-4123776.435852051,-4143029.21295166,-4334801.67388916,-15795268.058776855,-16932651.51977539,-8753045.082092285,-17659795.7611084,-17397298.81286621,-18027179.718017578,-6137691.497802734,-6313544.750213623,-6197178.840637207,-17384786.60583496,-18054450.98876953,-18467838.287353516,-18364011.764526367,-6352590.084075928,-6152470.111846924,-16092472.076416016,-18780521.392822266,-18127326.96533203
0.48,3539894.1040039062,19366216.6595459,16946876.525878906,22377412.796020508,32418704.986572266,-5597870.349884033,-4644004.344940186,-4386059.284210205,15846705.436706543,19357305.5267334,12747895.240783691,12851109.504699707,13667039.87121582,-15136645.317077637,-6494489.669799805,13244103.43170166,18484018.325805664,7871083.736419678,12958726.88293457,12457138.061523438,12752046.585083008,12739409.446716309,-14437334.060668945,-8149328.231811523,10493399.620056152,5690448.760986328,-5054977.893829346,1510137.2003555298,1377260.0889205933,1810098.0520248413,2492510.0803375244,-13968002.319335938,-7891307.830810547,-8493745.803833008,13532119.750976562,3266029.3579101562,1355370.7599639893,-8251147.270202637,1688673.973083496,-17409120.559692383,-14106423.377990723,-8314431.190490723,-8247536.659240723,-8433262.825012207,-16196601.867675781,-17116243.362426758,-8246682.167053223,-17799192.428588867,-17368877.410888672,-18084632.873535156,-9938107.49053955,-10344708.442687988,-10094511.985778809,-17592018.127441406,-17952901.84020996,-18599939.346313477,-18277118.682861328,-10174692.153930664,-9945503.234863281,-16405603.408813477,-18848266.6015625,-18265378.952026367
0.485,-9747492.790222168,5149930.477142334,5304782.867431641,11435019.493103027,23553956.985473633,-12156364.440917969,-11247024.536132812,-11036696.434020996,7836752.414703369,10774635.314941406,7199064.7315979,7224956.035614014,7914738.178253174,-21248214.721679688,-12798673.629760742,6740165.233612061,12162867.546081543,2657479.5246124268,7710042.953491211,7426003.932952881,7501790.0466918945,7246264.934539795,-20437910.079956055,-14350323.677062988,4933591.842651367,678116.6791915894,-7947749.614715576,986864.8648262024,969324.7079849243,-399881.4523220062,-784428.2984733582,-20174150.466918945,-13818264.00756836,-14504378.318786621,9817444.801330566,1388797.1639633179,1135823.369026184,-7855309.963226318,-585121.9296455383,-21187791.82434082,-20073945.999145508,-14373396.873474121,-14120081.901550293,-14427412.986755371,-19257629.39453125,-20132707.595825195,-7828524.589538574,-21402666.091918945,-21063018.798828125,-21578880.310058594,-15775192.260742188,-16239145.278930664,-15925717.3538208,-20664047.241210938,-21546987.533569336,-22113189.697265625,-21747781.75354004,-16018602.37121582,-15686031.341552734,-19440044.403076172,-22366941.452026367,-21664276.123046875
0.49,-24314338.68408203,-10366909.02709961,-8504487.991333008,1311448.2164382935,13888823.509216309,-17779781.341552734,-16975559.23461914,-16875066.75720215,1568920.7315444946,3366677.761077881,2899977.684020996,2910267.114639282,3359040.7371520996,-25464365.005493164,-18160322.189331055,1112982.7499389648,6469079.01763916,-2143165.8267974854,3597477.912902832,3338813.7817382812,3564301.013946533,2841941.8334960938,-24566600.799560547,-19611137.39013672,683589.6372795105,-3372642.2786712646,-10819523.811340332,902129.2328834534,815324.068069458,-1310667.5148010254,-2759483.3374023438,-24589744.567871094,-18800331.115722656,-19494855.880737305,7743710.041046143,28153.622522950172,1083122.1342086792,-5092377.662658691,-1523050.7850646973,-23487955.09338379,-24185567.85583496,-19414022.44567871,-18998334.884643555,-19403495.78857422,-20415847.778320312,-21360378.26538086,-5183252.334594727,-23294557.571411133,-23293342.59033203,-23479011.53564453,-20769840.240478516,-21079895.01953125,-20868438.720703125,-21888580.322265625,-23670127.868652344,-23940584.182739258,-23733278.274536133,-20944677.352905273,-20590944.290161133,-20604642.868041992,-24231395.721435547,-23375644.68383789
0.495,-27357192.993164062,-15440893.173217773,-15131870.26977539,572340.0712013245,9188863.754272461,-16590618.133544922,-15840737.342834473,-15842252.731323242,2279922.4853515625,3070256.233215332,1926280.0216674805,2038328.8860321045,2279241.5618896484,-28241720.19958496,-16945306.7779541,1577140.212059021,6374219.89440918,-1797512.8889083862,2791141.7484283447,2259599.447250366,2830897.808074951,1635640.1443481445,-27409595.489501953,-18326030.731201172,1359247.4460601807,-2061796.6651916504,-10374931.335449219,1079726.9344329834,835198.5812187195,-824524.9390602112,-3130519.6285247803,-27537248.611450195,-17639337.53967285,-18289226.531982422,8473153.114318848,364134.7289085388,997991.3234710693,-1816157.9370498657,-1057703.7334442139,-21597599.029541016,-27078254.69970703,-18248420.71533203,-17782299.041748047,-18164308.547973633,-18124097.82409668,-19115915.298461914,-1995185.7328414917,-21230545.043945312,-21388624.19128418,-21473701.47705078,-19708293.914794922,-19839414.596557617,-19739889.14489746,-19530099.868774414,-21757520.67565918,-21863248.825073242,-21797443.389892578,-19797128.677368164,-19506679.53491211,-18385784.149169922,-22146827.697753906,-21333557.12890625
0.5,-12481689.453125,-3599251.2702941895,-7381332.874298096,11658679.962158203,14108668.327331543,-7579570.770263672,-6736647.605895996,-6795364.856719971,9863866.806030273,10395611.763000488,4802603.721618652,5078164.577484131,5207237.720489502,-29493270.874023438,-8115245.819091797,9890302.658081055,12485696.792602539,3807338.4761810303,5798826.217651367,4962625.026702881,5674673.557281494,4381721.019744873,-28806861.877441406,-9614959.716796875,7934577.465057373,4744707.107543945,-6412674.427032471,1048008.6803436279,754328.4893035889,-62186.47211790085,-2429500.102996826,-28812339.782714844,-9470582.008361816,-10087400.436401367,11976238.250732422,2475905.656814575,746204.7338485718,-1375409.722328186,-279151.3502597809,-17825448.989868164,-28580986.02294922,-10098766.326904297,-9676192.283630371,-9966278.076171875,-14674892.42553711,-15666778.564453125,-1500801.3248443604,-17640405.654907227,-17544052.124023438,-17842973.709106445,-11684112.548828125,-11796193.12286377,-11654549.598693848,-15938119.888305664,-17977531.43310547,-18182174.682617188,-18081348.419189453,-11747247.695922852,-11516421.3180542,-15091434.478759766,-18406324.38659668,-17772245.407104492
0.505,1783387.4225616455,9893730.163574219,4125617.9809570312,22205318.450927734,23132472.99194336,1609467.5064086914,2498962.879180908,2461900.472640991,16306863.784790039,17118345.260620117,8497374.534606934,8838239.669799805,8971399.307250977,-26018381.118774414,1079931.8552017212,18761184.692382812,18127918.243408203,8121815.6814575195,9431068.420410156,8587996.482849121,9114103.317260742,8180473.327636719,-25415695.190429688,-525107.2645187378,15790484.428405762,10578884.12475586,-3268074.9893188477,786042.0942306519,613338.7684822083,952571.5112686157,113396.7638015747,-25287303.924560547,-644938.2901191711,-1238288.164138794,16659687.042236328,4958778.858184814,576464.3549919128,-3004524.2309570312,829057.8722953796,-14949503.898620605,-25260498.046875,-1267308.9504241943,-913599.8487472534,-1159375.6675720215,-11916886.329650879,-12955166.816711426,-3027511.5966796875,-14970608.711242676,-14556708.335876465,-15044703.483581543,-2818624.258041382,-3027985.8112335205,-2779437.0651245117,-13178183.555603027,-14898262.023925781,-15301517.486572266,-15106803.894042969,-2909435.510635376,-2683695.3163146973,-12472399.711608887,-15473686.218261719,-14850539.207458496
