time,Fp1,Fpz,Fp2,AF3,AF4,F7,F5,F3,F1,Fz,F2,F4,F6,F8,FT7,FC5,FC3,FC1,FCz,FC2,FC4,FC6,FT8,T7,C5,C3,C1,Cz,C2,C4,C6,T8,TP7,CP5,CP3,CP1,CPz,CP2,CP4,CP6,TP8,P7,P5,P3,P1,Pz,P2,P4,P6,P8,PO7,PO5,PO3,POz,PO4,PO6,PO8,CB1,O1,Oz,O2,CB2
0.0,7857546.329498291,7216031.551361084,6285982.608795166,3487229.585647583,3640452.8617858887,281133.65173339844,287705.6300640106,280860.2452278137,2093578.577041626,2002952.0988464355,1590700.0303268433,1628208.041191101,1591946.6018676758,1107242.465019226,305783.86783599854,350941.9560432434,123837.37415075302,451150.92396736145,1595527.6489257812,1557999.9685287476,1575521.70753479,1622459.888458252,1078556.5376281738,257038.35487365723,-637491.1665916443,-610102.117061615,-342654.5858383179,-45577.32120156288,-35854.98407483101,857564.0916824341,1373450.517654419,1083021.1639404297,267803.6093711853,229466.33398532867,-311044.27576065063,502165.19832611084,-83265.43122529984,165084.70475673676,806653.6784172058,399116.72472953796,1085466.5040969849,225870.0430393219,235931.05375766754,259473.8006591797,344009.5782279968,341667.2348976135,171880.20050525665,385548.83003234863,387704.19359207153,376447.1113681793,275431.364774704,212620.12422084808,268912.49418258667,332481.5034866333,396821.5584754944,377128.3030509949,375880.50961494446,278530.38907051086,279879.1825771332,311663.9852523804,383974.6117591858,369553.6255836487
0.005,13089211.463928223,622001.7671585083,-10141987.800598145,-5340342.998504639,-2710684.299468994,-3097925.4245758057,-3435843.9445495605,-3722299.337387085,-2700444.221496582,-1445189.9528503418,-139529.37722206116,781157.910823822,-487713.9925956726,-13219885.82611084,-2584916.114807129,-3241930.9616088867,-4310110.569000244,-3613106.0123443604,-179503.54516506195,-1130700.945854187,-16929.207369685173,395890.2955055237,-13910472.869873047,-2698416.7098999023,-6422202.587127686,-5927995.681762695,-3700029.6115875244,-38057.42785334587,57718.26207637787,3303201.43699646,6242616.176605225,-13491498.947143555,-2603592.63420105,-3127065.658569336,-2790939.5694732666,-2187921.0472106934,-1337871.3130950928,759177.6251792908,2623854.875564575,2358979.7019958496,-13476973.533630371,-3162551.6414642334,-3204394.578933716,-2328622.817993164,2314640.2835845947,2885869.264602661,908094.1677093506,2084037.5423431396,1934507.8468322754,1851907.2532653809,-2103238.821029663,-3792535.3050231934,-2222011.089324951,2336050.510406494,2001853.7044525146,1711411.1185073853,1518187.9997253418,-2124269.485473633,-2507186.4128112793,2105011.224746704,1919080.0189971924,1752192.735671997
0.01,15931079.864501953,-246816.0092830658,-14734578.132629395,-7622422.695159912,-2343520.402908325,-3622147.32170105,-4081748.0087280273,-4403869.62890625,-4070701.5991210938,-1166399.2404937744,200412.67573833466,1558686.61403656,-82041.80747270584,-19302490.234375,-2918704.5097351074,-3375231.5044403076,-6430428.981781006,-6073406.219482422,290209.7702026367,-1139629.9600601196,507723.3910560608,1152349.1144180298,-20140384.674072266,-3070816.2784576416,-8090436.935424805,-8036764.144897461,-5787631.511688232,16931.546851992607,93599.02143478394,5127233.505249023,8319592.475891113,-19727231.979370117,-2941131.114959717,-3635189.2948150635,-3522502.899169922,-4257009.029388428,-1761407.732963562,580200.8509635925,4144897.4609375,3243093.490600586,-19672647.47619629,-3836376.905441284,-3635054.111480713,-2641492.8436279297,2931890.9645080566,3681648.2543945312,847218.5134887695,2800576.686859131,2560996.5324401855,2532036.066055298,-2273987.293243408,-4667706.01272583,-2408013.8206481934,2827038.526535034,2826693.296432495,2313591.241836548,2066138.505935669,-2226706.7432403564,-2807979.8221588135,2602291.1071777344,2550133.466720581,2396158.9336395264
0.015,16514749.526977539,3302426.815032959,-9206560.134887695,-4743464.946746826,2862825.1552581787,-3443454.9808502197,-3841989.517211914,-3985975.742340088,-2650927.0668029785,1625469.8038101196,1961370.825767517,3293121.814727783,2002754.2114257812,-18678676.60522461,-2874532.461166382,-2243815.1836395264,-6853194.236755371,-6782258.033752441,2224886.417388916,738335.907459259,2392233.13331604,3082998.752593994,-19335496.90246582,-2985331.7737579346,-8012748.718261719,-8164106.369018555,-6495296.001434326,41452.76919007301,24766.985327005386,5305187.702178955,6633562.088012695,-19194890.97595215,-2877058.0291748047,-3467552.661895752,-4004667.282104492,-5915000.438690186,-1501498.9376068115,-529279.1724205017,4317708.0154418945,2409055.709838867,-19035024.642944336,-3906773.567199707,-3392324.447631836,-2767744.541168213,1671362.280845642,2210649.4903564453,-217432.29031562805,1978683.4716796875,1647529.0060043335,1847349.0476608276,-2344003.200531006,-4557664.87121582,-2452097.177505493,1420058.3696365356,2167528.1524658203,1607092.261314392,1399606.8239212036,-2190919.876098633,-2757508.9931488037,1353491.9023513794,1718308.8064193726,1652792.0961380005
0.02,16167613.983154297,5174445.152282715,-4821498.394012451,-3132029.5333862305,5310334.205627441,-5723259.925842285,-6084726.333618164,-6078932.762145996,-1777737.9751205444,2587377.3097991943,2456796.169281006,3604216.0987854004,2587710.6189727783,-18812646.865844727,-5382164.95513916,-3591800.9281158447,-7358999.252319336,-6553823.947906494,2731073.6179351807,1286248.2070922852,2834313.154220581,3454973.2208251953,-19445466.995239258,-5380214.691162109,-10163602.828979492,-8836806.297302246,-6320190.906524658,25157.900527119637,-41302.34569311142,3452711.343765259,2679132.6999664307,-19398168.563842773,-5266290.187835693,-5795290.946960449,-5997682.094573975,-7276191.711425781,-1243098.258972168,-1885900.4974365234,2524726.390838623,285201.9965648651,-19113676.071166992,-6380226.135253906,-5870341.777801514,-5361980.91506958,-614390.0156021118,-346340.0900363922,-1604411.244392395,-8934.532292187214,-451277.4348258972,-4171.529319137335,-4918046.951293945,-6849282.264709473,-5049260.139465332,-823142.8265571594,172932.26718902588,-229350.58176517487,-431052.89340019226,-4756855.010986328,-5198934.078216553,-796108.9015007019,-208787.739276886,-293454.0808200836
0.025,15952771.186828613,3225929.7370910645,-6973401.069641113,-4925762.176513672,1939195.2753067017,-8423350.33416748,-8846355.438232422,-8867987.632751465,-2682981.014251709,288410.36558151245,329489.0522956848,1372232.0795059204,182439.34214115143,-21965047.83630371,-8163309.097290039,-5740628.719329834,-7660847.6638793945,-5803278.923034668,524439.811706543,-933518.3501243591,564034.2831611633,1139602.3035049438,-22727243.423461914,-8116127.014160156,-12543522.834777832,-9006659.507751465,-5397051.811218262,145191.93768501282,113497.5478053093,1019549.9658584595,-527172.0886230469,-22538476.943969727,-7849533.0810546875,-8549769.401550293,-7527253.6277771,-7442750.453948975,-1191711.664199829,-2435639.8582458496,134752.3033618927,-1561512.1126174927,-22234815.59753418,-9149810.791015625,-8875131.607055664,-8117915.153503418,-2085876.703262329,-1919941.4253234863,-2173297.40524292,-1807219.9821472168,-2210900.068283081,-1788838.9825820923,-7614359.378814697,-9680896.759033203,-7770812.98828125,-2155100.3456115723,-1694325.9239196777,-1945319.414138794,-2172420.2632904053,-7571084.499359131,-7888901.233673096,-2175347.5666046143,-1829275.6080627441,-2004495.1438903809
0.03,17818433.76159668,2543840.4083251953,-9343370.43762207,-5517877.578735352,-2012479.0668487549,-7038010.120391846,-7491165.637969971,-7620940.685272217,-2957429.1706085205,-1901545.1669692993,-2616037.8456115723,-1578734.040260315,-3025224.6856689453,-23265048.98071289,-6673443.31741333,-3836644.6495056152,-6195457.458496094,-4468747.138977051,-2382578.134536743,-3760553.3599853516,-2426256.8950653076,-1784263.1340026855,-23937360.763549805,-6791457.176208496,-10508834.838867188,-6257703.3042907715,-3875152.349472046,474366.9629096985,471843.2426452637,278700.88815689087,-752363.5029792786,-23733081.817626953,-6240467.548370361,-7189045.9060668945,-5564382.076263428,-5783533.096313477,-1058333.2777023315,-1722758.0547332764,-501547.634601593,-1716236.2337112427,-23534011.840820312,-7772739.410400391,-7549408.912658691,-6715001.583099365,-1521873.3549118042,-1365541.8157577515,-1402482.8672409058,-2111438.035964966,-2220928.66897583,-2166712.0456695557,-6091604.232788086,-8496038.436889648,-6187241.077423096,-1624264.3594741821,-1880704.8797607422,-2218423.60496521,-2379729.0325164795,-6173647.403717041,-6438515.663146973,-1750071.406364441,-1884867.3105239868,-2007955.3127288818
0.035,24335130.69152832,8740250.587463379,-3925930.5000305176,-700753.0927658081,3943.903837352991,-2442985.773086548,-2796813.726425171,-2937803.268432617,-98667.11497306824,-342101.93157196045,-3374180.555343628,-2317171.812057495,-3710045.337677002,-19800170.8984375,-1956133.246421814,1835510.492324829,-3324771.4042663574,-2809743.1659698486,-3042585.611343384,-4155832.290649414,-3129830.5988311768,-2362123.727798462,-20168518.06640625,-2402586.4601135254,-5749289.035797119,-2187282.085418701,-2542737.2455596924,747574.3889808655,676262.6767158508,1643075.8237838745,1206645.0119018555,-20217683.792114258,-1634812.4742507935,-2638272.523880005,-1646700.0246047974,-3644855.02243042,-798009.6936225891,-721384.1676712036,997598.40965271,-770993.709564209,-20098653.79333496,-3216549.6349334717,-2784417.8676605225,-2273541.212081909,-13884.258456528187,61219.93809938431,-330475.50916671753,-1341686.487197876,-1152841.6872024536,-1479520.320892334,-1528844.5949554443,-4040853.977203369,-1553308.4869384766,-341874.8676776886,-888905.942440033,-1479104.0420532227,-1463354.5875549316,-1642028.3317565918,-1955105.7815551758,-564680.7551383972,-1025549.1733551025,-893950.5815505981
0.04,34390041.35131836,19871042.251586914,7731919.288635254,6975866.317749023,7834475.994110107,-1027788.9966964722,-1258909.5830917358,-1290418.028831482,4816676.139831543,4295986.652374268,-1063858.8666915894,-41705.526411533356,-1183471.6796875,-16188804.626464844,-587469.1605567932,4799615.383148193,-1586948.5139846802,-1496944.1890716553,-845895.1711654663,-1709769.84500885,-858909.6665382385,-28638.00711929798,-16491157.531738281,-1298353.7912368774,-5524516.582489014,-1322773.4565734863,-2176755.666732788,696511.3878250122,498874.7239112854,2956063.985824585,1973934.531211853,-16718364.715576172,-566789.2098426819,-1396923.8996505737,-945108.6521148682,-3379373.073577881,-702611.2079620361,-1280778.5272598267,2299037.218093872,-1234514.1172409058,-16566371.91772461,-1906411.2901687622,-1357031.4645767212,-1144663.0954742432,-424847.7518558502,-473571.21109962463,-917981.207370758,-1778359.4131469727,-1676051.0206222534,-2016105.8902740479,-351194.0836906433,-2705187.0822906494,-456666.58878326416,-917980.6709289551,-1336432.933807373,-2061185.8367919922,-1919323.6827850342,-432556.3907623291,-854288.9356613159,-1199498.4149932861,-1719623.8040924072,-1337146.282196045
0.045,41261135.10131836,27222387.313842773,15908417.701721191,11033343.315124512,15143392.562866211,-6102070.8084106445,-6347322.463989258,-6285200.595855713,8171096.8017578125,8239455.223083496,2336997.0321655273,3213475.227355957,2192917.3469543457,-18272378.92150879,-5864648.818969727,792949.7361183167,-2643141.984939575,-940936.7442131042,2206415.1763916016,1351072.7882385254,2334186.315536499,3117041.1109924316,-18917566.299438477,-6595660.68649292,-12408053.398132324,-4814378.73840332,-2644957.3040008545,488416.1651134491,233323.43995571136,2292630.195617676,-638175.4279136658,-18949975.967407227,-6113991.737365723,-6751748.561859131,-5344497.6806640625,-5561494.35043335,-794058.2633018494,-4001221.6567993164,1422506.9284439087,-4583816.5283203125,-18771211.624145508,-7109408.378601074,-6733366.012573242,-6416604.042053223,-4147326.946258545,-4207454.204559326,-3758250.2365112305,-4939686.298370361,-5315507.411956787,-5320412.635803223,-5663480.281829834,-7852098.46496582,-5974890.232086182,-4624556.541442871,-4795726.776123047,-5442024.707794189,-5367613.315582275,-5715191.841125488,-6221979.141235352,-4859673.023223877,-5346251.010894775,-4927779.674530029
0.05,38831047.05810547,23987695.693969727,13155432.70111084,8575413.703918457,16359899.520874023,-13117031.09741211,-13485911.36932373,-13459694.862365723,7917860.03112793,9135396.957397461,4278055.667877197,4972198.009490967,3882999.1817474365,-24578899.383544922,-13016232.49053955,-6489564.895629883,-5460425.37689209,-1064191.460609436,3916742.5632476807,2917445.182800293,4109940.528869629,4800971.984863281,-25564933.77685547,-13551444.053649902,-20097297.66845703,-8800391.19720459,-3376546.621322632,514738.61932754517,305387.6459598541,653180.3607940674,-4519318.103790283,-25272428.512573242,-13325184.82208252,-13910960.19744873,-10669407.844543457,-8255743.026733398,-739919.8412895203,-6962988.85345459,-450640.1717662811,-8764751.434326172,-25188159.942626953,-14171035.766601562,-14025693.893432617,-13405312.538146973,-8735406.875610352,-8682808.876037598,-6813390.731811523,-9006179.809570312,-9812231.063842773,-9483256.340026855,-12736149.787902832,-14847425.46081543,-13143537.521362305,-9177743.911743164,-9101193.42803955,-9652207.374572754,-9769104.957580566,-12744537.353515625,-13282361.030578613,-9241960.525512695,-9729092.597961426,-9453257.56072998
0.055,28767011.642456055,11819875.717163086,1136066.6751861572,2801017.999649048,11527427.673339844,-15441295.623779297,-15858922.004699707,-15976743.698120117,5447958.469390869,7776948.45199585,3836492.3000335693,4516374.111175537,3345798.2540130615,-28182121.27685547,-15242981.910705566,-10098366.737365723,-7624833.583831787,-1510352.9691696167,3634325.9811401367,2617345.8099365234,3781724.9298095703,4398018.836975098,-29126802.444458008,-15537997.245788574,-21354902.267456055,-9502290.725708008,-4125930.7861328125,823165.9531593323,631433.4273338318,418414.74175453186,-5620849.132537842,-28823190.689086914,-15419921.875,-16047525.405883789,-11993778.228759766,-9268717.765808105,-468089.4911289215,-7622312.068939209,-747683.7635040283,-10124030.113220215,-28848972.32055664,-16376224.517822266,-16266056.060791016,-15530097.961425781,-10229530.334472656,-10108850.479125977,-7466437.339782715,-10398899.07836914,-11227062.225341797,-10805518.15032959,-14921140.670776367,-16943643.56994629,-15198298.454284668,-10734461.784362793,-10428657.531738281,-11024626.731872559,-11254936.218261719,-14858943.939208984,-15414255.142211914,-10647850.036621094,-11111355.781555176,-10957354.545593262
0.06,19191738.12866211,-595950.0670433044,-11223574.6383667,-1130111.575126648,5422779.083251953,-12114992.141723633,-12426580.429077148,-12697335.243225098,3490760.326385498,6085651.874542236,1884380.9366226196,2783079.8625946045,1621380.2099227905,-25850730.895996094,-11704065.322875977,-7827243.328094482,-7477392.673492432,-1628840.5656814575,2039284.4676971436,1206300.0202178955,2152956.247329712,2691900.7301330566,-26551282.88269043,-11866106.033325195,-16320301.055908203,-7095041.275024414,-4553118.2289123535,1080673.4561920166,746467.649936676,1653864.7413253784,-3403074.9797821045,-26542112.350463867,-11709852.21862793,-12373590.469360352,-9220145.225524902,-8267192.840576172,-336916.80431365967,-5952874.660491943,589157.4025154114,-7930085.182189941,-26530258.178710938,-12825825.691223145,-12636367.797851562,-11993824.95880127,-7908263.683319092,-7860045.433044434,-5715932.846069336,-8231718.063354492,-8778574.94354248,-8456131.935119629,-11371985.43548584,-13324992.179870605,-11476007.461547852,-8431044.578552246,-8073458.671569824,-8735897.064208984,-8903120.994567871,-11307588.577270508,-11878687.858581543,-8382513.999938965,-8740410.804748535,-8590933.799743652
0.065,17900716.78161621,-3483042.2401428223,-13865594.863891602,-316268.26524734497,3740841.6271209717,-7389321.327209473,-7576140.880584717,-7931821.823120117,3611278.295516968,5484479.904174805,232049.27146434784,1343591.9284820557,232352.42068767548,-21042495.727539062,-6913668.632507324,-3137401.342391968,-5108505.725860596,-615898.7879753113,524109.95960235596,-111353.09934616089,715651.6313552856,1177224.6360778809,-21691692.352294922,-7096676.826477051,-10647013.664245605,-3929452.419281006,-3824488.878250122,1082785.8448028564,527783.5130691528,2150345.0870513916,-1275976.4194488525,-21853475.57067871,-6834887.504577637,-7543516.159057617,-5748792.1714782715,-6382716.178894043,-515745.5801963806,-4324377.536773682,1218434.3338012695,-5076509.952545166,-21702436.447143555,-7962269.7830200195,-7762728.691101074,-7202150.821685791,-4867510.795593262,-4910768.985748291,-3960842.6094055176,-5301235.675811768,-5598157.4058532715,-5436908.721923828,-6498245.716094971,-8573781.967163086,-6604432.582855225,-5226516.7236328125,-5113820.0759887695,-5690060.615539551,-5707615.852355957,-6565201.282501221,-7123219.4900512695,-5361699.104309082,-5600640.296936035,-5438145.637512207
0.07,28129190.44494629,7775176.048278809,-2313044.548034668,5375767.230987549,9201519.012451172,-4408333.778381348,-4615259.170532227,-4966565.6089782715,6033030.986785889,7077113.151550293,663099.8849868774,1756881.594657898,658309.1020584106,-17524511.337280273,-4078200.8171081543,391461.90881729126,-2130520.5821990967,1652557.4922561646,749614.0003204346,193383.55958461761,1050265.908241272,1552542.805671692,-18333896.63696289,-4380628.58581543,-8124994.277954102,-1459766.8647766113,-1738949.179649353,985758.8410377502,373393.62502098083,1321630.2394866943,-958953.4401893616,-18340904.235839844,-4021245.9564208984,-4849678.039550781,-3628661.1557006836,-4677132.606506348,-664368.3910369873,-4054456.2339782715,480247.3485469818,-3699757.0991516113,-18110370.635986328,-5058267.593383789,-4881699.562072754,-4333083.629608154,-3392011.4040374756,-3395382.6427459717,-3522364.854812622,-3856622.6959228516,-4055165.7676696777,-4066298.007965088,-3555349.826812744,-5901174.068450928,-3775841.474533081,-3544911.3845825195,-3754866.8384552,-4153390.407562256,-4100439.0716552734,-3730553.388595581,-4291843.414306641,-3805161.952972412,-3970128.7746429443,-3905211.925506592
0.075,46583934.78393555,27729040.145874023,17229866.02783203,13764969.825744629,18852603.912353516,-2579419.8513031006,-2928780.7941436768,-3209441.4234161377,10055785.179138184,10909822.463989258,3386133.6708068848,4393896.579742432,3218173.7422943115,-14568650.245666504,-2412844.181060791,2456563.4727478027,-545172.3337173462,3963826.6563415527,3211365.9381866455,2700828.790664673,3492005.3482055664,4235686.302185059,-15447176.933288574,-2813939.5713806152,-8017309.188842773,-136725.94726085663,263222.8136062622,996120.2144622803,577800.452709198,1475912.2133255005,172585.33835411072,-15266076.08795166,-2416651.964187622,-3416312.4561309814,-2379316.0915374756,-3630275.7263183594,-471080.63101768494,-3731767.6544189453,696367.9790496826,-2337322.71194458,-15020096.778869629,-3443197.250366211,-3195740.222930908,-2677630.662918091,-2064120.2926635742,-1937474.4892120361,-3052802.562713623,-2554411.1728668213,-2680927.9918670654,-2820333.71925354,-1922524.2137908936,-4370220.184326172,-2142813.4441375732,-2186128.616333008,-2411099.433898926,-2735651.731491089,-2788787.603378296,-1965302.2289276123,-2641683.578491211,-2416091.4421081543,-2490717.1726226807,-2602940.797805786
0.08,63378211.975097656,43204063.415527344,31252029.418945312,20754848.48022461,25761825.561523438,-875465.8102989197,-1335585.594177246,-1509763.1216049194,13711721.420288086,14546561.241149902,6112977.027893066,7261950.492858887,5931704.521179199,-10447981.834411621,-742715.2395248413,3935034.990310669,-1163891.6730880737,4627622.604370117,5921190.26184082,5506082.534790039,6030868.5302734375,7059688.091278076,-11179512.977600098,-1129358.7684631348,-8367665.2908325195,-440185.21904945374,424364.3283843994,1113816.8573379517,914228.3201217651,4088339.8056030273,4215035.915374756,-11083205.223083496,-764339.26820755,-1886959.3143463135,-1675247.9076385498,-3545861.4826202393,-138782.3075056076,-1813591.1226272583,3361185.312271118,939589.1427993774,-10776707.649230957,-1919651.0314941406,-1566446.1851119995,-1079210.9966278076,972941.6966438293,1171172.9764938354,-1130624.532699585,592741.7874336243,580827.4149894714,452369.2727088928,-418634.3848705292,-2666069.507598877,-504948.4372138977,737504.8995018005,911603.8084030151,539297.1038818359,245034.42645072937,-181670.32301425934,-1022154.5696258545,614856.9583892822,711528.7780761719,501528.14388275146
0.085,67281219.48242188,44006118.77441406,30765573.501586914,22313375.47302246,25158067.70324707,-574085.0567817688,-1042626.5001296997,-1074753.761291504,14259065.628051758,14444095.611572266,5884792.804718018,7274051.189422607,5860066.890716553,-7152647.018432617,-413306.8919181824,4157175.5409240723,-3128144.0258026123,3184138.536453247,5871531.009674072,5499883.651733398,5824451.446533203,6892903.3279418945,-7701582.908630371,-696266.9491767883,-8932228.088378906,-2359632.730484009,-1165761.113166809,1252411.6039276123,1023507.4758529663,6983059.406280518,8219654.083251953,-7842379.570007324,-399232.4471473694,-1527297.854423523,-2559777.9750823975,-4570550.918579102,-40792.40933060646,698587.4176025391,6296720.027923584,4532298.564910889,-7455987.930297852,-1684072.6137161255,-1359533.3099365234,-804767.9662704468,4036432.7430725098,4219948.768615723,1225241.1842346191,4103953.8383483887,4148250.5798339844,4166262.626647949,-171802.22272872925,-2218427.6580810547,-224029.64532375336,3732594.9668884277,4456637.859344482,4084118.8430786133,3586246.967315674,123141.76559448242,-701343.2383537292,3721292.495727539,4032660.961151123,3881650.924682617
0.09,56296405.79223633,32534770.965576172,19682380.67626953,18065336.227416992,18976230.62133789,-2914458.5132598877,-3364147.901535034,-3200212.9554748535,11025856.971740723,10192406.65435791,2519471.4069366455,3811151.9813537598,2555217.981338501,-7607486.724853516,-2757628.4408569336,2167129.2781829834,-5062219.142913818,1001358.7474822998,2605179.0714263916,2096264.6007537842,2572613.23928833,3372551.441192627,-8099119.186401367,-2960575.819015503,-10243402.481079102,-4531662.464141846,-2730513.095855713,1341641.902923584,898281.2166213989,7322711.944580078,8209895.133972168,-8323280.334472656,-2732487.916946411,-3742044.21043396,-5195308.685302734,-6154656.887054443,-197545.75192928314,1775957.5843811035,6667845.726013184,5341588.020324707,-7967566.49017334,-3987319.7078704834,-3832119.4648742676,-3140233.5166931152,4153563.976287842,4333762.645721436,2132707.5958251953,4881369.113922119,4857992.649078369,5016016.960144043,-2396511.7931365967,-4551334.857940674,-2637881.9942474365,3856433.629989624,4984145.641326904,4717264.175415039,4242954.730987549,-2402319.90814209,-2965328.9318084717,3962918.996810913,4479624.271392822,4440017.223358154
0.095,41326042.17529297,20201612.47253418,8921442.031860352,12112675.666809082,13000505.447387695,-5730223.655700684,-6204049.110412598,-5843027.114868164,7336954.593658447,5847155.570983887,-885927.4387359619,-36932.118237018585,-1004957.5567245483,-9835062.980651855,-5552968.502044678,-396497.9946613312,-6011563.777923584,148861.3784313202,-883268.5351371765,-1631002.3069381714,-785190.1054382324,-282926.3210296631,-10355474.472045898,-5767367.362976074,-11417820.930480957,-4920458.793640137,-2907946.5866088867,1228565.5736923218,724527.2397994995,5882283.2107543945,5804295.063018799,-10479214.668273926,-5590981.483459473,-6406075.477600098,-7061140.537261963,-6944842.81539917,-412485.6889247894,1463247.8952407837,5255619.525909424,3864184.856414795,-10241497.039794922,-6676074.028015137,-6665574.550628662,-5882332.801818848,2204827.7854919434,2420264.720916748,1764609.694480896,3361650.228500366,3273866.653442383,3442163.9442443848,-5022109.031677246,-7426916.599273682,-5473070.14465332,1873898.983001709,3173522.2339630127,2960090.160369873,2751988.649368286,-5346275.329589844,-5683563.709259033,2053984.4036102295,2786822.79586792,2773073.673248291
0.1,34376201.62963867,14172216.415405273,3638837.8143310547,8657756.805419922,10112595.558166504,-5424262.046813965,-5922163.009643555,-5506673.812866211,7201956.748962402,5189077.377319336,-1824069.857597351,-1184166.1930084229,-2123631.9541931152,-8983490.943908691,-5136629.104614258,-435836.8515968323,-5285989.761352539,1666496.6344833374,-1890678.1673431396,-2752422.094345093,-1750456.5715789795,-1293515.3245925903,-9536896.705627441,-5417160.0341796875,-10689941.40625,-2593958.3778381348,-1793578.3863067627,763563.9309883118,502311.70654296875,5548349.380493164,5849577.903747559,-9579290.390014648,-5227828.025817871,-5887719.631195068,-5377726.078033447,-5812640.190124512,-669102.3707389832,1412518.1436538696,4954517.841339111,3605284.6908569336,-9390228.271484375,-6192903.995513916,-6192696.094512939,-5378921.5087890625,2005754.4708251953,2204047.679901123,1726034.40284729,3069270.8492279053,3085283.5178375244,3137058.734893799,-4571527.95791626,-6972404.479980469,-4998932.361602783,1609357.237815857,2880208.0154418945,2561249.017715454,2634240.15045166,-4863101.482391357,-5293923.854827881,1712079.405784607,2648296.117782593,2579683.780670166
0.105,36807453.15551758,13713443.756103516,2487640.380859375,8266633.987426758,9481307.029724121,-2434638.500213623,-2892768.8598632812,-2626577.377319336,10113564.491271973,7131599.426269531,-1213591.456413269,-229709.99777317047,-1546084.1655731201,-5338077.545166016,-2052837.84866333,2246830.701828003,-2633671.283721924,4751220.703125,-1162026.286125183,-1906782.9847335815,-1154303.1930923462,-541475.6536483765,-5930015.563964844,-2398337.6026153564,-8172316.551208496,1260527.3723602295,-127613.73817920685,129225.01564025879,158555.7609796524,6366517.543792725,7951403.617858887,-5973228.931427002,-2098237.7529144287,-2751516.342163086,-1153189.5399093628,-3219596.3859558105,-1030094.8619842529,1729756.8321228027,5830064.77355957,4898138.999938965,-5761577.129364014,-3130784.749984741,-3034701.8241882324,-2204737.901687622,3791020.393371582,3894016.5042877197,2020092.9641723633,4406525.611877441,4653123.85559082,4527067.6612854,-1574963.927268982,-3725664.3772125244,-1807844.1619873047,3428978.681564331,4476366.5199279785,4039563.6558532715,4155083.179473877,-1603896.975517273,-2315441.608428955,3336639.404296875,4294334.888458252,4194262.5045776367
0.11,45569572.44873047,21223321.91467285,9306481.36138916,10461915.969848633,12569608.688354492,-1667062.1633529663,-2059107.3036193848,-1964491.367340088,11851116.180419922,8302244.186401367,-773633.062839508,595236.1822128296,-1077509.1648101807,-4960305.690765381,-1369335.5321884155,4263393.402099609,909134.8052024841,7579581.260681152,-570558.9652061462,-1102459.3114852905,-712617.814540863,6183.465477079153,-5580484.867095947,-1772706.2702178955,-6501248.836517334,4160803.3180236816,1452343.9407348633,-180613.54756355286,-123626.56742334366,5414744.3771362305,6104436.39755249,-5596277.713775635,-1374152.421951294,-2119168.0431365967,1049222.1117019653,-1261456.6087722778,-1301626.443862915,529405.1170349121,4965462.684631348,3204137.3252868652,-5447626.113891602,-2569815.6356811523,-2337813.8542175293,-1564296.1263656616,2617068.7675476074,2672995.8057403564,793228.4474372864,2827941.89453125,3200056.791305542,2914812.3264312744,-1005293.607711792,-3086944.818496704,-1168325.662612915,2374783.515930176,3048160.0761413574,2676147.699356079,2612571.4778900146,-964408.9341163635,-1756393.0749893188,2171526.4320373535,2843160.629272461,2767981.52923584
0.115,65473785.400390625,46856071.47216797,34906265.25878906,17806686.401367188,24696592.330932617,-5716865.062713623,-6102219.104766846,-5930016.994476318,11173779.487609863,9024954.795837402,808750.6890296936,1971036.1957550049,461971.1637496948,-10167990.684509277,-5665829.181671143,3728644.1326141357,3624730.110168457,9171352.38647461,905540.4663085938,446904.4506549835,784332.3349952698,1480650.1865386963,-10725553.512573242,-6121143.341064453,-7470044.6128845215,4633489.13192749,2387352.228164673,86828.17220687866,-55571.39590382576,2019513.6070251465,-1500771.0456848145,-10693286.895751953,-5834608.07800293,-6581641.19720459,-1620322.2274780273,-1771641.1352157593,-1197198.987007141,-2932576.894760132,1634817.6002502441,-4171835.422515869,-10677786.827087402,-7076303.482055664,-6721852.779388428,-6148941.516876221,-4533275.604248047,-4370478.630065918,-2595286.3693237305,-4446600.437164307,-4201005.458831787,-4511079.788208008,-5472677.230834961,-7861898.899078369,-5802361.488342285,-4737627.5062561035,-4407361.030578613,-4588577.747344971,-4795029.640197754,-5671014.308929443,-6231936.454772949,-4869742.870330811,-4619188.30871582,-4669673.442840576
0.12,102506050.10986328,92805038.45214844,79850715.63720703,32931877.13623047,46649326.32446289,-10398797.035217285,-10828063.96484375,-10318302.154541016,12508507.72857666,13145258.903503418,6105550.765991211,6703629.493713379,5729789.733886719,-14346883.773803711,-10590164.184570312,3510522.6039886475,5161052.227020264,10330440.521240234,5852890.491485596,5233860.492706299,5886405.467987061,6583484.172821045,-14766683.578491211,-11071822.166442871,-9316018.104553223,3628722.1908569336,2419772.6249694824,579070.0912475586,282024.3239402771,-147790.1041507721,-7623771.667480469,-14805295.944213867,-11106608.390808105,-11708496.09375,-6741631.984710693,-4421308.517456055,-815728.9624214172,-6603041.648864746,-548361.9570732117,-12746965.408325195,-14754823.684692383,-12227285.385131836,-11830827.713012695,-11463018.417358398,-13252564.430236816,-12894877.433776855,-6129082.202911377,-13000605.583190918,-13012381.553649902,-13139898.300170898,-10701747.89428711,-13408832.550048828,-11209813.117980957,-13501540.184020996,-13261284.828186035,-13352050.78125,-13513617.515563965,-11118687.629699707,-11437598.22845459,-13552927.97088623,-13482693.672180176,-13527965.545654297
0.125,144958023.07128906,138462158.203125,122375839.23339844,51250148.77319336,67926216.12548828,-10158117.294311523,-10587710.3805542,-9790770.530700684,19584205.627441406,21469734.19189453,13725344.65789795,14199185.371398926,13494915.008544922,-10802713.394165039,-10482630.729675293,6780087.471008301,6658965.110778809,12314085.960388184,13231749.534606934,12367024.421691895,13363181.114196777,14179069.519042969,-11196165.084838867,-10987427.711486816,-9309123.992919922,3024653.673171997,2047324.4190216064,733659.2078208923,439838.55843544006,2050890.2072906494,-4966637.61138916,-11375097.274780273,-11263077.735900879,-11779114.723205566,-9805572.509765625,-7188114.643096924,-610237.9560470581,-8213920.593261719,1591220.9749221802,-15818463.325500488,-11063551.902770996,-12283389.0914917,-11968088.150024414,-11558979.988098145,-16769380.569458008,-16255910.873413086,-7700908.184051514,-16137392.044067383,-16296642.303466797,-16149307.250976562,-10969215.393066406,-13576178.550720215,-11418022.155761719,-16923137.664794922,-16474609.375,-16628799.438476562,-16706199.645996094,-11284908.294677734,-11639007.568359375,-17089923.858642578,-16776365.280151367,-16801786.422729492
0.13,166191894.53125,154859680.17578125,135486511.23046875,61818809.509277344,74608230.59082031,-6178306.579589844,-6538659.09576416,-5761910.438537598,28998830.795288086,29048187.255859375,18332206.72607422,19299749.37438965,18357765.197753906,-3188364.267349243,-6539606.57119751,11268317.222595215,8235453.6056518555,14829389.572143555,17932579.040527344,16975456.23779297,18044462.203979492,18984096.52709961,-3801662.6834869385,-7131859.77935791,-8206843.376159668,2976342.6780700684,2047994.613647461,432306.0214519501,174263.5816335678,6582172.393798828,3583540.439605713,-3925167.7989959717,-7357694.149017334,-8030000.686645508,-9785028.457641602,-8671582.221984863,-807506.8593025208,-8264757.15637207,6106137.275695801,-13190159.797668457,-3425498.7239837646,-8456893.920898438,-8288217.544555664,-7603641.510009766,-14722956.657409668,-14111536.979675293,-7855424.880981445,-13633285.522460938,-13758530.616760254,-13474452.018737793,-7322887.897491455,-9503151.893615723,-7531317.234039307,-14582175.254821777,-13813786.506652832,-13996394.157409668,-14155603.408813477,-7315893.173217773,-7917450.904846191,-14994679.45098877,-14216663.360595703,-14241289.138793945
0.135,153134552.00195312,135340011.5966797,115648124.69482422,58004474.63989258,64141937.255859375,-4916535.8543396,-5241234.302520752,-4676239.013671875,33362289.428710938,30646194.458007812,16908824.920654297,18293445.587158203,17073774.337768555,-993691.8616294861,-5239481.449127197,11699337.95928955,7959958.076477051,16059648.513793945,16752386.093139648,15916025.161743164,16856069.564819336,17791347.50366211,-1915220.4990386963,-5958364.009857178,-9350143.432617188,2004050.0164031982,2392131.0901641846,81903.56194972992,-194940.5074119568,9010329.246520996,8860202.78930664,-1735718.6079025269,-6036252.021789551,-6935553.073883057,-9350400.924682617,-9231307.983398438,-1105181.097984314,-8916260.719299316,8530162.811279297,-10809187.889099121,-1360643.744468689,-7286612.033843994,-7213672.637939453,-6344849.109649658,-12806256.294250488,-12118957.51953125,-8604963.302612305,-11385420.799255371,-11449274.063110352,-11232996.940612793,-6170198.917388916,-8057207.107543945,-6233329.772949219,-12472501.754760742,-11461359.024047852,-11518140.79284668,-11869736.671447754,-5936229.228973389,-6730103.492736816,-12997166.633605957,-11858841.896057129,-11996253.01361084
0.14,121196418.76220703,101095130.92041016,84363197.32666016,44096050.26245117,47219234.466552734,-8826176.643371582,-9247292.518615723,-8782382.96508789,29594635.009765625,26154153.82385254,12092644.691467285,13301460.266113281,12222916.603088379,-6118505.954742432,-9036672.592163086,7225395.679473877,4550622.940063477,14681545.25756836,12042462.348937988,11359539.985656738,12228472.709655762,13065070.152282715,-7102320.194244385,-9770366.668701172,-13275821.685791016,-263460.51692962646,2218362.0929718018,106575.53374767303,-166637.122631073,8444949.15008545,7592266.082763672,-6732059.001922607,-9907783.508300781,-10750082.969665527,-10181503.295898438,-9699457.168579102,-1067118.6447143555,-10402749.061584473,7842738.628387451,-11809973.71673584,-6599882.125854492,-11156581.87866211,-11068737.030029297,-10332518.577575684,-13987399.101257324,-13302740.097045898,-10057021.141052246,-12468471.52709961,-12582205.772399902,-12476357.460021973,-9942131.042480469,-11899813.652038574,-10094951.629638672,-13826671.600341797,-12624655.723571777,-12549259.185791016,-12963644.981384277,-9743921.279907227,-10531584.739685059,-14206480.979919434,-12909268.379211426,-13254915.237426758
0.145,93306022.64404297,73837059.0209961,60665149.6887207,28967264.17541504,34180435.18066406,-13144117.35534668,-13739922.523498535,-13195805.549621582,21059085.845947266,18685802.459716797,7666862.964630127,8489559.173583984,7780974.388122559,-10727135.65826416,-13220502.853393555,2408591.9857025146,-360433.75730514526,11108143.80645752,7606366.157531738,6952318.6683654785,7865105.628967285,8621466.636657715,-11396753.311157227,-13789940.83404541,-16445144.653320312,-2217999.6967315674,1022055.2682876587,511828.30333709717,313839.1077518463,7848873.138427734,5054795.742034912,-11262233.73413086,-14102257.72857666,-14557401.657104492,-10928462.028503418,-9954544.067382812,-662443.220615387,-10197831.153869629,7018607.139587402,-12328295.707702637,-11162710.189819336,-15164688.110351562,-14977287.292480469,-14531206.130981445,-14508501.052856445,-13991732.597351074,-9748812.675476074,-13004732.131958008,-13215365.409851074,-13138902.66418457,-13858973.503112793,-16047626.495361328,-14190621.376037598,-14708022.117614746,-13239227.294921875,-13212145.805358887,-13488794.326782227,-13874500.274658203,-14512807.846069336,-14837937.355041504,-13452982.902526855,-13926827.430725098
0.15,74535842.89550781,54953258.5144043,43655609.130859375,16933753.967285156,25291557.31201172,-12978941.917419434,-13669791.221618652,-13091147.422790527,12607636.451721191,10403399.467468262,3707384.3479156494,4557379.722595215,3962833.1661224365,-9107236.862182617,-12980379.104614258,731282.2341918945,-3976366.2815093994,6853941.917419434,3734626.054763794,3074070.692062378,3954556.703567505,4677079.200744629,-9334144.592285156,-13372592.92602539,-16165777.206420898,-2634628.5343170166,-600672.8410720825,930243.2537078857,781677.0672798157,8914322.853088379,5824685.096740723,-9658043.86138916,-13589270.59173584,-13702721.59576416,-10202291.488647461,-9389498.710632324,-271958.3213329315,-6244351.863861084,7980156.421661377,-7903707.981109619,-9418925.285339355,-14464443.20678711,-14147734.642028809,-13868582.725524902,-10097266.19720459,-9840105.056762695,-5756512.16506958,-8581687.927246094,-8786478.042602539,-8742038.72680664,-13133066.177368164,-15414094.924926758,-13510021.209716797,-10461497.30682373,-8712154.388427734,-8849417.686462402,-9000185.012817383,-13335376.739501953,-13806015.968322754,-10469702.72064209,-8979049.682617188,-9378579.139709473
0.155,56732185.36376953,36252513.88549805,25190717.697143555,7702041.6259765625,16536304.473876953,-9495119.094848633,-10118663.787841797,-9702802.658081055,6728324.890136719,2946372.5090026855,-1262144.5655822754,-41291.4976477623,-843494.5940971375,-5326206.684112549,-9466565.132141113,939701.7955780029,-5317249.774932861,3550746.9177246094,-1035635.9481811523,-1583207.607269287,-897927.7610778809,-208857.9535484314,-5342513.084411621,-9861412.048339844,-13872439.38446045,-2136556.386947632,-1516454.1006088257,1013411.8795394897,813879.3110847473,9625844.955444336,7469664.573669434,-5883814.811706543,-9649694.442749023,-9805494.30847168,-8829517.364501953,-8082092.28515625,-222250.61058998108,-72646.77435159683,8858011.245727539,-566282.6299667358,-5621421.337127686,-10469500.541687012,-10050688.743591309,-9794528.96118164,-2676454.0672302246,-2570829.391479492,375800.13275146484,-1247548.4609603882,-1340209.3648910522,-1419646.8591690063,-9168020.248413086,-11348337.173461914,-9437505.722045898,-2959394.2165374756,-1190261.1255645752,-1387193.202972412,-1627082.5862884521,-9379382.133483887,-9759326.934814453,-3044620.0370788574,-1529096.9610214233,-1741573.8105773926
0.16,39432891.845703125,19357398.986816406,7937199.115753174,1922294.9743270874,9098995.208740234,-6780497.074127197,-7240540.504455566,-7036578.178405762,4422451.972961426,-556624.4125366211,-5581650.733947754,-4211000.919342041,-5199892.044067383,-5859758.8539123535,-6660006.999969482,836665.5111312866,-5111009.120941162,2609970.5696105957,-5259270.668029785,-5661256.313323975,-5126021.862030029,-4489159.107208252,-5983412.742614746,-7175875.186920166,-12107509.61303711,-1453971.8627929688,-1022111.4158630371,791175.5442619324,540126.9197463989,7995709.419250488,5847331.0470581055,-6399892.807006836,-6622468.948364258,-7106620.311737061,-7896395.206451416,-6717525.482177734,-421393.3050632477,4290606.498718262,7464504.718780518,3670726.776123047,-6261775.016784668,-7471499.919891357,-7027544.4984436035,-6808798.789978027,2000806.3316345215,2143271.4462280273,4698703.289031982,3051295.757293701,3029902.935028076,2847006.08253479,-6205863.475799561,-8249423.980712891,-6405117.511749268,1745033.5025787354,3180040.121078491,3084732.5325012207,2626284.599304199,-6280449.390411377,-6681507.587432861,1527996.301651001,2865903.615951538,2784190.6547546387
0.165,31898214.34020996,13056664.46685791,1074589.9677276611,1328553.4381866455,7355449.199676514,-5922191.143035889,-6223181.72454834,-6064800.73928833,5986929.416656494,1692125.5588531494,-5895325.660705566,-4773691.654205322,-5753479.00390625,-9721569.061279297,-5598394.870758057,792756.3786506653,-4041756.6299438477,4413471.221923828,-5681323.051452637,-6145656.108856201,-5496994.972229004,-4910210.609436035,-10050460.815429688,-6132424.831390381,-11032530.784606934,-126000.82159042358,631783.4258079529,636470.5562591553,465631.6041946411,5739239.21585083,2279288.7687683105,-10320040.702819824,-5647961.616516113,-6377725.601196289,-6763031.959533691,-5683430.6716918945,-508175.0750541687,4710153.579711914,5196118.8316345215,2841578.960418701,-10187333.106994629,-6520269.870758057,-6128798.007965088,-5951056.957244873,1806215.6438827515,2059236.764907837,5104426.383972168,2396581.1729431152,2308894.8726654053,2201958.656311035,-5215806.484222412,-7224346.63772583,-5526389.598846436,1367782.9504013062,2456071.8536376953,2461443.9010620117,1916113.257408142,-5205394.744873047,-5700427.055358887,1167616.2481307983,2208015.4418945312,2159917.3545837402
0.17,35774692.53540039,16749532.699584961,4139897.8233337402,3896951.198577881,10163226.127624512,-5395821.571350098,-5551784.992218018,-5317555.904388428,9293642.044067383,5935137.2718811035,-2900309.0858459473,-2045244.6937561035,-2984774.8279571533,-11099376.678466797,-4839255.809783936,1331575.7513046265,-2895175.9338378906,7199237.823486328,-2849113.702774048,-3593681.812286377,-2663170.337677002,-2123220.443725586,-11534419.059753418,-5225551.128387451,-9996043.20526123,1756210.5655670166,2338984.489440918,797983.2887649536,799882.5311660767,5789878.845214844,1108518.362045288,-11840816.497802734,-5032653.331756592,-5728766.441345215,-4729119.300842285,-4874834.060668945,-322165.310382843,3305250.406265259,4990281.105041504,955357.4919700623,-11513051.03302002,-5893682.00302124,-5569816.112518311,-5265526.294708252,164926.11169815063,503543.1981086731,3687267.303466797,705967.3070907593,476664.6921634674,567027.3900032043,-4455683.23135376,-6511433.124542236,-4955280.303955078,-441041.08214378357,664785.623550415,645260.1552009583,259228.85537147522,-4536573.886871338,-5130860.328674316,-440015.2862071991,414161.2946987152,366999.14932250977
0.175,39985191.345214844,19479738.235473633,6702044.486999512,4247366.428375244,10859731.674194336,-4708645.343780518,-4710206.985473633,-4513213.634490967,10180349.349975586,5773598.194122314,-1773529.5295715332,-917500.0190734863,-1898570.6567764282,-8752282.14263916,-3999872.2076416016,912747.0850944519,-3232479.0954589844,7997539.99710083,-1779317.9750442505,-2757091.522216797,-1631900.3105163574,-1146215.0812149048,-9242894.172668457,-4216325.759887695,-9688558.578491211,2586560.010910034,2982033.4911346436,1042239.9044036865,1140668.6305999756,7584236.621856689,2602688.0741119385,-9594891.548156738,-4176895.1416015625,-4690128.803253174,-2706793.3082580566,-4052557.4684143066,-122274.16038513184,3779469.9668884277,6619618.892669678,2096087.93258667,-9144876.480102539,-4977737.903594971,-4680596.351623535,-4097879.8866271973,964394.3309783936,1416675.5676269531,4166030.8837890625,1907768.4879302979,1584414.8397445679,1780997.1570968628,-3439506.0539245605,-5512879.848480225,-3961616.9929504395,469818.23444366455,1790749.5498657227,1692304.9688339233,1557570.6958770752,-3639561.176300049,-4324119.091033936,640938.8184547424,1515641.0932540894,1449619.2932128906
0.18,36030326.84326172,15263040.542602539,2985049.247741699,435083.15086364746,6373614.78805542,-4190160.7513427734,-4118040.5616760254,-4131648.063659668,6840622.425079346,176863.9087677002,-5611160.2783203125,-4657276.153564453,-5621968.746185303,-6934547.424316406,-3450007.438659668,-927383.7208747864,-5615640.640258789,5802041.053771973,-5585589.408874512,-6601788.9976501465,-5399124.622344971,-4950038.433074951,-7548752.784729004,-3580289.363861084,-10121596.336364746,1881207.1084976196,2605909.585952759,952363.4314537048,975922.9421615601,7761575.698852539,3024791.0022735596,-7765815.734863281,-3504215.717315674,-3923868.417739868,-1458572.9837417603,-2926467.180252075,-245616.6297197342,6959682.464599609,6953103.065490723,5722764.015197754,-7458451.747894287,-4202564.716339111,-3898575.3059387207,-3151739.1204833984,4236392.974853516,4867151.260375977,7408881.664276123,5435122.489929199,5125197.887420654,5245862.007141113,-2723098.5164642334,-4757126.808166504,-3025267.1241760254,4070219.5167541504,5282613.754272461,5180359.363555908,5150197.505950928,-2839721.202850342,-3632060.0509643555,4139234.0660095215,5094846.725463867,4945703.983306885
0.185,28297239.303588867,9454932.21282959,-2349339.246749878,-3460991.382598877,1223805.4275512695,-2918133.9740753174,-3012657.642364502,-3178633.213043213,2286611.0801696777,-4999662.87612915,-11198750.495910645,-10280819.8928833,-11078509.330749512,-7770712.852478027,-2261990.3087615967,-1247803.5688400269,-7771491.050720215,3030975.818634033,-11132925.033569336,-12153832.43560791,-10805020.332336426,-10340551.376342773,-8489785.194396973,-2362382.8887939453,-8955980.30090332,2066051.721572876,2506121.873855591,544145.8821296692,387521.77357673645,5394631.385803223,1139325.6187438965,-8543198.585510254,-2219430.685043335,-2721147.5372314453,86690.55253267288,-1313177.8240203857,-620407.1044921875,10070609.092712402,4920230.865478516,8684491.157531738,-8440877.914428711,-2879886.6271972656,-2562504.0531158447,-1904759.168624878,7369502.544403076,8095684.051513672,10611090.660095215,8278939.247131348,8073284.149169922,8031539.9169921875,-1506310.7013702393,-3565160.9897613525,-1559314.9662017822,7470928.66897583,8188632.965087891,8165189.743041992,8016497.611999512,-1389544.7254180908,-2277426.7196655273,7229320.526123047,8179315.567016602,7903012.752532959
0.19,25477653.50341797,8817010.879516602,-3408776.9985198975,-3118390.3217315674,941057.1455955505,-184231.4600944519,-673819.6611404419,-720230.9966087341,725393.5933113098,-5005598.068237305,-13116429.328918457,-12272129.05883789,-12931577.682495117,-8028920.1736450195,292523.1456756592,2132169.485092163,-6883051.872253418,2704671.1444854736,-12996527.671813965,-14157797.813415527,-12576724.0524292,-12050105.094909668,-8643307.68585205,174466.20762348175,-4933310.508728027,5216750.144958496,3626612.901687622,274444.1628456116,-28393.173590302467,3813876.8672943115,476492.315530777,-8762558.937072754,381798.8336086273,-261887.01391220093,2734905.242919922,244555.60743808746,-835736.095905304,10574088.096618652,3553623.914718628,9645175.93383789,-8651367.1875,-405267.1492099762,-64527.89902687073,449974.50709342957,8672493.934631348,9248192.78717041,11157546.997070312,9240051.26953125,9161306.381225586,8982249.25994873,1050054.3117523193,-1187351.3460159302,1016936.182975769,8822459.22088623,9279821.395874023,9343284.606933594,8994506.8359375,1245587.8257751465,365546.22650146484,8411655.42602539,9360974.311828613,9009344.100952148
0.195,28410388.946533203,12406582.832336426,-975035.9058380127,274333.4770202637,5071719.169616699,2074158.4300994873,1236425.518989563,1471513.5097503662,2529656.8870544434,-2577943.3250427246,-10335829.734802246,-9392298.698425293,-10145967.483520508,-4979903.697967529,2356840.3720855713,6225415.229797363,-3601964.4737243652,4851863.861083984,-10109845.161437988,-11454902.648925781,-9810953.140258789,-9203658.103942871,-5334073.543548584,2136084.55657959,-1075160.026550293,9384971.618652344,5282804.012298584,363611.1319065094,55458.70214700699,5808811.664581299,3633518.934249878,-5681497.097015381,2437020.5402374268,1774698.7342834473,4894724.8458862305,681860.5065345764,-705221.8317985535,9253181.457519531,5524473.190307617,9755909.91973877,-5413671.970367432,1494672.2984313965,1874675.5123138428,2392344.4747924805,8569413.185119629,8852981.567382812,9831424.713134766,9448476.791381836,9430747.985839844,9169429.779052734,3182981.014251709,763450.9205818176,2953786.611557007,8603710.174560547,9478214.263916016,9603852.272033691,9186889.6484375,3191983.699798584,2449179.6493530273,8367231.369018555,9488045.692443848,9155441.284179688
0.2,31387340.545654297,15112815.856933594,865053.1768798828,2233336.4486694336,8881635.665893555,1520961.2846374512,663183.9871406555,1028849.4825363159,4620144.367218018,-3687006.711959839,-6631496.429443359,-5464499.950408936,-6465951.442718506,-1332401.8716812134,1736518.7406539917,6388895.511627197,-1465881.2284469604,6973340.034484863,-6272978.782653809,-7684301.376342773,-6286189.079284668,-5589222.431182861,-1592693.0904388428,1415188.3125305176,-1052327.6329040527,10895641.326904297,6126500.129699707,471362.9484176636,317772.0010280609,9323833.465576172,7662517.070770264,-2003584.1464996338,1700653.1953811646,1206648.349761963,4891759.395599365,-106579.66881990433,-507197.14164733887,8630568.504333496,8878838.539123535,10168726.921081543,-1686184.1678619385,852759.4804763794,1262115.9553527832,1798713.207244873,8293525.695800781,8447800.636291504,9244210.243225098,9932293.891906738,9871071.815490723,9594269.752502441,2589339.9715423584,238585.41250228882,2199392.318725586,8169981.956481934,9687264.442443848,9850754.737854004,9583527.565002441,2409172.0581054688,1836433.5298538208,8236075.401306152,9605673.789978027,9315972.328186035
0.205,30815279.006958008,14611337.661743164,549217.164516449,969271.7790603638,9464282.989501953,-938996.3746070862,-1507267.713546753,-1304239.7499084473,5032843.112945557,-9023041.725158691,-5297920.227050781,-4030330.181121826,-5179581.165313721,-1681356.9068908691,-597111.5231513977,2849174.976348877,-2112554.5501708984,7624387.264251709,-4841387.748718262,-6240166.664123535,-5147261.619567871,-4374903.202056885,-2169982.91015625,-835752.4871826172,-3940275.9075164795,9469562.530517578,5997838.973999023,259258.74710083008,329394.8173522949,10238597.869873047,7706594.467163086,-2367459.535598755,-804035.3059768677,-1091943.383216858,3895302.2956848145,-801244.9145317078,-547095.775604248,9263746.26159668,9646654.12902832,10460154.53338623,-2127543.9262390137,-1319060.0872039795,-910907.8049659729,-547696.5308189392,8259776.1154174805,8575822.830200195,9985692.977905273,10193058.967590332,10053573.608398438,9845383.644104004,135241.21046066284,-1900756.0014724731,-221142.09830760956,8026663.780212402,9656296.730041504,9789611.81640625,9768959.045410156,22596.990689635277,-463027.7156829834,8192895.889282227,9593196.868896484,9290788.650512695
0.21,28468852.996826172,12357274.055480957,-684705.0189971924,-1035700.3211975098,7989456.653594971,-2918657.064437866,-3151004.0760040283,-3239339.3516540527,5204273.223876953,-13043344.497680664,-5594938.278198242,-4462955.474853516,-5559710.502624512,-6185978.889465332,-2387038.469314575,-131174.07262325287,-3447014.570236206,8002939.224243164,-5126031.875610352,-6543937.206268311,-5485711.097717285,-4723438.739776611,-6951160.430908203,-2375577.449798584,-6274560.451507568,8071924.209594727,5891158.580780029,-48058.219254016876,156604.69233989716,8132218.360900879,3527678.4896850586,-6935619.831085205,-2627397.298812866,-2906961.9178771973,3744055.2711486816,-653667.5691604614,-727636.5756988525,9055681.228637695,7480092.0486450195,9252833.366394043,-6699523.448944092,-2981772.8996276855,-2593386.173248291,-2434822.7977752686,7418203.353881836,7965240.001678467,9851469.993591309,8882294.654846191,8725362.777709961,8640832.901000977,-1821873.0688095093,-3607793.5695648193,-2055124.282836914,7176082.134246826,8414679.527282715,8394758.224487305,8522526.741027832,-1712306.6186904907,-2222458.3625793457,7227941.513061523,8391303.062438965,8040511.131286621
0.215,27572601.318359375,10545042.991638184,-1581621.8852996826,-1060015.320777893,6922215.938568115,-4891687.393188477,-4935116.767883301,-5201370.716094971,7254235.26763916,-11407809.257507324,-4815254.688262939,-3927627.0866394043,-4910758.972167969,-10572113.990783691,-4330166.816711426,-926708.3406448364,-3348482.847213745,9713541.030883789,-4454045.77255249,-5859953.880310059,-4596756.458282471,-3978905.200958252,-11305979.72869873,-4163266.181945801,-7917626.38092041,7978181.3621521,6235136.985778809,-11304.828338325024,143500.78999996185,6441249.847412109,-426663.93518447876,-11370868.682861328,-4393603.324890137,-4919498.443603516,3112434.148788452,-1070143.8188552856,-764548.0036735535,6230187.41607666,5788868.9041137695,5663219.451904297,-11023729.32434082,-5040422.9164123535,-4681377.410888672,-4392895.221710205,4219282.150268555,4767971.515655518,6939722.537994385,5185910.701751709,5063252.4490356445,5089839.935302734,-3838933.9447021484,-5645142.555236816,-4025634.288787842,4053267.478942871,5131806.373596191,4877702.236175537,4997364.044189453,-3623256.9217681885,-4224155.426025391,4004486.560821533,4999384.40322876,4650527.477264404
0.22,29297700.881958008,10829955.101013184,-1402184.7248077393,743464.7679328918,7435040.9507751465,-8824169.158935547,-8822651.863098145,-9083399.772644043,10726357.460021973,-6243616.104125977,-2147766.590118408,-1416266.918182373,-2394571.7811584473,-11462325.096130371,-8465534.210205078,-1996557.2357177734,-2678071.2604522705,12406342.506408691,-1971691.370010376,-3214543.342590332,-1826323.0323791504,-1402278.6617279053,-11911846.160888672,-8389358.520507812,-11287905.6930542,7381417.274475098,6382184.028625488,343340.0094509125,320433.3484172821,7247523.784637451,-853235.125541687,-12257183.074951172,-8350943.565368652,-9163734.436035156,-445350.0211238861,-3576156.3777923584,-640041.4109230042,1845216.5126800537,6568633.079528809,560745.5968856812,-11889906.883239746,-9454231.262207031,-9128123.28338623,-8414263.725280762,-1063441.1573410034,-764038.1455421448,2325362.205505371,20406.57214820385,-94705.30599355698,-11009.125970304012,-7991788.864135742,-9927460.670471191,-8204926.490783691,-1171553.134918213,301245.5105781555,-143876.86550617218,-63946.1949467659,-7848271.84677124,-8522471.42791748,-1243077.1589279175,-78261.15936040878,-339424.729347229
0.225,32790763.85498047,14038831.71081543,377378.6723613739,2838860.7501983643,9426376.342773438,-12784021.377563477,-12838627.815246582,-12993815.422058105,13309112.548828125,-2719433.546066284,729194.5815086365,1483594.8944091797,403155.20763397217,-9330641.746520996,-12689259.52911377,-4189188.9572143555,-2913219.928741455,14550473.2131958,812329.351902008,-203865.94533920288,1057896.8524932861,1412928.9388656616,-9620182.991027832,-12787459.373474121,-15088239.669799805,5583304.405212402,6037809.8487854,605738.4014129639,406129.3303966522,8860963.821411133,1092709.1836929321,-10087559.700012207,-12632140.159606934,-13518584.251403809,-4987098.693847656,-6707307.815551758,-561934.6499443054,-1196028.470993042,8097358.703613281,-3190423.9654541016,-9893190.383911133,-13861668.586730957,-13522865.295410156,-12602359.771728516,-5189753.532409668,-5139290.332794189,-947065.4129981995,-3720892.906188965,-3854077.3391723633,-3784197.3304748535,-12285111.427307129,-14228818.893432617,-12496564.865112305,-5349661.350250244,-3458266.496658325,-3978698.0152130127,-3840952.3963928223,-12264120.101928711,-12884881.019592285,-5499450.206756592,-4020426.7501831055,-4178595.0660705566
0.23,35942363.73901367,18392915.725708008,2638400.077819824,4565416.8128967285,11976285.934448242,-11835593.223571777,-12057284.355163574,-12086405.754089355,13811201.095581055,-2741704.7023773193,2123381.8531036377,3005590.2004241943,1884513.020515442,-6605075.836181641,-11824337.005615234,-4378713.130950928,-3125788.927078247,15522164.344787598,2338453.769683838,1416679.5015335083,2435123.2051849365,2906952.8579711914,-7023867.130279541,-11991041.18347168,-14337439.53704834,5029675.9605407715,5957736.968994141,624599.0991592407,309276.90863609314,9270943.641662598,2488168.239593506,-7298383.712768555,-11996425.62866211,-12743548.393249512,-5207163.333892822,-7171529.769897461,-582670.7482337952,-1189838.5286331177,8462021.827697754,-2802959.203720093,-7272195.339202881,-12998774.528503418,-12565563.201904297,-11936573.028564453,-4688843.727111816,-4671148.300170898,-1065569.9968338013,-3219794.511795044,-3332376.480102539,-3363306.0455322266,-11504861.831665039,-13406552.3147583,-11695564.270019531,-4967805.862426758,-3155556.4403533936,-3674201.488494873,-3424062.967300415,-11615086.555480957,-12011292.457580566,-5243752.002716064,-3677211.5230560303,-3826642.7516937256
0.235,37029788.970947266,20300100.326538086,3075292.3488616943,5965317.726135254,13616507.530212402,-5584273.815155029,-6016358.852386475,-5938038.8259887695,13279722.213745117,-3991935.7299804688,2237354.516983032,3161864.995956421,2216173.8872528076,-4717936.5158081055,-5413019.65713501,-866243.302822113,-1796282.6490402222,15863698.00567627,2668199.5391845703,1727365.9706115723,2561263.5612487793,3193328.380584717,-5319859.027862549,-5611019.611358643,-8297935.485839844,7203467.845916748,6558488.845825195,633590.6982421875,239272.54974842072,9267617.225646973,2521200.8953094482,-5317653.656005859,-5717848.777770996,-6348017.21572876,-248901.32248401642,-4519118.309020996,-562286.3173484802,741839.4088745117,8556572.914123535,1216579.794883728,-5240452.289581299,-6567065.715789795,-6056236.743927002,-5815279.006958008,-179168.55216026306,-3870.0697477906942,843340.5756950378,1011708.14037323,922343.373298645,743214.3092155457,-5084616.661071777,-7095830.44052124,-5326862.812042236,-514312.86334991455,960521.5191841125,480377.4654865265,730310.0824356079,-5385898.113250732,-5531245.708465576,-757908.1654548645,660605.6094169617,395655.15518188477
0.24,36405368.80493164,18551017.76123047,1294852.1375656128,6508971.691131592,13267525.672912598,-246725.85725784302,-744552.493095398,-639151.0963439941,13089675.903320312,-4273430.347442627,2363131.7615509033,3107872.247695923,2501545.6676483154,-3476652.3838043213,166068.27080249786,2632808.6853027344,-286568.284034729,15853144.645690918,2778307.1994781494,1919543.5047149658,2631511.2113952637,3303521.8715667725,-4066612.720489502,-153990.38791656494,-3321899.890899658,9277107.238769531,6827728.271484375,751186.8476867676,302982.3303222656,10359796.524047852,2461859.941482544,-3999009.609222412,-65341.82280302048,-765435.7552528381,3778601.4080047607,-2356572.6280212402,-474263.0124092102,2095889.5683288574,9810197.830200195,4947089.195251465,-3737605.8101654053,-1044915.3184890747,-638331.7708969116,-346849.0540981293,3749142.4083709717,4092579.8416137695,2226263.999938965,4960234.642028809,4779989.242553711,4531581.401824951,575307.6672554016,-1629585.9813690186,232314.8101568222,3471218.1091308594,4854090.690612793,4497024.059295654,4547869.682312012,88190.81634283066,-14267.141930758953,3457044.839859009,4792903.900146484,4379728.317260742
0.245,36016387.939453125,16302938.461303711,-36636.874079704285,5721098.899841309,11426575.660705566,-605850.4581451416,-933028.3403396606,-942276.7758369446,13166597.366333008,-4267328.73916626,2931377.88772583,3377682.2090148926,3015176.296234131,-2128616.0945892334,-76695.09947299957,1910374.402999878,-1389519.0954208374,15054532.051086426,3018601.894378662,2408869.743347168,2998543.0240631104,3626635.0746154785,-2580172.538757324,-496796.28014564514,-4555509.567260742,7769554.138183594,5660165.786743164,763018.7273025513,331787.43720054626,11648984.909057617,3143440.008163452,-2645740.9858703613,-178053.06613445282,-1033514.7380828857,1816619.0385818481,-3666210.174560547,-472122.1625804901,1757532.8350067139,11134369.850158691,5322268.486022949,-2319329.9770355225,-1282962.9182815552,-1140190.601348877,-454521.62623405457,3895514.0113830566,4291074.752807617,1938297.3909378052,5411844.730377197,5061726.093292236,4912545.680999756,373432.7554702759,-1846831.6793441772,14392.942190170288,3703768.491744995,5183397.29309082,5067476.272583008,4830902.099609375,-143387.36236095428,-428198.57597351074,3846617.6986694336,5257825.3746032715,4779661.655426025
0.25,36263107.29980469,16585443.496704102,850696.6829299927,4477173.805236816,9672585.487365723,-3614511.013031006,-3703351.9744873047,-3915600.061416626,12774724.960327148,-5387468.338012695,3090239.7632598877,3391084.4326019287,2973866.7011260986,-614900.7678031921,-3148700.714111328,-1246316.3137435913,-4557568.073272705,13583082.19909668,2824678.421020508,2446847.2003936768,2930694.103240967,3604422.8076934814,-1011337.8763198853,-3452945.2323913574,-8564118.385314941,4065640.926361084,3817079.544067383,516773.2238769531,203154.45959568024,11110810.279846191,3845906.7344665527,-1149443.1495666504,-3219880.1040649414,-4111531.7344665527,-2896975.7556915283,-6707927.227020264,-631183.385848999,851819.7536468506,10472307.205200195,3510493.755340576,-940806.3888549805,-4158486.843109131,-4195181.846618652,-3323220.729827881,1993822.3361968994,2337383.031845093,1068233.1323623657,3460683.584213257,3077590.4655456543,3119474.172592163,-2704270.601272583,-4740761.756896973,-2971004.7245025635,1811978.3401489258,3150969.5053100586,3259620.428085327,2856651.0677337646,-3112388.849258423,-3522943.0198669434,1845652.9378890991,3247378.349304199,2794588.088989258
0.255,34965324.40185547,17643712.997436523,1707831.859588623,4179467.20123291,8860573.768615723,-3592422.4853515625,-3619447.708129883,-3946506.0234069824,12304913.520812988,-6805819.511413574,2142860.6510162354,2560457.229614258,1902046.9188690186,-55058.18873643875,-3266879.5585632324,-1695260.4055404663,-5815554.618835449,12747171.401977539,1780575.0370025635,1467644.214630127,1898133.9931488037,2750238.8954162598,-499980.4496765137,-3313540.458679199,-8601786.613464355,2951168.2987213135,3320782.6614379883,199500.56076049805,36590.13658761978,9030241.966247559,3484893.798828125,-516344.7856903076,-3364658.832550049,-4154399.3949890137,-3429143.4288024902,-7486706.733703613,-854271.7099189758,769824.0876197815,8276816.368103027,2610883.951187134,-437423.974275589,-4016489.9826049805,-4018365.3831481934,-3337071.657180786,1476321.1011886597,1745869.755744934,951518.177986145,2317226.6483306885,2094666.0041809082,2271908.760070801,-2770926.9523620605,-4702875.61416626,-2983228.2066345215,1208660.9601974487,2168013.572692871,2263014.554977417,1919471.5023040771,-3118477.5829315186,-3372433.1855773926,1043405.4136276245,2223500.967025757,1783208.8470458984
0.26,31254241.943359375,16082887.649536133,-56526.49328112602,4880263.328552246,8656689.643859863,-856198.1320381165,-1028907.5374603271,-1247381.6871643066,13142246.24633789,-6285351.276397705,726623.7735748291,1325217.1277999878,547557.9500198364,-1655601.6206741333,-643990.159034729,995558.9175224304,-3454362.392425537,13609322.547912598,471439.51058387756,120187.69234418869,505383.61072540283,1504129.8866271973,-2096985.3401184082,-561487.4362945557,-4706727.027893066,5865139.484405518,4876899.242401123,72812.81799077988,-44658.57893228531,7835242.748260498,2082179.5463562012,-1947284.1024398804,-685400.128364563,-1418915.033340454,1081637.1440887451,-5137212.753295898,-1045765.5191421509,1208321.5713500977,7084764.003753662,3093645.8110809326,-1893614.8881912231,-1282114.3865585327,-1222393.0358886719,-684738.8744354248,2435229.0630340576,2661870.9564208984,1293639.6598815918,2683518.648147583,2538100.9578704834,2763201.951980591,-10148.480534553528,-2067463.1595611572,-289247.0061779022,2038523.1971740723,2843531.847000122,2658716.4402008057,2496347.188949585,-397422.1348762512,-380326.5988826752,1851240.3964996338,2830017.566680908,2329798.936843872
0.265,28522872.924804688,13265664.100646973,-2301701.307296753,5517262.4588012695,8770814.895629883,-314202.81529426575,-676105.8568954468,-620400.7863998413,15547271.728515625,-3566124.439239502,45659.03916954994,671759.307384491,14150.192029774189,-4595405.101776123,-191547.28949069977,1789366.8413162231,-991396.3675498962,15311061.85913086,-92019.55050230026,-482394.63567733765,-189924.65734481812,786989.6292686462,-4904949.66506958,-184238.64245414734,-3054198.0266571045,8878696.44165039,6916526.317596436,176085.963845253,-89539.86316919327,8690208.435058594,944170.892238617,-4746388.912200928,-58254.85661625862,-893137.6338005066,4907727.7183532715,-2559321.165084839,-1154129.2667388916,1137347.1021652222,7984282.970428467,3000887.155532837,-4696681.022644043,-841810.1668357849,-894627.2134780884,-153728.9172410965,2461161.1366271973,2671829.7004699707,1184152.0071029663,2734056.4727783203,2343150.854110718,2591246.1280822754,579956.2931060791,-1645957.2315216064,240589.29085731506,1964396.1191177368,3029065.1321411133,2555811.4051818848,2491891.860961914,215246.23036384583,262451.708316803,1893032.193183899,2911082.2677612305,2357202.5299072266
0.27,30490354.537963867,14051966.667175293,-658042.1328544617,5790035.247802734,9321077.346801758,-2745808.1245422363,-3217257.499694824,-2937821.388244629,17595966.339111328,-1379735.9466552734,190964.9670124054,766955.1372528076,260799.5569705963,-5657421.112060547,-2728207.3497772217,-1628274.3215560913,-2307820.0817108154,15799788.475036621,168281.9426059723,-279019.0279483795,-87021.3583111763,782182.5742721558,-5803114.414215088,-2807959.0797424316,-5710532.665252686,8497620.582580566,7584927.558898926,400312.00647354126,-137653.8723707199,10296813.96484375,1641503.5724639893,-5797435.283660889,-2392453.908920288,-3351292.848587036,4588212.966918945,-2020843.0290222168,-1067698.7171173096,1106191.7543411255,9613480.567932129,2292993.0686950684,-5810567.378997803,-3305663.824081421,-3502732.038497925,-2525477.647781372,1601761.4603042603,1797514.55783844,1267501.8310546875,2310963.1538391113,1567087.4118804932,1801537.5137329102,-1868934.0353012085,-4094332.695007324,-2129352.331161499,1110895.276069641,2460650.92086792,1950255.5131912231,1831599.473953247,-2076221.4660644531,-2297923.3264923096,1055304.4080734253,2217631.5784454346,1722501.3971328735
0.275,35749607.08618164,19228559.494018555,4616410.732269287,6491763.591766357,9855943.67980957,-2963950.3955841064,-3457128.5247802734,-3189610.242843628,17108053.20739746,-2423859.3578338623,-37023.27609062195,633075.5949020386,99139.39237594604,-2320213.794708252,-3016453.266143799,-4468070.030212402,-5930469.036102295,14299934.387207031,129707.30662345886,-403558.9396953583,-242158.7109565735,609001.3980865479,-2411076.545715332,-3054470.5390930176,-6961328.506469727,6660244.941711426,6878381.729125977,618497.8485107422,-114516.92134141922,11242866.516113281,4561974.52545166,-2579823.4939575195,-2538467.8840637207,-3455230.951309204,3477116.823196411,-2466664.0758514404,-746745.228767395,2856575.4890441895,10642131.805419922,3767694.7116851807,-2602793.9319610596,-3387732.50579834,-3467962.0265960693,-2655015.707015991,3003352.8804779053,3183797.3594665527,3181248.188018799,3961336.135864258,3187190.532684326,3298947.0958709717,-2073221.4450836182,-4176569.4618225098,-2221559.762954712,2661633.4915161133,3916095.495223999,3576753.616333008,3405308.723449707,-2176090.2404785156,-2655230.2837371826,2474283.9336395264,3625844.0017700195,3269004.8217773438
0.28,38616405.48706055,22909229.278564453,7731776.237487793,7322787.284851074,9025181.770324707,1991715.1927947998,1569200.6349563599,1595950.2458572388,14020597.457885742,-6355973.720550537,-1579116.2252426147,-685519.5164680481,-1338373.4226226807,3610781.669616699,2014143.943786621,-1826543.2119369507,-7274970.054626465,12126807.21282959,-1254347.801208496,-1794344.9020385742,-1594474.6732711792,-643217.3848152161,3412728.786468506,2069926.0234832764,-2198810.577392578,7549101.35269165,6118171.691894531,646586.2989425659,-46046.00742459297,11686579.704284668,8049474.716186523,3141611.337661743,2565969.228744507,1816221.7140197754,5720939.636230469,-1865539.9084091187,-466152.6381969452,6449983.596801758,11270295.143127441,8505865.097045898,3309062.4809265137,1798038.363456726,2064438.1046295166,2443222.0458984375,7823066.711425781,8020736.6943359375,6774149.8947143555,8654657.363891602,8196110.725402832,8139018.0587768555,3062130.4512023926,1060705.4233551025,2846995.5921173096,7698891.639709473,8558895.111083984,8347470.283508301,8299109.45892334,2852666.139602661,2376552.5817871094,7418083.190917969,8404899.597167969,8119042.39654541
0.285,37064899.44458008,21157648.08654785,5861296.653747559,6948938.846588135,6681511.878967285,7718155.860900879,7455245.9716796875,7212704.181671143,10664202.690124512,-10077679.634094238,-3715309.1430664062,-2722490.7875061035,-3360845.0889587402,7370436.668395996,7944910.526275635,3559566.4978027344,-5399901.390075684,10908304.214477539,-3456397.05657959,-3849896.9078063965,-3606194.019317627,-2552788.9728546143,6969227.7908325195,8045474.052429199,4389935.01663208,11186250.686645508,5928327.560424805,347070.187330246,-126042.32132434845,12327593.803405762,9713868.141174316,6680825.233459473,8530084.609985352,7845850.944519043,9752028.465270996,-327500.25391578674,-602882.0872306824,9540007.591247559,12045487.403869629,13219332.695007324,7148929.119110107,7706819.0574646,8189655.303955078,8377987.861633301,12606849.670410156,12891707.420349121,9671376.22833252,13226089.477539062,12980954.17022705,12909322.738647461,9045961.380004883,7139180.1834106445,8600376.12915039,12614769.93560791,13132764.81628418,12901032.447814941,13084229.469299316,8680089.950561523,8358843.803405762,12393101.692199707,13248373.031616211,12899035.453796387
0.29,35518592.834472656,18359174.728393555,3752761.3639831543,5439008.2359313965,4923714.637756348,8384531.021118164,8245463.3712768555,7935465.8126831055,9437954.902648926,-10820800.78125,-4774564.743041992,-3908596.5156555176,-4396495.342254639,6629127.502441406,8752970.695495605,4878077.507019043,-4086238.384246826,10808159.828186035,-4755938.529968262,-4968946.933746338,-4697550.7736206055,-3619848.9665985107,6074184.894561768,8880972.862243652,5297310.829162598,13347445.487976074,5771243.572235107,-95310.68056821823,-376591.3248062134,13016986.846923828,8831573.486328125,5861574.172973633,9344310.760498047,8533395.767211914,11007164.001464844,509634.43517684937,-1085917.353630066,10311608.31451416,12675649.642944336,14284366.607666016,6467093.944549561,8434043.884277344,8808071.13647461,9203472.137451172,13668258.666992188,14104732.513427734,10289208.41217041,14208017.349243164,13796383.85772705,13928771.97265625,9799420.356750488,8044968.605041504,9217752.456665039,13648693.084716797,14043225.288391113,13766593.933105469,14052638.053894043,9492302.894592285,9230875.968933105,13545456.886291504,14338132.858276367,13900988.578796387
0.295,37077636.71875,19761039.73388672,5869949.817657471,4312973.976135254,5358620.166778564,4604188.919067383,4388256.549835205,4262917.518615723,10238976.47857666,-8788867.950439453,-4182200.4318237305,-3467219.352722168,-3882977.9624938965,3804471.731185913,4910089.015960693,889442.5630569458,-5888659.477233887,10989921.569824219,-4324130.535125732,-4492158.41293335,-4177562.2367858887,-3145007.610321045,3257187.1280670166,5099175.453186035,241115.85319042206,11774199.485778809,5379887.104034424,-269627.80952453613,-481684.8635673523,13064966.201782227,6783815.860748291,3190896.511077881,5497728.34777832,4545650.005340576,8829569.816589355,130085.75141429901,-1386075.8543014526,9587677.001953125,12573613.166809082,12419764.518737793,3667142.391204834,4635274.887084961,4783263.683319092,5402688.503265381,11815562.24822998,12403500.5569458,9643647.193908691,12308375.358581543,11640869.140625,11978818.893432617,5871788.501739502,4247147.083282471,5401449.680328369,11697597.50366211,12096663.475036621,11845552.444458008,12023254.39453125,5795342.445373535,5471002.578735352,11651596.069335938,12319180.488586426,11917986.869812012
0.3,37556766.510009766,21945627.212524414,8322159.767150879,3657119.7509765625,6548792.839050293,1659879.446029663,1216271.2812423706,1335978.5079956055,10630000.114440918,-6701611.042022705,-3088848.114013672,-2369433.4030151367,-2881183.862686157,2382986.545562744,1814834.5947265625,-2918534.04045105,-8504245.75805664,11080977.439880371,-3227157.1159362793,-3481314.8975372314,-3100595.474243164,-2168460.3691101074,1967460.3939056396,2049204.8263549805,-3939484.8346710205,9276504.516601562,5472153.663635254,-75233.85435342789,-219720.2444076538,12271523.475646973,5138742.923736572,2002838.373184204,2423833.131790161,1514148.1161117554,6816898.822784424,-423810.750246048,-1214546.6804504395,8996740.341186523,11748983.383178711,10917599.67803955,2288856.5063476562,1709651.8278121948,1787846.0884094238,2317064.5236968994,10412740.707397461,11057388.305664062,9260413.16986084,10749171.257019043,10147689.819335938,10438648.223876953,2791778.564453125,1155632.734298706,2518164.873123169,10241024.9710083,10643351.554870605,10406943.321228027,10443476.676940918,2811380.14793396,2471260.5476379395,10196798.324584961,10653370.85723877,10404655.456542969
0.305,32779724.12109375,18624179.84008789,5142880.916595459,2137418.270111084,6458906.173706055,1972374.439239502,1424791.3360595703,1595151.1859893799,9069260.597229004,-6638906.478881836,-2600778.818130493,-1823251.3666152954,-2436679.3632507324,2955720.6630706787,2116999.864578247,-2578912.7349853516,-8470595.359802246,11421430.587768555,-2732281.20803833,-3091659.7843170166,-2644049.882888794,-1837990.403175354,2659033.77532959,2305185.7948303223,-3102519.2737579346,9482939.720153809,6542618.751525879,103676.2222647667,123414.21842575073,11220471.382141113,4340014.457702637,2633293.390274048,2765042.781829834,2041394.7105407715,7163102.149963379,-422403.09715270996,-924654.7818183899,8680248.260498047,10809174.537658691,10834345.817565918,2895405.2925109863,2138921.7376708984,2290419.578552246,2563587.9039764404,10534893.035888672,11084162.712097168,9041790.962219238,10677199.363708496,10386281.967163086,10399349.212646484,3207028.388977051,1475490.3316497803,2971287.488937378,10340623.85559082,10692067.14630127,10399150.848388672,10425752.639770508,3067254.5433044434,2836497.0684051514,10300784.11102295,10604557.037353516,10476889.610290527
0.31,28861469.268798828,14307575.225830078,473798.63262176514,1199177.861213684,6631012.439727783,3489559.1735839844,3112891.912460327,3075125.4558563232,7664967.5369262695,-7426849.365234375,-2081901.3118743896,-1353449.4638442993,-1931406.6171646118,4395909.786224365,3772424.6978759766,24001.197889447212,-5820817.470550537,12310375.213623047,-2279623.7468719482,-2751420.9747314453,-2240697.3838806152,-1464701.533317566,4155832.290649414,3824507.95173645,-276421.4873313904,12034264.56451416,7863833.904266357,-41365.51544070244,86999.74417686462,10909631.729125977,4568130.016326904,3941417.932510376,4384095.668792725,3802724.3614196777,8354387.283325195,-306564.7482872009,-980134.904384613,8284176.826477051,10597730.63659668,10866114.616394043,4298635.959625244,3749241.590499878,3936996.2215423584,4134869.5755004883,10857885.360717773,11204532.623291016,8583751.678466797,10941180.229187012,10789421.081542969,10549262.046813965,4914075.3746032715,3167988.061904907,4551311.016082764,10606699.94354248,10852286.338806152,10564440.727233887,10629109.382629395,4592025.279998779,4480561.256408691,10567243.576049805,10865039.825439453,10733492.851257324
0.315,36271644.592285156,20961156.845092773,5055266.380310059,5101693.630218506,10282667.16003418,4546326.160430908,4431761.264801025,4104047.7752685547,10060377.12097168,-6095157.146453857,-345167.04082489014,312069.3862438202,-196219.14625167847,6517159.461975098,4887359.142303467,2044245.2430725098,-3138025.7606506348,13637496.948242188,-532695.9490776062,-1176151.6332626343,-622286.6773605347,333389.8186683655,6340633.392333984,4773958.683013916,532500.5650520325,13999199.867248535,8499307.632446289,-287676.0959625244,-316358.86430740356,11884908.676147461,6108870.506286621,5974933.14743042,5302462.577819824,4753808.975219727,8802360.534667969,-473885.6554031372,-1296337.1276855469,8489734.649658203,11565833.09173584,10771982.192993164,6334764.9574279785,4674900.054931641,4823313.7130737305,5186195.373535156,11006825.44708252,11185078.620910645,8702584.266662598,11179300.308227539,10880763.053894043,10591596.603393555,5885682.582855225,4232935.428619385,5435579.299926758,10719396.591186523,10823234.558105469,10737844.467163086,10716706.275939941,5595190.048217773,5493594.646453857,10624274.253845215,10967980.38482666,10780282.020568848
0.32,52289638.51928711,37883087.158203125,18672174.45373535,13653963.088989258,15948921.203613281,5799908.16116333,5770821.571350098,5302903.652191162,15954002.380371094,-2198870.897293091,1790552.7353286743,2529923.439025879,1950002.1934509277,8735476.49383545,6011450.290679932,3795524.5971679688,-1916198.6112594604,14985610.008239746,1763625.2641677856,972260.4751586914,1467750.5493164062,2707149.2671966553,8639303.207397461,5781708.717346191,34917.95063018799,14334362.030029297,8696200.370788574,-270367.294549942,-616876.5425682068,13135248.184204102,7646399.021148682,8267240.524291992,6147922.039031982,5617247.104644775,9337779.04510498,-408395.4393863678,-1431480.7653427124,9521991.729736328,12746205.32989502,11436034.202575684,8476901.054382324,5600604.057312012,5745632.171630859,6272575.855255127,11697991.371154785,11864346.504211426,9669554.710388184,11892202.377319336,11477252.006530762,11289916.9921875,6746890.068054199,5164740.562438965,6364620.208740234,11507347.106933594,11431533.813476562,11618639.945983887,11409894.943237305,6608962.535858154,6445065.975189209,11295837.40234375,11579200.744628906,11405490.87524414
0.325,60443901.06201172,47663478.85131836,26923381.805419922,19438083.64868164,17793565.75012207,6960570.335388184,6825561.046600342,6452136.516571045,20111120.223999023,1050801.0387420654,1941720.1280593872,2827559.471130371,2079535.722732544,8189137.4588012695,7036297.32131958,5605837.821960449,-1982289.433479309,15686802.864074707,2020531.415939331,1283591.628074646,1565052.9861450195,2917417.049407959,8073008.5372924805,6829875.946044922,527719.6764945984,14352013.58795166,9261219.97833252,-76843.04565191269,-537775.993347168,12588528.633117676,6314754.486083984,7803697.109222412,7029390.335083008,6557630.53894043,10687818.52722168,310868.8294887543,-1254726.4099121094,9614118.576049805,12128372.192382812,11930919.647216797,7856782.913208008,6539240.36026001,6759518.146514893,7274247.169494629,12067301.750183105,12351864.8147583,9623180.389404297,12004537.582397461,11715486.526489258,11630092.62084961,7616313.457489014,6011201.858520508,7355200.76751709,12047008.514404297,11726042.747497559,11973602.294921875,11666739.463806152,7497656.345367432,7308994.770050049,11727218.627929688,11795266.151428223,11701189.041137695
0.33,52876106.26220703,40094413.75732422,21275398.25439453,17123676.300048828,14271877.28881836,5981178.760528564,5722621.440887451,5592597.961425781,18843948.364257812,1247047.0666885376,-200594.17188167572,622899.6515274048,-170780.92694282532,3260636.568069458,6072315.692901611,5189557.075500488,-3054972.4102020264,15301263.809204102,-281561.4640712738,-771113.8725280762,-719322.7410316467,462997.9729652405,2976205.587387085,6061784.744262695,1079247.9515075684,14592728.614807129,9945329.666137695,-82554.33291196823,-322224.1699695587,9789228.439331055,1692160.4871749878,2822496.175765991,6180138.58795166,5730034.828186035,11223777.770996094,916602.3135185242,-1072436.2134933472,7427586.078643799,9285650.253295898,10206276.893615723,2844695.806503296,5623742.10357666,5907899.856567383,6320783.1382751465,10333070.755004883,10716527.938842773,7238226.413726807,9838095.664978027,9708161.354064941,9668962.478637695,6732465.2671813965,5094692.707061768,6503062.725067139,10340089.797973633,9781538.963317871,9798472.40447998,9588242.530822754,6477119.445800781,6310221.195220947,10005379.676818848,9829010.963439941,9762578.964233398
0.335,43008750.915527344,28775220.87097168,12552033.424377441,11860654.830932617,11709161.758422852,3122301.3401031494,2789376.0204315186,2901827.812194824,15307413.101196289,461576.0147571564,-1563545.3462600708,-1030205.7266235352,-1663783.1926345825,-1781007.5283050537,3241815.3285980225,1828037.5003814697,-4639240.741729736,14443749.42779541,-1962138.5335922241,-2275005.81741333,-2199230.432510376,-1268770.694732666,-2236375.8087158203,3480956.792831421,-285679.28075790405,14030477.523803711,9658636.093139648,-332083.0762386322,-328767.2996520996,7399679.660797119,-1793371.9158172607,-2324975.01373291,3589479.923248291,3061510.8013153076,9439683.91418457,288838.35673332214,-1143136.3821029663,5115980.625152588,6920325.27923584,7339617.729187012,-2233767.032623291,2910103.7979125977,3157665.491104126,3558692.693710327,7595322.608947754,7971072.673797607,4872461.318969727,6911767.959594727,6719020.366668701,6723011.493682861,4094339.370727539,2508938.0741119385,3808209.6576690674,7430561.065673828,6892943.859100342,6607892.036437988,6607573.509216309,3794442.892074585,3590046.6442108154,7183821.678161621,6970874.786376953,6836946.964263916
0.34,46058986.66381836,31186965.942382812,14561945.915222168,11943353.652954102,15036167.14477539,2031497.4784851074,1590283.751487732,1831721.4250564575,14986311.912536621,1870471.3582992554,199245.75090408325,540627.0623207092,101360.31359434128,-619648.9334106445,2004706.859588623,-558301.6276359558,-5366341.114044189,14402503.01361084,-384523.868560791,-799385.9648704529,-362313.449382782,477799.4453907013,-1099114.6564483643,2358422.7561950684,-2186963.0813598633,12591763.496398926,8366385.459899902,-485795.40848731995,-546778.9173126221,8280465.126037598,266694.5159435272,-1190016.269683838,2484578.847885132,1860980.6299209595,6965380.1918029785,-1282870.4118728638,-1372091.6509628296,6033929.824829102,7892686.367034912,7339191.436767578,-1035922.4081039429,1788522.9587554932,1921054.3632507324,2421475.410461426,7502458.572387695,7855679.035186768,5991469.860076904,7151556.015014648,6792874.813079834,6874125.957489014,2938275.098800659,1458963.0365371704,2610171.5564727783,7207948.207855225,7100794.792175293,6685706.13861084,6872015.953063965,2844520.092010498,2482001.0662078857,7058521.270751953,7129440.784454346,6948732.376098633
0.345,55241897.58300781,40864467.62084961,22003818.51196289,15686710.357666016,19072256.088256836,4284893.989562988,3695139.8849487305,3926184.1773986816,17321754.455566406,4093141.0789489746,2716707.229614258,3183109.760284424,2777716.875076294,5813059.329986572,4082702.63671875,1056566.834449768,-4670472.621917725,15295803.07006836,2189142.942428589,1505125.7610321045,2374300.956726074,3275183.4392547607,5408242.225646973,4365925.312042236,-1927306.1752319336,11939179.420471191,7486675.73928833,-343567.04354286194,-670736.3128662109,11342823.028564453,5578495.979309082,5273180.961608887,4531847.00012207,3914142.370223999,6648134.708404541,-2138761.9972229004,-1507310.8673095703,9578754.425048828,10992215.156555176,11058359.146118164,5416452.884674072,3956497.1923828125,4000524.9977111816,4555697.441101074,10759264.945983887,11209906.578063965,9803649.90234375,10973892.211914062,10625338.554382324,10764647.483825684,4928850.173950195,3499677.1812438965,4628836.154937744,10594489.097595215,11018197.059631348,10677747.72644043,10944169.998168945,5121885.776519775,4580716.133117676,10460258.483886719,10886525.15411377,10792048.454284668
0.35,52506923.67553711,37486465.45410156,19089414.596557617,14288825.035095215,15736257.553100586,6315683.364868164,5670316.696166992,5815430.641174316,16843568.801879883,3062210.79826355,1890987.753868103,2606349.229812622,2082591.5336608887,9201312.065124512,6212549.209594727,3417273.2830047607,-4163473.606109619,15705436.706542969,1527621.6268539429,688176.0954856873,1701784.7299575806,2642909.049987793,8843189.239501953,6367582.321166992,-309880.97190856934,12961060.523986816,7991178.9894104,-64938.0087852478,-513039.64853286743,12541461.944580078,7246154.308319092,8679238.319396973,6618410.587310791,6088952.06451416,8600821.495056152,-1279644.250869751,-1413074.4934082031,11496614.456176758,12041179.656982422,13888257.98034668,8752897.262573242,6133919.239044189,6198441.505432129,6653697.967529297,13243671.417236328,13866480.827331543,11800925.254821777,13654932.022094727,13476836.204528809,13570120.811462402,6947297.5730896,5465692.520141602,6709595.680236816,13328330.039978027,13826056.480407715,13650800.704956055,13866050.720214844,7218694.686889648,6644033.432006836,13159567.832946777,13583671.569824219,13631740.57006836
0.355,38637569.427490234,21064579.010009766,6469422.817230225,7276855.945587158,7789442.06237793,4920226.573944092,4373495.101928711,4450727.939605713,12748429.298400879,-513561.6660118103,-1592935.8005523682,-804485.6786727905,-1459630.846977234,5397451.400756836,5131152.629852295,2149196.6247558594,-5177500.247955322,15077852.249145508,-1843596.8160629272,-2606326.103210449,-1800447.2255706787,-885420.7396507263,5066138.26751709,5211085.319519043,-190921.20230197906,14389707.565307617,9139707.565307617,133636.17658615112,-205296.23329639435,10371035.5758667,3188643.9323425293,4908377.647399902,5593587.875366211,5095022.201538086,10355298.99597168,272347.5396633148,-1141860.1274490356,9844851.49383545,9604800.2243042,12075541.496276855,4946733.474731445,5013780.117034912,5178287.506103516,5497096.061706543,11711098.670959473,12379811.28692627,10051044.464111328,11766518.592834473,11670134.544372559,11616821.2890625,5850635.528564453,4287933.826446533,5645186.424255371,11845547.676086426,11869668.006896973,11850958.824157715,11922093.391418457,5948028.564453125,5510169.506072998,11687210.083007812,11710028.648376465,11776782.035827637
0.36,33799797.05810547,14382686.614990234,2033133.7451934814,4717447.280883789,6721207.141876221,2613545.6562042236,2194830.1792144775,2257498.025894165,11191125.869750977,-779054.1648864746,-2438104.3910980225,-1732810.7357025146,-2462629.3182373047,847358.226776123,2935457.706451416,-563431.3821792603,-6107672.214508057,15052961.349487305,-2683638.095855713,-3263635.6353759766,-2748019.9337005615,-1815801.6204833984,596643.1498527527,2968990.5643463135,-1296183.9437484741,14788813.591003418,9660385.131835938,195230.73732852936,-23666.296154260635,8046800.61340332,-675824.6421813965,436990.1418685913,3466475.248336792,2862428.903579712,10370811.462402344,615652.5611877441,-896139.6217346191,7477746.963500977,7150790.214538574,8293029.78515625,558140.0394439697,2684383.3923339844,2890562.5343322754,3259847.640991211,8501678.466796875,9013228.416442871,7604808.330535889,8134303.092956543,7991473.67477417,7808619.499206543,3682179.9278259277,2120644.0925598145,3438362.1215820312,8433728.218078613,8053641.319274902,8120545.387268066,8054011.344909668,3581841.7072296143,3296051.502227783,8318928.7185668945,8058534.622192383,8005137.4435424805
0.365,46346782.68432617,27990770.33996582,12956932.067871094,11366031.646728516,16011651.992797852,3498140.573501587,3109320.4021453857,3178656.816482544,15626705.169677734,4321316.719055176,1604087.5911712646,2305296.1826324463,1541612.7443313599,3240250.825881958,3568464.2791748047,616898.8943099976,-4707562.446594238,16866241.455078125,1276492.714881897,791013.6580467224,1229775.1903533936,2264808.8932037354,3075343.370437622,3533032.178878784,-829502.3441314697,14477911.949157715,9401404.38079834,120916.49323701859,-89660.36140918732,9088875.770568848,1375648.021697998,2895231.9622039795,4030154.228210449,3261057.8536987305,9429917.335510254,-749709.1889381409,-889779.269695282,7418467.044830322,8345150.947570801,7609846.115112305,3145524.501800537,3174626.8272399902,3267603.1589508057,3874661.445617676,7834720.611572266,8175697.326660156,7536014.556884766,7509484.767913818,7408169.746398926,7231410.980224609,4278648.853302002,2814450.979232788,3933635.711669922,7588708.400726318,7458208.5609436035,7483823.776245117,7361133.098602295,4140439.987182617,3887084.722518921,7443641.185760498,7438091.278076172,7319628.715515137
0.37,59987289.42871094,43801719.665527344,24134910.583496094,18523992.53845215,25081893.920898438,6273357.391357422,5859141.826629639,5940791.606903076,20636516.571044922,8814145.0881958,5902496.814727783,6712652.683258057,5987462.520599365,10090177.536010742,6101292.610168457,4881322.860717773,-2101996.421813965,18766309.73815918,5490239.143371582,4897207.260131836,5540752.88772583,6645793.437957764,9914335.250854492,6007756.233215332,1108450.7703781128,14547021.865844727,9093924.522399902,-35455.122590065,-242503.67283821106,12699177.742004395,7207936.763763428,9773385.047912598,6372354.984283447,5508334.159851074,8793662.071228027,-2316706.657409668,-1092650.6519317627,8671113.967895508,12243038.177490234,10070904.731750488,10002086.639404297,5655180.931091309,5575180.530548096,6315482.139587402,9612106.323242188,9997144.69909668,8712444.305419922,9683155.059814453,9763960.838317871,9708185.195922852,6724223.613739014,5342499.256134033,6290338.99307251,9419454.574584961,9933827.40020752,9805002.212524414,9687454.223632812,6628042.221069336,6344978.332519531,9173535.346984863,9639829.635620117,9631202.697753906
0.375,59758434.2956543,43415710.44921875,21696697.235107422,17562652.587890625,23930046.08154297,6252286.911010742,5869026.184082031,5996689.319610596,20096357.345581055,7375512.12310791,5363018.989562988,6188847.541809082,5642116.069793701,12633163.452148438,6197245.5978393555,6132889.270782471,-1434663.4149551392,18418899.536132812,4987194.061279297,4076815.128326416,5072916.030883789,6099134.44519043,12398294.448852539,6106708.526611328,1227472.6629257202,15142653.465270996,9089873.313903809,-44710.226356983185,-210452.3777961731,15194609.642028809,10529503.82232666,12384912.490844727,6328252.31552124,5484621.047973633,8711574.55444336,-2404641.628265381,-1180269.3605422974,8642454.147338867,14880766.868591309,11234953.880310059,12404108.047485352,5780801.773071289,5655611.515045166,6223680.49621582,10247669.219970703,10852754.592895508,8504776.954650879,10505637.168884277,10656787.872314453,10681624.412536621,6762283.802032471,5364775.657653809,6353559.494018555,10212496.757507324,10961041.450500488,10694652.557373047,10600682.258605957,6614635.467529297,6377197.265625,9957228.660583496,10454483.985900879,10568017.00592041
0.38,53827838.89770508,34485469.818115234,12996784.210205078,13146036.148071289,16594938.278198242,3059165.2393341064,2750272.035598755,2950436.3536834717,16967296.600341797,3992864.1319274902,1824401.1402130127,2499269.485473633,2201780.5576324463,8549640.655517578,3259384.870529175,2906122.922897339,-2931122.7798461914,17010908.126831055,1619744.896888733,302699.17845726013,1614943.9811706543,2458226.9191741943,8340733.528137207,3211755.2757263184,-1328629.6129226685,15648557.662963867,9101987.838745117,285394.3407535553,60819.20117139816,14637764.930725098,9440106.391906738,8402686.11907959,3399261.713027954,2636441.230773926,8753257.751464844,-1234804.9879074097,-929991.9605255127,7282748.699188232,14215620.040893555,8964404.106140137,8285855.293273926,2859818.22013855,2842377.9010772705,3139246.4637756348,8288094.520568848,9034364.700317383,7051751.613616943,8272360.801696777,8240814.208984375,8183794.021606445,3782877.9220581055,2354396.8200683594,3518736.1240386963,8271591.1865234375,8544341.087341309,8290010.452270508,8244333.267211914,3504345.8938598633,3380812.168121338,8179842.948913574,8213827.133178711,8231354.713439941
0.385,57244827.27050781,34568550.10986328,12545677.185058594,15062303.54309082,14112281.799316406,1193561.5539550781,894559.3237876892,1124128.818511963,18728420.25756836,6342725.75378418,1353009.4623565674,1917342.0667648315,1716223.3591079712,4263970.851898193,1328657.1502685547,717359.3044281006,-3532083.27293396,18017362.594604492,1268421.7691421509,-292924.4339466095,1145445.2276229858,1864944.8156356812,4140669.822692871,1311062.6935958862,-3251926.1837005615,15828684.80682373,8922332.763671875,732992.41065979,320821.04682922363,12373709.678649902,7506727.21862793,4091606.1401367188,1526119.589805603,826222.0025062561,8399386.405944824,-586648.5238075256,-565216.3028717041,6340646.266937256,11766901.016235352,5798571.1097717285,4139411.9262695312,876194.5962905884,942745.2683448792,1225508.5706710815,5824799.537658691,6501327.5146484375,6259787.559509277,5435870.170593262,5215500.831604004,4972326.755523682,1740850.0909805298,396967.5004482269,1597046.971321106,5665196.895599365,5353241.443634033,5234184.265136719,5246269.226074219,1421992.540359497,1351577.0435333252,5754272.937774658,5458738.803863525,5223104.953765869
0.39,66831665.0390625,42410442.35229492,19307640.075683594,22564874.64904785,18879751.205444336,2891022.9206085205,2507520.914077759,2701128.2444000244,25359090.80505371,13732968.3303833,5455305.576324463,6122193.813323975,5741679.668426514,4844572.067260742,2660657.8826904297,3108278.98979187,-1781794.6672439575,21753746.032714844,5263805.866241455,3829329.9674987793,5140990.734100342,5910229.206085205,4714228.15322876,2647407.054901123,-2181101.3221740723,16066907.88269043,8722045.8984375,855052.649974823,345546.00715637207,10862035.751342773,7750987.529754639,4481871.128082275,2821395.3971862793,2139053.3447265625,7461857.318878174,-1341906.0707092285,-446511.53683662415,6266730.785369873,10244160.652160645,4661226.749420166,4816215.515136719,2119398.1170654297,2129455.56640625,2663667.917251587,4864850.5210876465,5401961.803436279,6465566.158294678,4460243.225097656,4316424.84664917,3973021.5072631836,2923878.6697387695,1715098.9770889282,2727027.654647827,4588034.629821777,4277528.285980225,4253204.345703125,4246331.214904785,2695398.3306884766,2593166.3513183594,4685729.98046875,4581174.373626709,4248962.879180908
0.395,67705055.2368164,42779045.10498047,20939071.655273438,25922214.50805664,22920242.309570312,5345531.463623047,4867070.67489624,5043249.607086182,28735782.623291016,17138343.811035156,9032468.795776367,9886434.555053711,9221229.553222656,7863168.716430664,4939424.03793335,6517395.496368408,-38897.52924442291,24132934.5703125,8612794.876098633,7590609.073638916,8627820.014953613,9573348.045349121,7638166.904449463,4913389.205932617,175158.753991127,16899581.909179688,8697229.385375977,650599.8373031616,270272.49336242676,11577098.846435547,9491575.241088867,7386413.097381592,5000242.710113525,4342780.113220215,6920149.326324463,-2074053.0490875244,-508196.5923309326,6528655.529022217,11152177.810668945,5744718.074798584,7757069.110870361,4356256.008148193,4273727.4169921875,4995218.753814697,5508786.201477051,6023191.928863525,6883624.55368042,5408712.387084961,5463054.180145264,5222328.186035156,5206278.324127197,3961482.048034668,4828588.962554932,5274552.822113037,5430351.734161377,5359987.735748291,5243029.1175842285,5027548.789978027,4932684.421539307,5241535.186767578,5468811.988830566,5330038.070678711
0.4,58127941.1315918,33002849.578857422,14470393.180847168,21346738.815307617,20006532.669067383,6030368.804931641,5519346.714019775,5750850.200653076,24415304.18395996,11849198.341369629,7674114.227294922,8558498.38256836,7793292.52243042,9123159.408569336,5878677.845001221,6638517.379760742,-813567.8768157959,22037790.298461914,7186593.532562256,6503516.19720459,7346094.608306885,8440834.045410156,8907394.409179688,5825233.936309814,1424235.8207702637,18400438.30871582,8735473.6328125,606698.2746124268,388391.7033672333,14562210.083007812,11267402.648925781,8803705.215454102,5948008.5372924805,5396161.079406738,8444995.880126953,-947419.5241928101,-382585.91294288635,7787755.966186523,14299606.323242188,8273755.073547363,8935790.061950684,5370553.016662598,5294402.599334717,5970838.0699157715,7729633.808135986,8309814.453125,8089172.36328125,7840732.574462891,7882463.455200195,7846450.8056640625,6412617.6834106445,4921060.562133789,5940199.851989746,7643079.75769043,8031234.7412109375,7853099.346160889,7700228.214263916,6127593.040466309,6121200.084686279,7518227.577209473,7718780.517578125,7802931.785583496
0.405,51155761.71875,26066576.00402832,8963459.014892578,15378619.194030762,12730730.056762695,6109201.431274414,5627439.022064209,5883845.806121826,17688097.00012207,4065574.1691589355,3391390.323638916,4127865.3144836426,3522690.0577545166,8879194.259643555,6298470.973968506,4519626.140594482,-3478650.5699157715,17548807.14416504,3068069.6964263916,2388641.119003296,3254981.04095459,4370659.351348877,8832499.504089355,6237565.517425537,1562070.1313018799,19543939.5904541,8419608.116149902,892229.7358512878,640675.961971283,18273227.69165039,13002395.629882812,8802850.723266602,6553441.524505615,6166459.083557129,11649073.600769043,1322521.3289260864,-81368.00676584244,10738743.782043457,17934329.986572266,11873949.05090332,8778725.624084473,5983391.761779785,5960771.560668945,6548906.8031311035,11576940.536499023,12145668.029785156,10921757.698059082,11596198.081970215,11441370.010375977,11488460.540771484,7205803.871154785,5518885.612487793,6843426.22756958,11611783.027648926,11715675.354003906,11500112.533569336,11535824.7756958,6795605.659484863,6805268.287658691,11500227.928161621,11441241.264343262,11465838.432312012
0.41,53333515.16723633,28922433.853149414,9946199.417114258,14220331.192016602,7103504.180908203,6662556.6482543945,6252026.081085205,6387961.387634277,15637433.052062988,2258679.151535034,1272586.3456726074,1873867.6309585571,1495317.5783157349,9041316.986083984,6870678.901672363,2974256.5155029297,-5900055.408477783,15098897.933959961,1103990.5548095703,215593.1442975998,1229081.0346603394,2278253.7937164307,9099652.290344238,6879836.559295654,1003661.2749099731,18621625.900268555,7336225.0328063965,971550.6434440613,587662.1007919312,20018482.208251953,14167637.825012207,8967604.637145996,7340160.369873047,7041283.60748291,13026068.687438965,1795108.9143753052,-97796.2464094162,13318374.633789062,19464391.708374023,14822356.224060059,9068055.152893066,6752734.661102295,6705793.857574463,7335922.2412109375,14896537.780761719,15346142.768859863,13479140.281677246,14735651.016235352,14549775.123596191,14473085.403442383,7990698.81439209,6378962.993621826,7803886.890411377,14964497.566223145,14725696.563720703,14548756.59942627,14875045.776367188,7619024.276733398,7457197.189331055,14900692.9397583,14789353.370666504,14547761.917114258
0.415,55471027.37426758,32737220.764160156,12140336.990356445,15841947.555541992,4972012.519836426,5832558.155059814,5520098.2093811035,5485517.501831055,17992652.893066406,6316867.351531982,2723770.1416015625,3333440.5422210693,3049004.316329956,8178936.004638672,5816001.892089844,1517793.05934906,-7108967.7810668945,16176996.231079102,2493724.584579468,1521741.271018982,2596663.236618042,3573555.2310943604,8083115.577697754,5959421.634674072,-932048.6187934875,15566987.037658691,5744748.115539551,398215.3832912445,18028.149381279945,18136611.938476562,12741876.602172852,7875501.63269043,6353946.685791016,5977733.135223389,10011621.475219727,-831914.484500885,-645442.9626464844,12216820.71685791,17507921.21887207,14016906.73828125,8155269.622802734,5760924.816131592,5635401.248931885,6326519.966125488,14095938.682556152,14477302.551269531,12445473.670959473,13912361.145019531,13952727.317810059,13719364.166259766,6927979.469299316,5525945.18661499,6756996.631622314,14136524.200439453,13932216.64428711,13776974.67803955,14219025.611877441,6696005.344390869,6320787.42980957,14117259.979248047,14147068.977355957,13805180.549621582
0.42,47112415.3137207,27203424.45373535,8201858.5205078125,14852462.768554688,3528009.4146728516,2549186.944961548,2315282.8216552734,2264751.434326172,19470529.556274414,9242149.353027344,4452643.394470215,5158998.012542725,4831612.110137939,3711412.191390991,2437786.340713501,-1114570.4984664917,-7050273.418426514,18744119.64416504,4065021.9917297363,3270276.7848968506,4235643.8636779785,5120321.273803711,3338463.306427002,2670834.0644836426,-3540271.282196045,13280091.285705566,4864835.262298584,-380239.48669433594,-650957.8824043274,14092094.421386719,8052691.459655762,3253478.527069092,2920024.1565704346,2412616.968154907,5289126.873016357,-3993556.499481201,-1215288.6390686035,7619687.557220459,13596735.000610352,8995805.740356445,3516752.004623413,2341522.693634033,2200406.789779663,2831286.668777466,8920746.803283691,9393957.138061523,7887001.514434814,8759907.722473145,8940716.743469238,8757757.186889648,3497900.7244110107,2157190.5612945557,3170122.3850250244,8926150.32196045,8886759.757995605,8716229.438781738,9026509.284973145,3297830.104827881,2907848.358154297,8973587.989807129,8917992.59185791,8805298.805236816
0.425,31610385.89477539,14833098.411560059,-1677381.157875061,10821678.161621094,295212.38803863525,-279919.8627471924,-502429.3661117554,-422852.5161743164,18400547.02758789,7541702.747344971,3570415.735244751,4338868.618011475,3943597.5551605225,-2321799.9935150146,-249010.44368743896,-2767971.0388183594,-5521246.433258057,20787172.317504883,3184172.6303100586,2639431.953430176,3410368.9193725586,4151131.6299438477,-2797544.9562072754,-48239.67069387436,-3930685.9970092773,14726211.547851562,5836416.721343994,-547298.5506057739,-816812.3364448547,11385919.570922852,3237244.129180908,-2718248.6057281494,188405.63297271729,-306657.6421260834,4105981.3499450684,-4217033.386230469,-1223899.7220993042,3641610.860824585,11001030.921936035,3859252.2144317627,-2558532.476425171,-312915.3251647949,-396479.42781448364,147964.19441699982,3917634.963989258,4523049.354553223,3864925.3845214844,3572270.8702087402,3571486.234664917,3656702.995300293,825845.7183837891,-633481.8005561829,391635.35833358765,3901672.36328125,3687339.5442962646,3549944.4007873535,3677976.8466949463,520747.6615905762,330949.8131275177,4003321.647644043,3562606.8115234375,3740005.7315826416
0.43,23518516.540527344,8126011.848449707,-8816679.954528809,9028378.4866333,-2731311.082839966,459015.54822921753,217730.313539505,330979.9134731293,18567264.556884766,5394663.333892822,1469946.265220642,2213961.124420166,1788323.5216140747,-3820784.091949463,610247.9100227356,-514088.2730484009,-2831364.393234253,22289379.119873047,1237210.0353240967,814128.3392906189,1411065.5784606934,2078010.5590820312,-4159802.4368286133,717458.4269523621,-1064980.7453155518,18934276.580810547,8205164.909362793,-50340.76049923897,-415035.57562828064,12042617.797851562,2675294.6376800537,-4127565.860748291,1021950.7217407227,698990.4046058655,7488964.557647705,-1476501.3456344604,-805641.3531303406,3169275.999069214,11575646.40045166,2806700.4680633545,-3908913.3739471436,680602.0736694336,650451.7197608948,1203926.2056350708,3144161.7012023926,3719199.1806030273,3347162.961959839,2498227.834701538,2257577.896118164,2600561.1419677734,1640421.1521148682,85359.92354154587,1312037.8255844116,3103326.3206481934,2522263.288497925,2489967.107772827,2555855.5126190186,1270905.4946899414,1281464.0998840332,3170430.4218292236,2506905.3173065186,2700290.4415130615
0.435,36866924.28588867,20201848.98376465,575478.6729812622,15477133.750915527,872872.8294372559,3488253.8318634033,3286249.1607666016,3231568.8133239746,23271198.272705078,8437062.26348877,2166032.552719116,2846533.77532959,2420855.0453186035,2585239.4104003906,3511289.8349761963,4676277.160644531,-75822.96431064606,24012220.38269043,1950073.2421875,1569596.290588379,2039398.6701965332,2906357.526779175,2395547.389984131,3583233.8333129883,2136101.007461548,22070671.08154297,10148669.242858887,362072.49760627747,43002.59053707123,14820283.889770508,7112901.210784912,2213567.018508911,3784155.6072235107,3608066.7972564697,11203954.696655273,1045382.6189041138,-564473.9866256714,4558646.202087402,14224850.65460205,4956552.028656006,2634655.237197876,3554037.570953369,3586728.811264038,4135764.1220092773,5169347.763061523,5545496.463775635,4787580.490112305,4522721.290588379,4336584.568023682,4750055.78994751,4286516.189575195,2746072.292327881,4153471.4698791504,5075927.734375,4558826.923370361,4588551.044464111,4666668.41506958,3976285.696029663,4021969.3183898926,5053854.942321777,4640561.580657959,4615697.860717773
0.44,76081436.15722656,58076526.6418457,37297657.01293945,32250396.728515625,16734710.693359375,5201978.2066345215,5087370.3956604,4891641.616821289,31127195.358276367,16785013.19885254,7807191.848754883,8486008.644104004,8084521.293640137,13469731.330871582,4912196.636199951,9468835.830688477,2272567.5106048584,26071100.23498535,7289780.139923096,7018929.481506348,7417140.007019043,8757349.014282227,13242311.477661133,5026096.343994141,2827177.7629852295,22367424.01123047,10426806.449890137,219764.15812969208,113000.7803440094,16969875.33569336,12610843.658447266,12962121.00982666,4882406.711578369,4715404.987335205,11546921.730041504,1043499.8273849487,-715473.6518859863,4506865.978240967,16414545.059204102,5586585.521697998,13493183.135986328,4524654.388427734,4710979.93850708,5097229.480743408,5178761.4822387695,5406879.901885986,4852166.175842285,5022709.846496582,5069584.846496582,5418902.397155762,5280768.394470215,3749461.4124298096,5180652.618408203,5011953.830718994,5145601.749420166,5107412.338256836,5160564.422607422,5026826.858520508,4965148.92578125,4972810.2684021,4998630.046844482,4846938.610076904
0.445,131294296.26464844,115622955.32226562,95866233.8256836,55436534.8815918,42548908.23364258,4595087.051391602,4492620.468139648,4425423.622131348,38603477.478027344,25805381.774902344,16479156.494140625,17273731.231689453,16923025.131225586,21899536.1328125,4007056.713104248,12734644.889831543,4804328.918457031,28129974.365234375,15540869.71282959,15382786.750793457,15809339.52331543,17628492.35534668,21519205.09338379,4136551.3801574707,1837882.2803497314,21544876.098632812,9514447.212219238,-107643.39566230774,-136849.9994277954,17017919.540405273,14641422.271728516,21369724.27368164,3634282.5889587402,3438880.9204101562,9071856.498718262,-836877.5844573975,-908740.9973144531,2097276.210784912,16611421.585083008,1758198.0228424072,21818162.91809082,2939773.0827331543,3316399.097442627,3492969.512939453,791407.5255393982,1094244.360923767,2498558.99810791,1261224.5082855225,1334330.3203582764,1604649.305343628,3969801.664352417,2376627.4452209473,3686652.421951294,571408.1525802612,1323463.0823135376,1175106.6446304321,1170314.1927719116,3678891.658782959,3456794.7387695312,601769.6261405945,817441.8210983276,776940.8226013184
0.45,180018066.40625,169830718.99414062,149922927.8564453,76181190.49072266,66668281.55517578,3398286.5810394287,3192631.959915161,3409245.252609253,44092250.82397461,31637800.216674805,23870628.356933594,24813055.03845215,24505386.352539062,23603096.00830078,2642983.4365844727,15373918.533325195,7524319.648742676,30017520.904541016,22758640.28930664,22486387.252807617,23063266.75415039,25116241.455078125,23169441.22314453,2666169.1665649414,1209915.9955978394,21242431.640625,8675359.725952148,-84739.47644233704,-349142.5812244415,15583746.910095215,12562099.45678711,23179994.583129883,2028471.4698791504,1867411.2558364868,6070454.120635986,-2902571.9165802,-850660.3240966797,-1289176.9409179688,15198905.944824219,-4918636.798858643,23479143.142700195,1063786.9834899902,1484677.3147583008,1614010.8108520508,-5905544.757843018,-5401708.602905273,-943273.0078697205,-5201327.323913574,-5339632.034301758,-5171742.916107178,2232054.4719696045,603174.2095947266,1758157.9685211182,-6124102.1156311035,-5369729.518890381,-5542920.112609863,-5569014.549255371,1921365.1418685913,1536581.6354751587,-6075984.954833984,-5954099.178314209,-5845811.84387207
0.455,199660461.42578125,192678085.32714844,169908401.4892578,85521011.35253906,76270881.65283203,3007866.382598877,2720036.745071411,3057322.0252990723,47647884.368896484,33622989.654541016,26521261.21520996,27477182.388305664,27157489.776611328,19841894.149780273,2235294.1036224365,17315290.451049805,9348054.885864258,31628700.256347656,25587829.58984375,24938316.345214844,25725980.758666992,27744915.008544922,19524593.353271484,2069408.1783294678,1179426.4316558838,21175973.892211914,8710259.437561035,227059.33451652527,-323361.5756034851,14215910.911560059,9793847.08404541,19514039.993286133,1533870.3393936157,1373224.4968414307,3934340.9538269043,-4279170.036315918,-667632.8182220459,-4119322.7767944336,13671402.931213379,-10334356.307983398,19730913.162231445,544477.2839546204,808053.9107322693,1035951.6143798828,-10936920.166015625,-10340221.405029297,-3858542.9191589355,-10514279.36553955,-10747413.635253906,-10748309.135437012,1493911.2663269043,-74073.44877719879,1015683.0549240112,-11107738.494873047,-10801299.095153809,-10948739.051818848,-10945686.340332031,1286439.8956298828,794149.9948501587,-11157998.085021973,-11196460.723876953,-11102379.79888916
0.46,183392181.39648438,173604766.84570312,148573516.84570312,80038108.8256836,67671531.6772461,4017229.5570373535,3769828.5579681396,3984930.2768707275,48160797.119140625,32078346.252441406,23737138.748168945,24547908.782958984,24172996.520996094,15295207.977294922,3362806.3201904297,17967252.731323242,9900859.832763672,32524662.017822266,23093120.574951172,22080020.904541016,23050359.72595215,24850522.994995117,15111346.244812012,3078985.9294891357,2030593.6336517334,21596242.904663086,9796557.426452637,378007.79938697815,-153749.34673309326,13912564.277648926,9861225.128173828,14952468.872070312,2765897.274017334,2450660.467147827,4220388.889312744,-4327523.708343506,-591254.8899650574,-5020335.1974487305,13198269.844055176,-11043164.253234863,15174919.128417969,1866362.5717163086,1943991.5418624878,2256720.3044891357,-11280869.483947754,-10770056.72454834,-4803274.631500244,-11321751.594543457,-11387460.708618164,-11523734.092712402,2536509.0370178223,1057564.4969940186,2187942.0280456543,-11402961.730957031,-11441769.59991455,-11631177.90222168,-11573575.973510742,2450986.385345459,1967450.8571624756,-11541990.280151367,-11756373.405456543,-11726357.460021973
0.465,145307907.1044922,130026245.1171875,106728996.27685547,64328514.099121094,48918052.673339844,7429134.368896484,7218767.6429748535,7296510.219573975,44071884.15527344,27125865.936279297,17756097.7935791,18448616.02783203,18053201.67541504,14052443.504333496,6978345.3941345215,18576215.744018555,10108954.429626465,32057086.944580078,17259189.60571289,16152639.389038086,17239236.83166504,18703546.52404785,13854659.080505371,6748198.03237915,5648019.790649414,24026060.104370117,11532534.5993042,199089.98906612396,-63646.72631025314,14686683.654785156,13227056.503295898,13627553.939819336,6676743.030548096,6164430.141448975,8564117.431640625,-2368662.8341674805,-635971.7845916748,-2639925.479888916,13920303.344726562,-6039798.259735107,13920158.386230469,5780632.019042969,5827178.001403809,6201008.319854736,-6163446.426391602,-5757276.53503418,-2464828.7296295166,-6434029.579162598,-6358404.159545898,-6468144.89364624,6508457.660675049,5073475.360870361,6232553.958892822,-6276104.45022583,-6326095.5810546875,-6605242.2523498535,-6466023.4451293945,6401926.040649414,6005980.968475342,-6377628.326416016,-6787830.829620361,-6648623.466491699
0.47,109661018.37158203,92775573.73046875,73486839.2944336,48413578.033447266,33047706.604003906,13103490.829467773,12756455.421447754,12856202.125549316,37280624.38964844,20857048.03466797,12650808.334350586,13389790.534973145,13054432.86895752,17104913.71154785,12863001.823425293,20664976.119995117,10053197.860717773,29973442.07763672,12175430.297851562,11158136.367797852,12296141.624450684,13473117.82836914,16791719.436645508,12763975.143432617,11673787.117004395,27587568.283081055,12584332.466125488,-76711.41624450684,-198103.26397418976,16180534.362792969,18131294.25048828,16655910.49194336,12851385.116577148,12334990.501403809,15091706.275939941,656538.3076667786,-728121.1614608765,2567160.129547119,15452965.73638916,2491618.871688843,17050672.53112793,11901876.449584961,12068785.667419434,12546099.662780762,2196591.377258301,2630751.371383667,2680386.543273926,2126326.084136963,2098675.7278442383,2095825.433731079,12963159.561157227,11547308.921813965,12643717.765808105,2066321.3729858398,2224241.018295288,1930595.7555770874,2187566.2803649902,12727774.620056152,12381209.373474121,2034003.9730072021,1679877.2811889648,2043776.7505645752
0.475,92468765.25878906,79216575.6225586,62001476.2878418,40658920.28808594,28013872.146606445,17616556.16760254,17063615.798950195,17242040.634155273,32962574.005126953,17545894.622802734,11674271.583557129,12489560.1272583,12228299.140930176,22090272.903442383,17562561.03515625,22555274.963378906,8131039.619445801,26920516.967773438,11254533.767700195,10217562.675476074,11359831.809997559,12547631.26373291,21758312.225341797,17476465.225219727,15014773.36883545,28020072.93701172,11443173.4085083,-202881.54482841492,-476729.8698425293,18124118.80493164,22818822.860717773,21752174.377441406,17529909.133911133,17228858.947753906,18157180.786132812,1994972.3482131958,-858768.1651115417,7314891.815185547,17494974.13635254,9878458.976745605,22218708.038330078,16636875.15258789,16958631.51550293,17465272.903442383,9185871.124267578,9725585.9375,7452955.722808838,9627536.77368164,9472450.256347656,9464161.87286377,17910806.65588379,16522125.244140625,17561763.763427734,9074125.289916992,9547206.87866211,9309763.90838623,9692350.387573242,17613113.403320312,17258960.723876953,8974101.066589355,9192794.799804688,9614897.727966309
0.48,90226402.28271484,80099708.5571289,62881587.982177734,40721443.17626953,30900024.4140625,16985689.163208008,16455820.083618164,16595790.86303711,33343833.923339844,18812126.15966797,14100740.432739258,14817270.278930664,14525621.41418457,24816585.540771484,17125074.38659668,20810300.827026367,3791290.521621704,24167152.404785156,13789632.797241211,12525852.20336914,13666207.313537598,15160205.841064453,24641347.885131836,16891723.6328125,11647381.782531738,23355272.29309082,8423320.770263672,-134889.24503326416,-604571.6404914856,19952919.006347656,25732633.590698242,24661096.572875977,16760692.596435547,16650249.481201172,14860213.279724121,287873.5661506653,-955133.0804824829,8571836.471557617,19493494.033813477,12214030.265808105,25124111.17553711,16033695.220947266,16471967.697143555,16769617.080688477,11175357.818603516,11747065.544128418,8886859.893798828,12039244.651794434,12008420.944213867,11912699.699401855,17230459.213256836,15875513.076782227,16970100.40283203,11151730.53741455,11917263.03100586,11675437.927246094,12148281.09741211,17001655.57861328,16697025.299072266,10871442.794799805,11860236.167907715,12089887.619018555
0.485,86313385.00976562,73206436.15722656,58237243.65234375,40145542.14477539,31469051.361083984,11854995.727539062,11631209.373474121,11635793.685913086,34064212.799072266,20265848.15979004,15322668.075561523,15837875.366210938,15405313.491821289,22256824.493408203,12179131.507873535,15311768.531799316,-731802.6423454285,22465276.71813965,15048775.672912598,13562943.458557129,14720355.987548828,16437406.539916992,22250062.942504883,11825389.862060547,4984811.305999756,17783374.786376953,5894146.44241333,60811.44884228706,-363615.4234409332,20591861.724853516,25126468.658447266,22195175.170898438,11612154.006958008,11446124.076843262,9462450.02746582,-2299452.781677246,-856561.2435340881,7383715.629577637,20292802.810668945,9996992.111206055,22616231.91833496,10986095.428466797,11469271.659851074,11466989.517211914,9058755.874633789,9563349.723815918,7857373.237609863,9847837.448120117,10047045.707702637,10022095.680236816,12023933.410644531,10731440.544128418,11879706.382751465,9125397.682189941,9884022.71270752,9566664.695739746,10073082.92388916,11906822.204589844,11738990.783691406,8738170.623779297,10004164.695739746,10023096.084594727
0.49,71739807.12890625,50796337.12768555,42521106.7199707,33024860.382080078,23683338.165283203,7440035.343170166,7474127.292633057,7411397.457122803,30192558.28857422,16682050.704956055,12026269.912719727,12515370.36895752,11994510.650634766,15949885.368347168,7834973.8121032715,10220828.05633545,-3065806.8656921387,21376968.383789062,11682116.508483887,10234080.31463623,11358818.054199219,12932187.0803833,15917016.02935791,7557099.342346191,1885361.671447754,16376724.243164062,5514062.881469727,263761.4905834198,45946.17709517479,19743442.53540039,21402357.10144043,15795957.565307617,7547398.567199707,7117822.170257568,8041481.018066406,-2937720.537185669,-595312.2973442078,7579229.831695557,19439373.016357422,7892036.914825439,16188329.696655273,6881675.720214844,7301155.567169189,7239297.866821289,7455358.505249023,7908558.368682861,7968442.440032959,7757445.812225342,7948972.225189209,8188357.353210449,7896131.992340088,6708554.267883301,7722888.469696045,7514791.488647461,7910668.37310791,7590953.826904297,8065656.661987305,7857618.808746338,7756477.355957031,7163978.099822998,8083610.534667969,8052269.93560791
0.495,56502025.60424805,28941648.483276367,28151073.455810547,24135520.935058594,13056112.289428711,7655872.344970703,7598742.485046387,7617212.295532227,23756704.330444336,9561967.849731445,6697464.942932129,7396869.659423828,6985416.889190674,11807723.999023438,7955104.827880859,9087581.634521484,-3686495.304107666,20069536.209106445,6294199.9435424805,5151355.266571045,6090121.746063232,7386127.471923828,11565558.433532715,7875804.424285889,3655276.5369415283,18238946.91467285,6188432.216644287,284913.8081073761,124697.68524169922,19101200.103759766,19017549.514770508,11446356.773376465,8187890.05279541,7518713.474273682,10857643.127441406,-1891678.0948638916,-493062.43658065796,10902245.52154541,18634387.969970703,10297094.345092773,11800454.139709473,7475618.362426758,7750515.460968018,7876660.8238220215,10091946.601867676,10586017.608642578,11046719.551086426,10161890.029907227,10099485.397338867,10495265.96069336,8574397.087097168,7437820.911407471,8222243.309020996,10065144.538879395,10248474.12109375,10023324.966430664,10395585.060119629,8583727.836608887,8365854.263305664,9765511.512756348,10390700.340270996,10354851.722717285
0.5,54597030.63964844,25341661.45324707,28076368.33190918,22148920.0592041,9500268.936157227,11195728.302001953,10825129.508972168,10980870.246887207,20996692.657470703,5631998.062133789,4711531.639099121,5585882.186889648,5380102.157592773,14238554.954528809,11352749.824523926,11109265.327453613,-4392546.653747559,18621902.465820312,4335384.368896484,3524714.708328247,4186795.234680176,5473219.394683838,13807596.206665039,11417973.518371582,5736291.408538818,18941953.659057617,6013948.917388916,-1852.1249294281006,-340810.50753593445,20773267.74597168,22391174.31640625,13707882.88116455,11818332.67211914,11135867.11883545,13601811.408996582,-1335188.2696151733,-773552.1793365479,15407984.733581543,20213483.810424805,17232389.450073242,13986150.741577148,11187792.778015137,11368444.442749023,11579654.693603516,16456752.77709961,17029827.117919922,15473380.088806152,17082365.036010742,16831754.684448242,17068101.88293457,12355461.120605469,11110648.155212402,11877006.530761719,16400423.049926758,17061964.03503418,16848863.60168457,17065166.473388672,12377302.169799805,12001972.198486328,16072856.903076172,17000120.162963867,16869543.075561523
0.505,61376476.2878418,33659957.88574219,36199668.884277344,26220767.974853516,13627841.94946289,13787666.320800781,13253140.449523926,13435850.143432617,23008476.25732422,7667561.054229736,7046907.424926758,7838532.447814941,7666243.553161621,20047115.325927734,13923645.973205566,12809811.59210205,-5176519.393920898,17924369.81201172,6710586.5478515625,6000618.934631348,6545829.772949219,8030746.4599609375,19603799.81994629,14057456.970214844,5343633.17489624,17920223.236083984,5255509.853363037,-469887.73345947266,-958667.516708374,23987087.24975586,29090034.48486328,19469852.447509766,14227879.524230957,13765621.185302734,14282826.42364502,-1493800.5208969116,-1226399.302482605,18447771.072387695,23554317.474365234,24276073.455810547,19704580.307006836,13752736.09161377,13979665.756225586,14019669.532775879,22544525.146484375,23142589.569091797,18696998.596191406,24145948.41003418,23937419.891357422,23907384.872436523,14943477.630615234,13534407.615661621,14555637.35961914,22576986.31286621,24124898.91052246,23768226.623535156,23821945.190429688,14911786.079406738,14555304.527282715,22238231.658935547,23700416.564941406,23510112.762451172
