time,Fp1,Fpz,Fp2,AF3,AF4,F7,F5,F3,F1,Fz,F2,F4,F6,F8,FT7,FC5,FC3,FC1,FCz,FC2,FC4,FC6,FT8,T7,C5,C3,C1,Cz,C2,C4,C6,T8,TP7,CP5,CP3,CP1,CPz,CP2,CP4,CP6,TP8,P7,P5,P3,P1,Pz,P2,P4,P6,P8,PO7,PO5,PO3,POz,PO4,PO6,PO8,CB1,O1,Oz,O2,CB2
0.0,2291324.6154785156,2707622.289657593,1471544.1465377808,881437.1228218079,-48586.033284664154,1230730.0567626953,469087.98813819885,540397.7632522583,822986.6623878479,240638.3603811264,-195571.05004787445,-1785103.440284729,-1756305.21774292,-1788967.1325683594,426926.5830516815,-1076725.959777832,895812.451839447,795475.7809638977,209597.46837615967,-322907.1795940399,-1777184.009552002,-3508740.6635284424,-1211176.6338348389,418643.14675331116,-421573.0428695679,549636.3639831543,344072.6697444916,-54386.649280786514,-418274.58143234253,-1255869.98462677,-2923889.16015625,-1231021.0466384888,358786.37433052063,-83809.60673093796,277948.20070266724,-72757.22920894623,-55645.95386385918,-121694.75108385086,-478711.8136882782,-1196748.13747406,-1157640.2187347412,356725.5735397339,277569.9496269226,310717.4038887024,-59376.95875763893,-89420.60172557831,-629125.8931159973,-1040527.8205871582,-1078307.9862594604,-1110467.3147201538,24410.460144281387,6574.4491294026375,209897.44365215302,-207308.3519935608,-1005725.622177124,-1022894.6208953857,-1029215.0974273682,-44764.4405066967,-43171.12639546394,-184756.91974163055,-1026868.3433532715,-997495.5320358276
0.005,-3114543.1995391846,14089355.46875,-2436905.860900879,-4886003.9710998535,-5287082.195281982,11620325.088500977,-1851134.8962783813,-753368.1988716125,-1010255.2175521851,-3476675.9872436523,-5896957.3974609375,-5775218.486785889,-4268037.796020508,-5448561.668395996,10052181.243896484,7627132.415771484,5105737.686157227,1459884.1667175293,-2370825.76751709,-3887910.842895508,-3414384.603500366,-5642024.517059326,5111036.777496338,9639573.097229004,12948253.631591797,3389217.6151275635,-2539187.9081726074,-637777.0900726318,-3400611.162185669,-1156347.393989563,-3092627.0484924316,4324241.638183594,7956283.5693359375,8007886.88659668,4771092.891693115,-1108999.6099472046,-537365.9133911133,-357760.4591846466,1691970.5867767334,8011028.289794922,8560012.817382812,8084800.720214844,5634445.667266846,6028449.535369873,3448348.7606048584,-1322343.7070846558,-3982219.934463501,7308073.043823242,6441615.581512451,6682020.664215088,10665393.829345703,9751951.217651367,17315008.16345215,7809992.31338501,7349779.6058654785,7390185.356140137,7828199.38659668,7799664.497375488,7725841.522216797,8215200.424194336,7007555.00793457,7418830.394744873
0.01,-12047760.963439941,14326265.335083008,-7337791.442871094,-11959907.531738281,-10319747.924804688,11650504.112243652,-6912481.784820557,-5367270.469665527,-4805397.510528564,-7281532.764434814,-10812133.7890625,-9839470.863342285,-7792622.5662231445,-9257292.747497559,15444951.057434082,8046031.951904297,5525112.152099609,-90071.32053375244,-5496511.459350586,-7741635.799407959,-6759015.083312988,-8943785.667419434,10053515.434265137,14882340.431213379,18061441.42150879,5394866.943359375,-4638492.584228516,-915565.550327301,-6434090.137481689,-2915534.257888794,-4420180.797576904,8902504.920959473,12688260.078430176,13159980.773925781,9114639.282226562,-1539951.8013000488,-790315.2704238892,-696253.7169456482,2534940.004348755,12862637.519836426,13818108.558654785,12904751.777648926,10512648.582458496,10888807.29675293,6704015.254974365,-1851522.0880508423,-4813719.272613525,12100173.950195312,10928492.546081543,11084352.493286133,19470052.71911621,18178438.186645508,27775634.765625,15048950.1953125,12171779.63256836,12299703.598022461,12845786.094665527,16781608.58154297,16665340.423583984,15815842.628479004,11610764.503479004,12367113.11340332
0.015,-20654703.14025879,6666656.017303467,-11720460.891723633,-17881652.83203125,-13843152.046203613,4040477.752685547,-12426536.560058594,-10974477.767944336,-9043990.135192871,-10202157.020568848,-13850635.528564453,-12800244.331359863,-11123842.239379883,-12061701.774597168,16640945.434570312,1992192.7452087402,3075205.5644989014,-2817191.8392181396,-8474982.261657715,-10914278.984069824,-10647121.42944336,-12694078.44543457,12848239.89868164,16198179.244995117,15717398.643493652,6420839.309692383,-5310632.228851318,-976886.0936164856,-8832615.852355957,-5945322.9904174805,-6805484.294891357,11749762.535095215,14438788.414001465,15010378.83758545,12785446.166992188,-1472658.395767212,-881962.4781608582,-798062.8609657288,2105307.8174591064,13906629.56237793,15010151.863098145,14702685.356140137,14304442.405700684,14379293.441772461,9021856.307983398,-1773776.4120101929,-3333750.2479553223,13733756.065368652,12651700.019836426,12567742.347717285,25629940.032958984,24482755.661010742,31896890.64025879,20927305.221557617,13850285.530090332,14025870.323181152,14443419.456481934,25294240.951538086,25224149.703979492,21942186.35559082,13264001.846313477,14215379.71496582
0.02,-23609710.693359375,1752134.5615386963,-14006084.442138672,-19925477.981567383,-15173130.989074707,-1331233.5014343262,-14617886.543273926,-13295342.445373535,-11284033.77532959,-11521665.573120117,-14860820.770263672,-13814612.38861084,-12591954.231262207,-12999159.812927246,16091464.99633789,-2778700.828552246,1175888.0615234375,-4233660.697937012,-10203449.249267578,-12196536.06414795,-12737001.419067383,-15480158.805847168,12792000.770568848,15839185.71472168,12316914.558410645,6608341.217041016,-4665163.993835449,-1060681.3430786133,-9939840.316772461,-8345377.9220581055,-9723550.796508789,11859972.953796387,14442613.60168457,14817783.35571289,14860178.94744873,-1418442.0108795166,-984647.810459137,-379146.60573005676,1115075.707435608,13864865.30303955,14830094.337463379,14736054.420471191,16225032.806396484,16192285.537719727,9835569.381713867,-1682499.0510940552,-2079883.337020874,14157618.522644043,13088510.513305664,13031480.78918457,28833948.135375977,27929363.250732422,33986694.3359375,24556859.970092773,14375254.63104248,14476145.74432373,14852128.028869629,29894475.93688965,29916349.411010742,25652345.657348633,13911035.537719727,14821598.052978516
0.025,-21709560.39428711,3123943.328857422,-14492830.276489258,-18922941.207885742,-15238213.539123535,-655692.6369667053,-13536864.280700684,-12092502.59399414,-11608777.99987793,-11820961.952209473,-14968739.50958252,-13636421.203613281,-12333199.501037598,-12810578.346252441,14954953.19366455,-2512121.6773986816,1068436.5034103394,-3887866.258621216,-10562089.920043945,-11601125.717163086,-12422998.428344727,-16748378.75366211,9362858.772277832,14805720.329284668,11257348.06060791,6240927.219390869,-3553505.4206848145,-1134063.1246566772,-9853474.617004395,-9174866.676330566,-12625874.519348145,8469927.787780762,13198616.027832031,13593288.42163086,14764710.426330566,-1502524.2567062378,-1048372.9839324951,285869.5089817047,-158537.3431444168,12605358.123779297,13362416.26739502,13529018.40209961,15857599.258422852,16199651.718139648,9468995.094299316,-1800292.8495407104,-2902283.9069366455,12849774.360656738,11608351.707458496,11826209.06829834,28446140.28930664,27552373.8861084,34736183.166503906,24404422.760009766,13258109.092712402,13216562.271118164,13715894.69909668,28402580.26123047,28404287.338256836,25488105.77392578,12868638.038635254,13587877.27355957
0.03,-18473594.665527344,7168808.937072754,-13132534.980773926,-16711965.560913086,-14749894.142150879,2931257.2479248047,-11497335.433959961,-9916511.535644531,-11152796.745300293,-11732931.137084961,-14889557.838439941,-13119034.767150879,-11363604.545593262,-12335074.424743652,13477850.914001465,1133355.1406860352,1691914.5584106445,-3186289.5488739014,-10283609.390258789,-10027648.92578125,-10570726.39465332,-16243005.752563477,3950580.358505249,13378129.005432129,11915826.797485352,6281880.3787231445,-2592041.9692993164,-1006088.0184173584,-8810223.579406738,-8496788.024902344,-13839359.283447266,2982120.7523345947,11392630.577087402,12321502.685546875,13203079.223632812,-1380090.9519195557,-896530.8666229248,866786.3011360168,-1285568.8333511353,8624648.094177246,9321174.621582031,11808130.264282227,13997427.940368652,14909559.24987793,8863052.368164062,-1818178.5345077515,-4867703.437805176,8567595.481872559,7233829.498291016,7588223.457336426,24518720.626831055,23471017.837524414,31200382.232666016,19817571.64001465,9086451.530456543,8988600.730895996,9598329.544067383,21847209.930419922,21677288.055419922,20880025.86364746,8627823.829650879,9196306.228637695
0.035,-14809876.441955566,11202198.028564453,-9322638.511657715,-13553894.996643066,-13435124.397277832,6268415.927886963,-9479543.685913086,-8040828.704833984,-9849749.565124512,-11035417.556762695,-14215183.25805664,-12156471.252441406,-10088953.971862793,-11380542.755126953,12446340.560913086,5176369.190216064,2124928.7128448486,-2902440.071105957,-9885416.984558105,-8167385.101318359,-8017624.855041504,-13885033.60748291,292713.55271339417,12428722.381591797,13373575.210571289,7531618.118286133,-1817715.5256271362,-714663.2671356201,-6730442.047119141,-6547343.2540893555,-11539537.42980957,-742242.2766685486,10378445.625305176,11928533.554077148,11641572.952270508,-896189.6300315857,-560173.0942726135,1638389.8258209229,-980948.0309486389,4037451.74407959,4762634.754180908,10939573.287963867,12241705.894470215,13346280.097961426,8503003.120422363,-1522120.5949783325,-5478084.087371826,3774154.1862487793,2521310.329437256,2731158.971786499,19338966.369628906,18205762.86315918,24073453.903198242,13346784.591674805,4077705.8601379395,4063655.8532714844,4670634.746551514,14105897.903442383,13814398.765563965,14327336.311340332,3555942.2969818115,4105346.6796875
0.04,-12182142.25769043,13709862.70904541,-5684928.417205811,-10908490.180969238,-12175794.60144043,7213681.221008301,-8313912.391662598,-7117656.230926514,-8136985.778808594,-9904064.178466797,-13088308.334350586,-11257855.415344238,-9196632.385253906,-10334120.750427246,11703782.081604004,6298578.262329102,1725404.7393798828,-2757453.680038452,-9401797.2946167,-6514616.4894104,-5966693.878173828,-11352559.089660645,1046329.9751281738,11734698.295593262,14346981.048583984,8740311.622619629,-1458898.3058929443,-495124.1612434387,-4194194.793701172,-4371475.2197265625,-7249947.071075439,4479.01850566268,9866882.32421875,11630662.91809082,10603634.83428955,-422186.404466629,-277820.8553791046,2897097.587585449,1321068.525314331,3323929.0714263916,3966639.0419006348,10540807.723999023,11288517.951965332,12006781.578063965,8036636.3525390625,-1159524.917602539,-3834139.585494995,2996618.9861297607,1796541.452407837,1817897.081375122,16196168.899536133,15101429.93927002,19484621.047973633,9754920.959472656,2866474.6284484863,2968712.091445923,3517992.4964904785,9557495.1171875,9356936.45477295,10519308.090209961,2454186.43951416,3044188.976287842
0.045,-14200975.41809082,12046661.376953125,-6595370.769500732,-11961428.64227295,-12880541.801452637,3494164.228439331,-9816419.60144043,-8549250.602722168,-7995437.6220703125,-9283332.824707031,-12613836.288452148,-11741678.237915039,-9798350.33416748,-10543812.75177002,9507040.023803711,2026882.1716308594,-243489.90619182587,-2595359.8022460938,-8753335.952758789,-5598686.695098877,-5917184.352874756,-11265926.361083984,4361273.288726807,9401529.312133789,12387591.361999512,7532472.133636475,-1961702.1083831787,-447724.0741252899,-2796177.864074707,-3898262.2623443604,-5525105.4763793945,3346858.501434326,7671299.934387207,9451803.207397461,9334499.35913086,-386220.93200683594,-189691.75219535828,3972172.260284424,3727268.934249878,6726730.3466796875,7169643.402099609,8291309.356689453,10364570.617675781,10527266.502380371,7130931.377410889,-1062902.6889801025,-1979006.5288543701,6387708.66394043,5127327.442169189,5080370.903015137,15970319.747924805,14929065.704345703,21075357.43713379,11007209.777832031,6041577.8160095215,6195787.42980957,6664804.458618164,9665670.394897461,9612037.658691406,11515263.557434082,5822412.490844727,6425892.353057861
0.05,-19500314.712524414,7373887.062072754,-10524327.278137207,-15948936.462402344,-14712103.843688965,-3242306.4708709717,-13319411.277770996,-11657723.426818848,-9537061.69128418,-8900760.650634766,-12549249.649047852,-12883371.353149414,-11008804.321289062,-11521126.747131348,5783977.031707764,-4953452.110290527,-2925958.1565856934,-2262264.9669647217,-7786637.783050537,-5262369.632720947,-7356099.605560303,-13336331.367492676,6188286.304473877,5379312.038421631,7469991.207122803,4072989.9406433105,-2883491.039276123,-513711.51208877563,-3245614.767074585,-5586335.6590271,-8041149.139404297,5214580.059051514,3701932.907104492,5735205.65032959,7457851.886749268,-755884.2897415161,-241909.59334373474,3847550.630569458,3729651.689529419,9273873.329162598,9603176.11694336,4128984.9281311035,8763634.68170166,8741856.575012207,6151356.220245361,-1226847.2909927368,-2486035.3469848633,8939891.815185547,7693926.811218262,7584527.492523193,16258674.621582031,15244436.264038086,24510675.43029785,13592606.544494629,8760111.808776855,8935839.653015137,9297307.014465332,11631507.873535156,11513459.205627441,13994585.037231445,8595920.56274414,9205388.069152832
0.055,-20626644.134521484,6287458.419799805,-10368970.87097168,-17271802.90222168,-14119301.795959473,-6718111.038208008,-14904708.862304688,-12957301.139831543,-9714491.844177246,-7183757.781982422,-11044965.744018555,-11785089.492797852,-9984103.202819824,-10521201.133728027,3526959.8960876465,-8192080.497741699,-3888360.7387542725,-1211466.670036316,-6493479.7286987305,-4623369.216918945,-7572659.969329834,-14115362.167358398,5998436.450958252,2904061.3174438477,3653772.8309631348,1552909.7318649292,-3091254.711151123,-707571.6853141785,-4019299.5071411133,-7186924.934387207,-10839282.989501953,5067240.238189697,1309729.814529419,3584379.9114227295,5928344.249725342,-1183364.8681640625,-382589.4892215729,2837353.7063598633,1874277.114868164,7997059.345245361,8419732.093811035,1617862.7014160156,7131589.889526367,7365395.545959473,5646763.324737549,-1440135.7173919678,-5003386.497497559,7661628.246307373,6611439.7048950195,6376211.166381836,14945498.4664917,13987833.976745605,23925485.610961914,13260246.276855469,7709490.776062012,7909783.363342285,8230825.424194336,11972540.855407715,11609893.798828125,13750942.23022461,7420170.307159424,8089063.64440918
0.06,-16869134.9029541,9966794.01397705,-5337684.631347656,-14768429.75616455,-11008420.944213867,-5523813.247680664,-14008790.969848633,-12112196.922302246,-7735941.410064697,-4710589.88571167,-8351687.431335449,-8311450.958251953,-6626831.0546875,-7200551.0330200195,4104074.478149414,-7358372.211456299,-3125782.251358032,96702.17335224152,-5728509.426116943,-3754394.769668579,-5883083.820343018,-12561288.833618164,7444278.240203857,3543903.8276672363,3020249.843597412,1556922.435760498,-2759743.6904907227,-1069658.2794189453,-3408802.270889282,-6790624.618530273,-10297454.833984375,6513548.851013184,2027162.3134613037,3951266.288757324,5560346.1265563965,-1478139.6389007568,-636368.2746887207,2532234.4303131104,1517590.2843475342,6215716.361999512,6857949.256896973,2431483.507156372,6417281.627655029,6956649.303436279,5554693.698883057,-1628269.076347351,-6333022.117614746,5893909.931182861,5030724.52545166,4763752.9373168945,13393853.187561035,12507037.162780762,20948600.76904297,11416023.254394531,5998162.746429443,6132328.987121582,6585483.551025391,11497435.569763184,10997984.886169434,12055647.850036621,5558856.48727417,6329287.052154541
0.065,-18944446.563720703,8793862.342834473,-4709204.67376709,-15656350.135803223,-10631259.91821289,-7435308.456420898,-16129110.336303711,-14322513.580322266,-8037872.314453125,-5007675.1708984375,-8014249.801635742,-6952789.783477783,-5333926.677703857,-5714866.638183594,4117245.674133301,-10529146.194458008,-4296858.310699463,-395354.2709350586,-6848849.296569824,-4268229.4845581055,-5634361.267089844,-12544578.552246094,12339662.551879883,3851134.3002319336,1514999.8664855957,1506384.4919204712,-3643210.1726531982,-1410871.2673187256,-2185380.220413208,-5892864.70413208,-8853877.067565918,11322361.946105957,2276337.6235961914,3473233.461380005,5682766.914367676,-1707435.6079101562,-944119.8110580444,3585404.396057129,4162900.447845459,7947417.736053467,8815576.553344727,2883212.089538574,6390934.467315674,6975180.625915527,5508939.266204834,-1846108.078956604,-4502350.807189941,7806369.781494141,6920950.889587402,6799481.8687438965,14366930.961608887,13485625.267028809,21903535.842895508,13193951.606750488,8014436.721801758,7929396.629333496,8585015.296936035,14153007.507324219,13729953.76586914,13926581.382751465,7516190.052032471,8354013.442993164
0.07,-31418134.689331055,-2465917.5872802734,-13126251.220703125,-23676460.26611328,-15380294.799804688,-16511587.142944336,-23516681.671142578,-21538877.487182617,-13129932.403564453,-9175693.51196289,-11524118.423461914,-10305714.60723877,-8675752.639770508,-8714415.550231934,833096.5638160706,-20582235.33630371,-8726696.968078613,-3283612.012863159,-9603036.880493164,-6722705.841064453,-9002634.048461914,-16616655.349731445,16773036.95678711,888728.0821800232,-3905517.816543579,-835589.4088745117,-6083212.852478027,-1426378.2501220703,-2405790.8058166504,-7055625.438690186,-10794777.870178223,15615586.280822754,-863219.9764251709,138125.07688999176,5361234.664916992,-1904886.3649368286,-1113903.8801193237,4525671.005249023,6865730.762481689,11124625.205993652,12165797.233581543,-141987.26415634155,6277029.037475586,6741801.738739014,5598799.705505371,-2038172.960281372,-1840453.5055160522,11394170.761108398,10357037.544250488,10366330.14678955,17479478.83605957,16580245.971679688,27279369.354248047,18925884.246826172,11910796.165466309,11620573.997497559,12343414.306640625,20036350.25024414,19686647.415161133,19693326.950073242,11430397.033691406,12248756.408691406
0.075,-40046314.23950195,-11775776.863098145,-20186010.360717773,-29548263.549804688,-18997364.044189453,-22623346.32873535,-28137922.286987305,-25943887.71057129,-17056074.142456055,-12341577.529907227,-14381445.88470459,-13826975.82244873,-12237745.28503418,-12112161.636352539,-2193364.143371582,-26606834.411621094,-11244072.914123535,-5265304.088592529,-11293203.353881836,-8613229.751586914,-12344455.71899414,-20703279.495239258,15623425.483703613,-1956866.1451339722,-7916400.909423828,-2848531.2461853027,-7397022.247314453,-1121712.327003479,-4032176.4945983887,-9656918.5256958,-14943539.6194458,14380844.116210938,-3845990.8962249756,-2273306.131362915,4965304.851531982,-1939204.216003418,-1028178.6918640137,3647933.006286621,5752837.657928467,10211243.629455566,11308983.80279541,-3145961.046218872,6120121.002197266,6548416.1376953125,6036561.489105225,-2047790.52734375,-2530402.660369873,10806657.791137695,9700361.251831055,9650562.286376953,18931142.807006836,18127630.23376465,30087179.18395996,21884073.25744629,11498497.009277344,11244751.930236816,11913797.378540039,23025897.979736328,22565050.12512207,22644559.860229492,11074479.103088379,11791562.0803833
0.08,-30276092.529296875,-5009287.8341674805,-14597818.374633789,-22651168.823242188,-14756564.140319824,-14782900.8102417,-21714025.497436523,-19670209.884643555,-12522625.923156738,-9406073.570251465,-11526473.045349121,-11851117.134094238,-10402883.529663086,-10493003.845214844,-73035.77661514282,-18306877.13623047,-6682245.254516602,-2681448.6980438232,-9610647.201538086,-7136342.0486450195,-10917748.45123291,-19627788.543701172,9235055.923461914,113650.74664354324,-3795562.982559204,-676614.9401664734,-5217531.204223633,-854381.7400932312,-4881791.114807129,-10818450.927734375,-16569450.378417969,8022342.681884766,-1773462.7723693848,245194.15199756622,5091378.211975098,-1728627.9201507568,-787695.6462860107,1423758.5067749023,1016373.5151290894,4176333.427429199,5175329.685211182,-1171868.6819076538,6194364.070892334,6687330.722808838,6177860.736846924,-1866680.9797286987,-7251205.921173096,4613614.082336426,3574927.568435669,3403007.2689056396,16050354.00390625,15417670.249938965,25860153.198242188,16865413.665771484,5062574.863433838,5007190.227508545,5712028.026580811,18067808.151245117,17435287.475585938,17585643.768310547,4692637.4435424805,5271801.948547363
0.085,-10971695.899963379,11567841.529846191,-2399980.7834625244,-7943583.011627197,-6211106.300354004,47990.69091677666,-9292647.361755371,-7722265.243530273,-2452042.818069458,-2557193.0408477783,-4963791.370391846,-6506223.201751709,-5128728.38973999,-5649821.758270264,4878772.258758545,-3259446.382522583,1682082.5338363647,3092131.1378479004,-5775931.358337402,-3289564.847946167,-6427462.100982666,-15406741.14227295,2919729.471206665,4769219.875335693,4914187.431335449,4215945.243835449,-1254724.7409820557,-865107.4767112732,-3995278.5968780518,-9951770.782470703,-15194433.212280273,1779553.2941818237,2990742.4449920654,4576208.591461182,4760859.966278076,-1423415.5416488647,-593922.1382141113,-81938.34125995636,-3324625.4920959473,-2129419.3267822266,-1259678.1253814697,3428361.177444458,5642672.538757324,6129926.2046813965,4812963.962554932,-1718679.428100586,-11979468.34564209,-2192832.2315216064,-3128722.906112671,-3281188.726425171,10293491.36352539,9665894.508361816,18756696.701049805,7483216.762542725,-2031106.4720153809,-2075655.6987762451,-1219431.757926941,8263687.1337890625,7624368.667602539,8219698.905944824,-2451276.0639190674,-1975080.2516937256
0.09,-2818584.442138672,19632694.244384766,1723707.914352417,-7125.889882445335,-2488803.1482696533,5129618.6447143555,-3334069.013595581,-2109060.764312744,3107297.658920288,1544149.63722229,-1214746.2368011475,-4669347.763061523,-3165265.3217315674,-3979457.378387451,5912698.268890381,2562860.2504730225,5952996.730804443,7037639.617919922,-3097347.0211029053,-725518.1670188904,-4671003.341674805,-14205755.233764648,429063.97581100464,5388943.195343018,8432516.098022461,6613944.053649902,801510.8108520508,-999298.4533309937,-2872746.9444274902,-9141165.733337402,-14756018.63861084,-708057.2843551636,3743196.0105895996,4463710.784912109,2741297.0066070557,-1257963.2997512817,-566248.8341331482,52120.961248874664,-4234491.348266602,-4506476.879119873,-3589806.079864502,3971246.0041046143,3554499.1493225098,3913219.213485718,1879915.475845337,-1810981.1544418335,-12837545.394897461,-4800229.072570801,-5665570.7359313965,-5718580.24597168,5164426.326751709,4306714.5347595215,14972846.984863281,1406150.8178710938,-4458803.176879883,-4807390.213012695,-3931987.524032593,1130543.58959198,670908.0338478088,2321372.5090026855,-5092795.848846436,-4625600.337982178
0.095,-8140513.4201049805,15806835.174560547,-3183004.61769104,-2675268.4116363525,-5063503.265380859,-1672425.5084991455,-6225028.991699219,-4986089.706420898,813268.5422897339,874547.6603507996,-2222231.149673462,-7426322.937011719,-5757418.155670166,-6549094.676971436,2544176.3401031494,-2106065.9885406494,4573512.554168701,7080804.824829102,-2834429.2640686035,-862010.2405548096,-6632125.8544921875,-16551279.067993164,710882.7233314514,1746636.0330581665,5388540.267944336,5240568.161010742,348918.1697368622,-1020998.477935791,-2861121.892929077,-9151093.482971191,-16240823.745727539,-485977.29206085205,190194.08524036407,532436.7880821228,322294.83127593994,-1307261.7053985596,-715834.8560333252,614200.0555992126,-2554375.8869171143,-3684512.8536224365,-2551748.514175415,307963.5798931122,1255556.583404541,1505364.0604019165,-798508.4056854248,-2083777.4276733398,-10526038.16986084,-3687196.0163116455,-4493483.066558838,-4578308.10546875,2848898.6492156982,1824178.8148880005,14698658.94317627,1049046.1587905884,-2915098.190307617,-3552511.45362854,-2914956.0928344727,-254957.97395706177,-513853.7287712097,2199439.287185669,-3779842.1382904053,-3249500.7514953613
0.1,-11433368.682861328,12848232.26928711,-5344230.651855469,-6861993.312835693,-7504548.5496521,-6740364.551544189,-9277951.24053955,-7880028.247833252,-3298064.4702911377,-975042.5219535828,-4163687.229156494,-9354159.355163574,-7707612.51449585,-8271286.964416504,1317729.8307418823,-4405769.824981689,2876392.602920532,5662335.8726501465,-3605658.531188965,-1901192.4266815186,-7769892.692565918,-17199033.737182617,1291417.2410964966,553514.1825675964,3910180.3302764893,4027952.194213867,-123245.50002813339,-988133.1920623779,-3360144.3767547607,-8503676.414489746,-16150087.356567383,88121.07890844345,-997124.3143081665,-456187.1886253357,306464.9999141693,-1495537.519454956,-995850.2650260925,226053.98297309875,-928675.7707595825,-2247282.9818725586,-999148.428440094,-760994.2555427551,1328985.571861267,1597851.1571884155,-1192196.4883804321,-2292850.2559661865,-8500723.838806152,-1911116.4808273315,-2653187.036514282,-2898227.4532318115,3659922.8382110596,2802602.529525757,14602540.016174316,3161108.97064209,-1100574.9702453613,-1648234.8442077637,-1264435.2912902832,1612097.6209640503,1423598.289489746,4315092.086791992,-1979998.4693527222,-1397941.1125183105
0.105,-7058038.711547852,15770421.028137207,-1231352.0908355713,-7365345.001220703,-7143420.219421387,-3354990.7207489014,-8282272.3388671875,-6839370.7275390625,-4992564.2013549805,-2140914.4401550293,-4787680.625915527,-7966226.577758789,-6470875.7400512695,-6807940.483093262,5058971.405029297,502541.30363464355,3252659.0824127197,4680078.029632568,-4522429.466247559,-2519883.632659912,-6053048.610687256,-14269158.363342285,1844498.872756958,4535611.629486084,7550871.849060059,5174645.900726318,261500.23937225342,-1117470.383644104,-3393571.376800537,-6824941.635131836,-13128745.079040527,732114.0766143799,2910885.5724334717,3452935.4572296143,2745842.218399048,-1769446.9690322876,-1306201.696395874,-678130.6862831116,-312250.67377090454,-606834.5904350281,462883.44264030457,3372156.1431884766,3746109.962463379,4102199.5544433594,565188.5867118835,-2319028.377532959,-8069320.6787109375,-386786.43107414246,-1092310.6670379639,-1406360.387802124,6676504.135131836,6141000.270843506,14261590.957641602,5138103.485107422,-2609.1227773576975,-181354.25448417664,222031.20589256287,4180838.108062744,3888167.6197052,5982910.15625,-669552.3858070374,-68220.1087474823
0.11,-5232647.895812988,16231697.082519531,772915.4229164124,-8403709.411621094,-7626770.973205566,243338.9127254486,-8383167.266845703,-7007065.296173096,-6919059.276580811,-4549417.018890381,-5875188.827514648,-6722717.28515625,-5268584.251403809,-5487746.238708496,8353681.564331055,3313446.521759033,2183073.9974975586,3041301.965713501,-6183042.049407959,-3367369.6517944336,-4611826.8966674805,-11777655.601501465,3034893.035888672,8048933.982849121,9951278.686523438,5810049.057006836,-523456.03704452515,-1405483.2458496094,-3154156.20803833,-5772489.547729492,-10553469.65789795,2017395.257949829,6312313.079833984,6080010.414123535,4055827.1408081055,-2106053.113937378,-1511106.9679260254,-523342.3113822937,481251.2993812561,1876467.3471450806,2615429.162979126,6827792.644500732,5049420.356750488,5457103.729248047,2093782.1865081787,-2289715.528488159,-7549214.839935303,1690388.6795043945,950268.6262130737,754889.2498016357,9425437.927246094,8967961.311340332,15042444.229125977,6695673.942565918,1717789.5307540894,1773346.9009399414,2421334.2666625977,6477223.873138428,5966444.01550293,7250637.531280518,1251826.8823623657,1923313.1408691406
0.115,-9102828.979492188,12350339.889526367,-1711041.0928726196,-11094876.289367676,-9442839.622497559,-1757866.382598877,-11653768.539428711,-10351864.8147583,-10502161.979675293,-7933408.737182617,-7689157.009124756,-7628843.307495117,-6083922.386169434,-6286724.090576172,6556038.379669189,-962398.2310295105,-1490642.3091888428,453179.0018081665,-8229070.663452148,-4482245.445251465,-5375963.6878967285,-12297279.357910156,3930716.7530059814,6346981.048583984,6623120.7847595215,3628882.40814209,-3186815.7386779785,-1588408.5893630981,-3092528.1047821045,-5985318.660736084,-10835653.305053711,2938688.278198242,4502050.399780273,3048368.6923980713,1816176.6529083252,-2356116.771697998,-1519411.9215011597,1116186.1419677734,2304950.475692749,3937170.0286865234,4492614.269256592,4823945.045471191,2854431.8675994873,3253567.695617676,1432922.2440719604,-2344113.1114959717,-5922287.940979004,3581084.2514038086,2729385.1375579834,2683094.9783325195,8937034.606933594,8266258.239746094,15364624.977111816,6592455.863952637,3554618.5970306396,3546896.21925354,4378829.002380371,6476305.4847717285,5795486.927032471,7246123.313903809,3118338.3464813232,3943861.0076904297
0.12,-8603444.09942627,13379230.499267578,-889090.9552574158,-9719419.479370117,-8247487.0681762695,-3121222.734451294,-11956369.400024414,-10719119.07196045,-11707941.055297852,-8496458.053588867,-7485804.557800293,-8198537.826538086,-6649284.362792969,-6888359.546661377,3139657.497406006,-3918325.185775757,-2950262.0697021484,-623089.0154838562,-8899547.576904297,-4633111.000061035,-6190929.889678955,-13703982.35321045,2722851.037979126,2968248.3673095703,2892471.0750579834,1387842.4167633057,-4977156.639099121,-1469488.263130188,-3112178.5640716553,-6343783.855438232,-12247036.933898926,1753308.7730407715,1050264.9545669556,-1204203.6056518555,-1530566.8115615845,-2279270.1721191406,-1342144.3700790405,2666980.504989624,3904210.329055786,3344288.3491516113,3987390.7566070557,1145177.8411865234,-523084.93852615356,-190883.29374790192,-615258.514881134,-2370074.74899292,-4748753.547668457,3207303.285598755,2224581.9568634033,2191482.7823638916,5197824.001312256,4362581.253051758,12593657.493591309,3320024.251937866,3113981.4853668213,2998494.3866729736,3794180.154800415,2638812.303543091,1993794.0835952759,4379188.060760498,2647176.2657165527,3572076.7974853516
0.125,-3252039.909362793,18661884.307861328,3081006.2885284424,-5127617.359161377,-5333683.967590332,-65944.32890415192,-7326594.829559326,-6113973.140716553,-9316221.237182617,-6079863.548278809,-5803289.890289307,-8209372.520446777,-6806707.859039307,-7083201.4083862305,3382148.504257202,57509.09075140953,206473.49953651428,754770.5769538879,-8193418.502807617,-4384191.513061523,-6454455.852508545,-15124343.872070312,-470082.01479911804,3254395.9617614746,4420185.565948486,2354218.4829711914,-3751916.1701202393,-1143964.0522003174,-3577487.2303009033,-7095597.743988037,-13555137.634277344,-1339451.3130187988,1351127.3860931396,-666694.1046714783,-1910873.4130859375,-1847298.0260849,-1074004.2924880981,2279976.8447875977,3269243.2403564453,236501.61921977997,1125920.1765060425,1379215.3596878052,-1027715.0869369507,-826977.4317741394,-1472374.7968673706,-2144418.239593506,-5522990.703582764,436262.5181674957,-595270.3952789307,-727769.8516845703,2199662.446975708,1454338.0737304688,8685853.958129883,-631873.7864494324,145066.58911705017,124012.45534420013,730925.3215789795,-1606959.9390029907,-2053014.2784118652,690623.1641769409,-247947.21603393555,566272.0799446106
0.13,-6519385.814666748,14787379.264831543,-561404.4070243835,-6764523.983001709,-8077980.995178223,380958.9743614197,-5359534.740447998,-4044030.18951416,-8684680.938720703,-5728156.566619873,-7150100.7080078125,-11284196.853637695,-9943717.002868652,-10240550.04119873,5975858.211517334,3345911.2644195557,3088936.3288879395,1852329.134941101,-8341827.392578125,-5979434.490203857,-8913286.209106445,-18712322.235107422,-3238651.5140533447,5873868.465423584,7874875.545501709,4863641.262054443,-1353517.2939300537,-868945.300579071,-5207535.266876221,-9870012.283325195,-16256372.451782227,-3996741.0564422607,4107408.046722412,3143213.987350464,759084.5823287964,-1371737.7185821533,-843220.2935218811,71411.1477136612,370813.9955997467,-2792360.305786133,-1684263.4677886963,4159485.8169555664,1596874.8331069946,1672711.0147476196,-183666.46766662598,-1734837.0552062988,-7298995.018005371,-2368298.292160034,-3319411.277770996,-3555373.6686706543,2995551.347732544,2414732.6946258545,8104222.297668457,-905828.058719635,-2630091.428756714,-2463422.2984313965,-2054063.5585784912,-1148273.4680175781,-1462463.4981155396,267912.1196269989,-2890985.7273101807,-2337128.8776397705
0.135,-15530098.915100098,5341984.272003174,-8352574.348449707,-13322737.693786621,-14200849.533081055,-3338487.386703491,-8453783.03527832,-6969638.347625732,-11015917.778015137,-7997534.275054932,-10534475.326538086,-15503090.858459473,-13974925.04119873,-14307206.153869629,6788014.888763428,790876.2097358704,2396763.563156128,1632791.1615371704,-9281665.802001953,-8268735.885620117,-12389917.373657227,-22442647.93395996,-3331160.068511963,6645142.078399658,8283304.214477539,5713677.883148193,-338350.17681121826,-792775.2733230591,-6876064.777374268,-13215764.999389648,-19347358.70361328,-4099032.8788757324,5057715.41595459,4903303.623199463,2852162.5995635986,-1182026.5054702759,-758063.0779266357,-1941522.5982666016,-2441361.18888855,-4117230.4153442383,-2956067.8005218506,5052166.938781738,3799695.0149536133,3896375.894546509,1159979.5818328857,-1554859.0421676636,-8501502.990722656,-3650429.7256469727,-4483330.249786377,-4770484.924316406,4935176.372528076,4380033.016204834,10120553.970336914,1147900.8197784424,-3548086.643218994,-3363028.7647247314,-3033355.712890625,1847105.3838729858,1479523.8971710205,1942050.3377914429,-3787933.588027954,-3429843.6641693115
0.14,-938452.422618866,20557479.858398438,5336820.125579834,-6254100.799560547,-7459099.769592285,2898070.3353881836,-5011078.834533691,-3551851.511001587,-7031832.695007324,-4597548.484802246,-6486288.547515869,-10768916.130065918,-9002434.730529785,-9390925.407409668,7121018.409729004,2686512.7086639404,3863595.2472686768,4375442.028045654,-6969061.374664307,-5874338.150024414,-9523449.897766113,-18800127.029418945,-673495.4118728638,6852363.109588623,9013166.427612305,6358262.538909912,347069.650888443,-853493.9885139465,-5713834.285736084,-12403545.379638672,-17608472.82409668,-1582375.168800354,5316506.385803223,4607232.093811035,2419294.595718384,-1257576.3463974,-830373.4064102173,-2232340.097427368,-3159065.2465820312,-4866837.024688721,-3856114.8643493652,5167715.549468994,3466268.301010132,3731300.5924224854,180454.26905155182,-1863778.3527374268,-9513158.798217773,-4630972.385406494,-5449108.600616455,-5700236.3204956055,2956733.9420318604,2355365.991592407,8874959.945678711,-1184286.7136001587,-4342587.947845459,-4324501.991271973,-3880394.220352173,-1047416.5678024292,-1504873.0373382568,-658988.1777763367,-4699431.896209717,-4393802.165985107
0.145,50997871.39892578,75721099.85351562,53328708.64868164,23584716.796875,19991693.4967041,27532648.08654785,12725222.58758545,13864820.48034668,9275521.278381348,9369657.516479492,9547170.639038086,6785086.631774902,8538927.07824707,8186130.523681641,10933913.230895996,17647563.934326172,13157299.041748047,13040513.038635254,547669.6491241455,2985679.864883423,2206558.9427948,-6653740.406036377,3050704.002380371,10483982.08618164,15090529.441833496,10380714.416503906,3053195.7149505615,-921180.3674697876,-1277571.0821151733,-6576903.820037842,-10128205.299377441,1971848.6070632935,8795735.359191895,6134707.927703857,1193390.6078338623,-1357603.3115386963,-968104.1836738586,-1510519.3853378296,-2557643.413543701,-6941050.5294799805,-6167243.480682373,8566519.737243652,2170138.8359069824,2549282.7892303467,-2512868.4043884277,-2380457.4012756348,-11641490.936279297,-7198833.465576172,-8115736.961364746,-8201681.137084961,-3185739.517211914,-3758094.310760498,2304251.4324188232,-9773620.60546875,-7272242.546081543,-7364022.254943848,-6686373.710632324,-11834390.640258789,-12256447.792053223,-9285594.940185547,-7736276.626586914,-7462522.029876709
0.15,105925086.97509766,137437316.89453125,107149688.72070312,55099792.48046875,50131439.208984375,53038967.13256836,31388595.581054688,32191799.16381836,26985445.022583008,24358802.795410156,26516254.425048828,24255578.994750977,25762073.516845703,25641824.72229004,15868803.024291992,33014328.002929688,24111320.49560547,22082706.451416016,8124205.589294434,11368778.228759766,12865617.752075195,2257209.062576294,5512322.425842285,15279243.469238281,21402215.9576416,16062160.49194336,6440037.250518799,-975562.5128746033,2372785.5682373047,-2160160.541534424,-5410617.828369141,4312206.268310547,13365382.194519043,8589494.705200195,673115.1342391968,-1426348.5670089722,-1092976.3317108154,-1548481.1067581177,-3089094.877243042,-10702310.562133789,-10048763.275146484,13195226.669311523,1477668.285369873,1769376.7547607422,-4305004.596710205,-2621427.536010742,-14468064.308166504,-11352563.858032227,-12351382.2555542,-12210224.151611328,-8645939.826965332,-9173832.893371582,-4306365.013122559,-17655561.447143555,-11925799.369812012,-11923434.257507324,-11119660.377502441,-21461904.525756836,-21802089.69116211,-17103631.9732666,-12377746.58203125,-12195245.742797852
0.155,117827888.48876953,157152297.9736328,125059066.77246094,59851509.09423828,57616607.666015625,54794460.29663086,31527919.76928711,32283302.307128906,29578527.450561523,26451684.951782227,29279914.85595703,25416679.38232422,26732370.376586914,26902893.06640625,14744750.022888184,29460329.055786133,25170227.05078125,22970245.361328125,8944049.835205078,11188272.476196289,11124211.311340332,-3333797.2164154053,4605595.111846924,14172801.971435547,18122154.235839844,17168264.389038086,6687350.749969482,-1090749.740600586,1293821.3348388672,-5128514.766693115,-11409338.95111084,3373026.8478393555,12154699.325561523,6376923.084259033,-668457.7465057373,-1622051.0005950928,-1228448.987007141,-2706152.91595459,-5641806.125640869,-15121004.104614258,-14402835.845947266,12096652.030944824,4082.480911165476,141246.34861946106,-4363427.16217041,-2528095.245361328,-16128477.096557617,-15635062.217712402,-16626878.73840332,-16408357.620239258,-10500725.746154785,-11120102.882385254,-5862548.828125,-18662818.908691406,-16255798.33984375,-16096374.51171875,-15398867.6071167,-22144699.096679688,-22515390.396118164,-18091793.060302734,-16632434.844970703,-16502326.965332031
0.16,88196510.3149414,130729156.49414062,102373527.52685547,39708301.54418945,41646385.192871094,35551647.1862793,15787105.560302734,16669300.079345703,17571964.263916016,16200418.472290039,18347145.080566406,11776879.31060791,13125489.234924316,13313427.925109863,7267636.299133301,11036623.001098633,16271999.35913086,16119052.88696289,3812077.522277832,4141279.697418213,25996.90482020378,-18009992.599487305,-190395.57874202728,6855260.372161865,7159139.156341553,12193624.496459961,3577132.9402923584,-1265287.3992919922,-2886934.757232666,-12466290.473937988,-23157524.10888672,-1311507.5826644897,4891243.457794189,-837602.6749610901,-4144387.2451782227,-1944444.5371627808,-1406888.3657455444,-3597302.4368286133,-8493241.310119629,-18905790.328979492,-18098571.77734375,4875979.423522949,-3550211.191177368,-3413865.804672241,-4526561.260223389,-2470120.668411255,-16027294.158935547,-18865478.515625,-19849510.192871094,-19828372.955322266,-10818156.242370605,-11628015.518188477,-3902748.8231658936,-15836160.659790039,-19182712.55493164,-19021316.528320312,-18486885.07080078,-17975091.9342041,-18421606.063842773,-15289385.795593262,-19538629.53186035,-19339265.823364258
0.165,59712348.93798828,97735946.65527344,71915283.203125,22688911.43798828,24728479.385375977,21892675.399780273,5882559.299468994,6718223.571777344,7777778.148651123,7666107.654571533,8579969.40612793,106986.09054088593,1590864.4199371338,1399286.8661880493,2873733.7589263916,1998511.552810669,9605512.619018555,10822286.605834961,133388.41497898102,-477957.0996761322,-6703651.905059814,-25722482.681274414,-6361943.244934082,2580986.976623535,2214169.74067688,7540045.261383057,1407034.993171692,-1365184.4263076782,-5013807.773590088,-15966574.668884277,-27644681.930541992,-7250216.484069824,714490.2944564819,-5014839.172363281,-7025554.180145264,-2108933.925628662,-1538394.6895599365,-3149444.103240967,-9520943.641662598,-20652635.57434082,-19900514.602661133,650686.9196891785,-6479790.687561035,-6224347.114562988,-5864001.274108887,-2632378.8166046143,-15482298.851013184,-20242719.650268555,-21300287.2467041,-21576988.220214844,-11311208.724975586,-12225611.686706543,-2327172.27935791,-15303483.009338379,-20446693.420410156,-20431856.155395508,-19863618.850708008,-16923131.942749023,-17282226.5625,-14706080.436706543,-20857730.865478516,-20572687.14904785
0.17,54730571.74682617,84160156.25,56809268.951416016,23080419.540405273,20881750.106811523,26381793.975830078,11459945.678710938,12070691.108703613,9516813.278198242,8667034.149169922,8612876.892089844,-195172.57809638977,1343230.0090789795,683561.4442825317,8286943.435668945,12441780.090332031,12169092.178344727,12401520.729064941,1665751.338005066,1687517.8813934326,-3083139.657974243,-20581243.51501465,-9510464.668273926,7950076.580047607,9820895.195007324,8809531.211853027,2759730.815887451,-1289492.130279541,-3201994.4190979004,-13042075.157165527,-20525346.755981445,-10232732.772827148,6157687.664031982,-189357.9512834549,-5318387.985229492,-1916239.619255066,-1486823.0819702148,-1870731.4729690552,-8422312.73651123,-19167528.15246582,-18553976.05895996,6021946.430206299,-4720261.096954346,-4460338.115692139,-6653143.405914307,-2731995.8209991455,-15584254.264831543,-18929960.250854492,-20041059.494018555,-20418521.881103516,-9444229.125976562,-10308881.759643555,-949138.5221481323,-16298561.096191406,-19305839.53857422,-19379993.438720703,-18615182.876586914,-17775293.350219727,-17878953.93371582,-15505687.713623047,-19764926.91040039,-19509990.692138672
0.175,51255287.170410156,74755409.24072266,46412094.11621094,25571092.60559082,20602123.260498047,32179031.372070312,17997653.96118164,18622644.424438477,13537176.132202148,11901782.035827637,11432715.41595459,3108746.7670440674,4603821.277618408,3786811.590194702,17568866.729736328,24521892.547607422,16612035.751342773,15685848.236083984,4308309.078216553,5481409.072875977,2909679.174423218,-12705924.987792969,-7488032.341003418,17148324.966430664,19592081.06994629,13012517.929077148,4818017.959594727,-1101516.1275863647,-519551.75399780273,-8858664.512634277,-11004092.2164917,-8267906.188964844,15456022.262573242,8524823.188781738,72529.74808216095,-1542927.861213684,-1252406.0010910034,-652184.1883659363,-6354861.736297607,-14958090.782165527,-14382008.55255127,15290733.337402344,847794.2943572998,947760.0455284119,-5359097.957611084,-2475335.121154785,-15901602.745056152,-15163084.983825684,-16139768.600463867,-16372619.62890625,-3273631.3343048096,-4050607.204437256,2302522.4208831787,-13772493.362426758,-15569323.539733887,-15555056.57196045,-14706665.992736816,-13562413.215637207,-13491632.461547852,-12742181.777954102,-15996168.13659668,-15824038.5055542
0.18,26297006.607055664,48829803.466796875,24227619.171142578,13632147.789001465,11195271.492004395,21311203.002929688,10844095.230102539,11950989.723205566,8758336.067199707,8782693.862915039,8077009.201049805,-25401.027873158455,1427325.0102996826,774725.1987457275,19826591.49169922,19591547.0123291,13694797.51586914,14075793.266296387,3585516.2143707275,5269961.833953857,2789999.7234344482,-12456378.936767578,-3181367.3973083496,19478651.04675293,18781381.607055664,13329451.560974121,3950213.4323120117,-903843.7604904175,152988.62755298615,-8053163.528442383,-8977089.881896973,-4113508.2244873047,17930820.46508789,11214600.563049316,3299751.2817382812,-1288697.8387832642,-962578.7138938904,510248.3630180359,-4435673.236846924,-10833008.766174316,-10174797.058105469,17792749.404907227,4199058.532714844,4224349.498748779,-3808789.014816284,-2012804.5082092285,-15652235.984802246,-11310586.929321289,-12005779.266357422,-12076171.875,3151129.0073394775,2377487.897872925,5763184.070587158,-8224456.787109375,-11416446.685791016,-11242874.145507812,-10548593.521118164,-4955810.546875,-4960384.368896484,-7115154.74319458,-11754557.609558105,-11556427.955627441
0.185,-6835042.476654053,15853467.94128418,-2956647.8729248047,-5126598.358154297,-3001609.3254089355,1349185.3475570679,-3221199.9893188477,-1566116.5714263916,-960962.4743461609,2612747.4308013916,1140764.2364501953,-7521044.731140137,-6065504.07409668,-6552718.162536621,13647178.649902344,4193007.469177246,6181589.126586914,9412992.477416992,1388656.6162109375,2729148.6263275146,-1217085.2422714233,-17691041.946411133,-1716348.648071289,13492856.0256958,9509857.177734375,8915389.060974121,1194590.68775177,-669126.2722015381,-317495.6738948822,-9422211.647033691,-13707186.698913574,-2624429.941177368,12033584.594726562,6003061.294555664,751603.1265258789,-1174345.1356887817,-697647.0947265625,1732668.8766479492,-3316587.6865386963,-9574545.860290527,-8888811.111450195,11964905.738830566,1534279.1080474854,1769232.3923110962,-4888996.601104736,-1700802.5646209717,-14856492.042541504,-10056088.4475708,-10598076.820373535,-10637004.852294922,4005984.7831726074,3158910.036087036,5869838.237762451,-5447395.324707031,-9885810.852050781,-9648806.57196045,-9182808.876037598,-425675.1239299774,-636150.7177352905,-4478545.665740967,-10174637.794494629,-9832127.571105957
0.19,-21434709.548950195,-1456828.3557891846,-17670320.510864258,-13111852.645874023,-10081520.080566406,-7627285.957336426,-8268498.420715332,-6606397.1519470215,-4741833.686828613,1358865.49949646,-1634738.0876541138,-11391759.872436523,-9935243.606567383,-10438756.942749023,8053840.637207031,-1995497.8227615356,3517182.8269958496,7904378.414154053,1791369.4381713867,2313286.066055298,-2496134.7579956055,-20503120.42236328,-4726891.994476318,7993296.146392822,4332928.18069458,5363369.941711426,252887.3085975647,-340541.9886112213,-62007.46446847916,-10061258.316040039,-18037611.00769043,-5429469.585418701,6500552.177429199,670445.7402229309,-4122186.6607666016,-997959.3753814697,-454216.8080806732,2218704.2236328125,-3356827.0206451416,-10859977.722167969,-10298946.380615234,6523626.804351807,-3604710.102081299,-3025324.821472168,-7844583.511352539,-1599656.7010879517,-13759848.594665527,-11211467.742919922,-11927785.873413086,-11951505.661010742,179590.26992321014,-726503.6106109619,3591007.4710845947,-6758346.080780029,-11115829.467773438,-10930561.065673828,-10588512.420654297,-2740837.574005127,-3078760.6239318848,-5960026.264190674,-11452174.186706543,-10984615.325927734
0.195,-17288125.99182129,-1793740.8685684204,-19089353.561401367,-9578781.127929688,-10156915.664672852,-2108201.9805908203,-3361802.101135254,-2264088.3922576904,-2222110.5098724365,3709333.1813812256,-786491.2748336792,-11300457.000732422,-9889451.026916504,-10443623.542785645,9744263.648986816,5174862.861633301,7021718.978881836,9668832.778930664,3518476.724624634,3179401.159286499,-1390183.5680007935,-19906011.5814209,-8994714.736938477,9603602.409362793,8387945.175170898,6050952.434539795,1447989.1061782837,-34237.45185136795,121467.29230880737,-10659511.56616211,-19049905.77697754,-9600220.680236816,8062187.194824219,1788345.6945419312,-5108884.811401367,-695983.8271141052,-257558.34579467773,1271661.877632141,-4259414.6728515625,-11559164.047241211,-11135171.890258789,8169818.878173828,-4717157.84072876,-3993787.2886657715,-8559465.408325195,-1475498.7955093384,-11997137.069702148,-11670660.972595215,-12744979.858398438,-12660957.336425781,-1122812.8671646118,-2013932.228088379,4270959.854125977,-6303120.6130981445,-11810893.058776855,-11693832.397460938,-11395851.135253906,-4204978.942871094,-4553298.9501953125,-5489915.370941162,-12232738.494873047,-11729445.457458496
0.2,-16974576.950073242,-3600928.30657959,-21851467.13256836,-9453652.381896973,-13807426.452636719,2124591.35055542,-2334172.7256774902,-1717830.4195404053,-3392314.910888672,910533.5474014282,-4036662.1017456055,-14168642.9977417,-12824204.444885254,-13276000.9765625,14674134.254455566,10598984.718322754,8178030.014038086,8364000.32043457,1279374.8378753662,467983.4544658661,-4090756.893157959,-21796333.31298828,-11239533.424377441,14445109.367370605,13538199.424743652,7581222.057342529,1017185.9264373779,56873.08683991432,-1982462.0485305786,-13920781.135559082,-20160573.959350586,-12002479.553222656,12979004.859924316,6669209.957122803,-977704.0481567383,-434206.93278312683,-154250.18966197968,-192783.71334075928,-4973614.692687988,-9478214.263916016,-8994888.305664062,13134513.854980469,-446454.5547962189,82415.97563028336,-4942935.943603516,-1210391.5214538574,-9090462.684631348,-9166397.094726562,-10426385.879516602,-10296101.570129395,4112665.6532287598,3271722.0783233643,10466022.491455078,31092.941761016846,-9294210.433959961,-9203013.42010498,-8973691.940307617,1603079.3190002441,1261601.209640503,999791.8009757996,-9714902.877807617,-9213415.145874023
0.205,-31349899.291992188,-16146476.745605469,-33090419.76928711,-20299016.95251465,-24712148.666381836,-6685908.794403076,-12667343.139648438,-11867955.207824707,-12856202.125549316,-9389987.94555664,-13776385.307312012,-22689943.313598633,-21373355.865478516,-21610498.428344727,14612501.14440918,2602400.302886963,1353063.1065368652,938547.4920272827,-6149366.37878418,-6762300.491333008,-12513663.291931152,-28991331.100463867,-12326794.624328613,14414780.616760254,10696778.297424316,5363879.680633545,-3276861.4292144775,-41058.920323848724,-6274994.373321533,-19796041.48864746,-24571861.267089844,-13271728.515625,13101313.591003418,8077310.562133789,3434925.079345703,-343163.54990005493,-83778.64956855774,-517219.54345703125,-4859126.091003418,-5951708.3168029785,-5202159.881591797,13287528.038024902,4209493.160247803,4390380.859375,8200.199343264103,-949092.6861763,-5540622.711181641,-5106095.790863037,-6210416.793823242,-6288396.835327148,11475617.408752441,10621218.68133545,18316915.51208496,8244921.684265137,-4901167.392730713,-4810076.2367248535,-4671902.656555176,10302577.97241211,9946143.15032959,9273806.57196045,-5195216.655731201,-4708171.844482422
0.21,-48076023.10180664,-29716958.99963379,-44483455.657958984,-33255577.087402344,-34529186.2487793,-21956111.907958984,-25833028.79333496,-24357637.405395508,-23100864.41040039,-19023118.97277832,-22961759.567260742,-31107002.25830078,-29773292.541503906,-29834800.720214844,8257153.511047363,-12144680.976867676,-8332254.409790039,-7457490.44418335,-13378228.187561035,-13356530.18951416,-20897422.790527344,-36974540.71044922,-14904209.13696289,8113285.064697266,1647941.4701461792,405891.7462825775,-8592481.61315918,-99010.55693626404,-9918358.80279541,-24898557.662963867,-30662176.13220215,-15793972.969055176,6856209.278106689,3830701.1127471924,3532541.9902801514,-362178.7428855896,62015.79049229622,434842.94414520264,-4606358.051300049,-4094644.546508789,-3083997.964859009,7136091.232299805,4426460.742950439,4410622.596740723,1590018.7492370605,-849617.600440979,-2885441.303253174,-2831526.279449463,-3649045.22895813,-4046602.249145508,14031584.739685059,13073844.909667969,22006320.95336914,11615131.378173828,-2286586.9998931885,-2175081.491470337,-2075363.1591796875,13404519.081115723,13072276.11541748,12515483.856201172,-2449754.9533843994,-2028213.9778137207
0.215,-51886672.97363281,-32317298.889160156,-45836746.21582031,-36620380.40161133,-35027713.775634766,-28879570.00732422,-29772336.959838867,-27816387.176513672,-24913021.087646484,-20108634.94873047,-24355058.670043945,-32726509.09423828,-31407197.952270508,-31368602.752685547,2446435.2130889893,-18634248.733520508,-11971120.834350586,-10017857.551574707,-14884299.278259277,-14371869.087219238,-22762487.411499023,-39441417.6940918,-18311309.814453125,2237576.484680176,-4103709.6977233887,-2151882.6484680176,-10426769.256591797,-57279.8028588295,-10548119.54498291,-26110050.201416016,-33920158.38623047,-18988929.748535156,901635.3487968445,-1148356.7953109741,165937.30449676514,-391047.8949546814,209691.24138355255,1151403.9039611816,-5135298.252105713,-4973640.441894531,-3906191.110610962,1372918.4865951538,983182.3110580444,1069010.2577209473,-1357576.3702392578,-904300.7493019104,-2527772.903442383,-3578475.2368927,-4305155.7540893555,-4773246.288299561,10755135.536193848,9727438.926696777,19662010.192871094,8948504.447937012,-2969124.5555877686,-2799341.6786193848,-2650532.007217407,9725471.496582031,9486862.182617188,9692445.755004883,-3149119.1387176514,-2824062.8242492676
0.22,-41958690.64331055,-23372713.088989258,-36924274.44458008,-29566160.202026367,-27825223.922729492,-21704723.358154297,-23328535.079956055,-21481077.194213867,-18649152.755737305,-14482707.023620605,-19019506.454467773,-27418739.318847656,-26202598.571777344,-26073307.037353516,3316044.330596924,-11548441.886901855,-7689518.928527832,-6480031.490325928,-11337957.382202148,-10723123.550415039,-17992439.27001953,-35022941.58935547,-18761455.535888672,2970371.723175049,-1085943.2220458984,143963.21773529053,-8092789.649963379,-152130.6335926056,-8708319.664001465,-23468952.178955078,-31725395.20263672,-19334695.81604004,1572629.5709609985,-1433951.6162872314,-2192347.0497131348,-447114.1993999481,127593.57690811157,695700.7646560669,-5952899.45602417,-6480200.290679932,-5527351.379394531,2217900.7530212402,-1563968.300819397,-1200755.000114441,-5578446.388244629,-1037137.9852294922,-4396780.490875244,-5240864.276885986,-6121084.213256836,-6324077.606201172,6731673.717498779,5803525.447845459,14269126.892089844,4555492.401123047,-4804743.766784668,-4578130.722045898,-4305071.3539123535,5086770.057678223,4933861.73248291,5285768.985748291,-5134671.211242676,-4848025.321960449
0.225,-28047174.45373535,-10418120.384216309,-25013977.05078125,-20166742.3248291,-20322341.918945312,-7767600.059509277,-14863551.139831543,-13450212.478637695,-12098156.929016113,-9791297.912597656,-13584954.261779785,-20473619.46105957,-19366333.0078125,-19133726.119995117,9654995.918273926,1023116.8270111084,-1373128.6525726318,-2305359.125137329,-7885146.617889404,-7258214.950561523,-11930976.867675781,-27799869.537353516,-14694019.317626953,9261427.879333496,7027282.71484375,4525388.240814209,-5054412.364959717,-518850.56495666504,-6873473.167419434,-19669895.17211914,-25794330.596923828,-15328948.020935059,7941593.647003174,3098440.170288086,-881233.0365180969,-578282.2370529175,-223390.44511318207,-96982.6802611351,-5521834.373474121,-5888588.428497314,-5012602.806091309,8563917.16003418,-416686.38586997986,129692.52467155457,-7153540.134429932,-1188784.5993041992,-6573794.364929199,-4973938.941955566,-5996466.636657715,-5915605.068206787,6592291.355133057,5877870.082855225,10523122.787475586,2502574.2053985596,-4704863.548278809,-4509148.120880127,-4075584.888458252,3780342.1020507812,3602564.3348693848,3329643.964767456,-5142315.38772583,-4822634.696960449
0.23,-19701753.616333008,-1560372.5910186768,-17553396.224975586,-15548881.530761719,-17179464.34020996,1840538.1441116333,-11113286.972045898,-9973133.087158203,-10530493.73626709,-9763322.830200195,-12110355.377197266,-16611356.735229492,-15452949.523925781,-15151779.174804688,15795335.76965332,8620367.050170898,1431537.8665924072,-1412942.7671432495,-7708071.708679199,-6859630.107879639,-9165090.560913086,-22783706.665039062,-9157304.763793945,15482717.514038086,13168274.879455566,7272935.86730957,-4322730.541229248,-871854.9609184265,-6646080.97076416,-17310997.009277344,-20333276.748657227,-9846946.716308594,14330859.184265137,8574524.879455566,2713942.050933838,-712327.7187347412,-544664.8597717285,19713.38503062725,-3159261.465072632,-2707002.4013519287,-1759373.3072280884,14721015.930175781,3131346.9409942627,3635981.0829162598,-5307513.236999512,-1268983.244895935,-6646752.35748291,-2108702.1827697754,-3068390.369415283,-2966450.9296417236,10161291.122436523,9575285.911560059,11260443.687438965,3533891.201019287,-1849507.9278945923,-1784612.8940582275,-1248673.7966537476,5117859.363555908,4808202.743530273,4425645.82824707,-2246931.0760498047,-1898017.0488357544
0.235,-19705307.006835938,-633200.5262374878,-16954269.409179688,-15731562.614440918,-17266872.40600586,3693570.375442505,-10740785.598754883,-9576884.269714355,-11688880.920410156,-11120534.896850586,-12638681.411743164,-15925294.876098633,-14530151.3671875,-14237363.815307617,18985887.52746582,9671665.19165039,1434737.0862960815,-2159596.4431762695,-8941330.909729004,-7741500.8544921875,-9078935.623168945,-21078905.10559082,-5744339.466094971,18757368.087768555,15200845.718383789,8287536.62109375,-5115528.583526611,-828097.9990959167,-7131525.993347168,-16405845.642089844,-17526815.41442871,-6376825.80947876,17743141.174316406,12265730.857849121,5687108.516693115,-696973.2642173767,-544206.5000534058,1130031.3472747803,208074.6740102768,1194151.8783569336,2225131.2732696533,17901714.324951172,6145979.404449463,6535791.397094727,-2708234.3101501465,-1195736.7658615112,-4231189.250946045,1602161.4074707031,799328.1483650208,757405.4598808289,14108247.756958008,13481539.726257324,15174972.534179688,5936717.0333862305,1923616.1708831787,1856325.9840011597,2354566.0972595215,6882699.489593506,6460216.522216797,6805454.730987549,1606156.587600708,1969614.5057678223
0.24,-21663311.004638672,-3006486.654281616,-17954111.099243164,-14975890.159606934,-16147720.336914062,3984602.451324463,-8276215.553283691,-7014770.030975342,-10092335.70098877,-9047136.306762695,-10942417.14477539,-14955473.899841309,-13338859.558105469,-13115792.274475098,21094419.479370117,10418663.97857666,2901534.080505371,-718148.5891342163,-7883870.601654053,-6493962.287902832,-7791162.014007568,-19740655.89904785,-4422583.103179932,20834146.49963379,16537311.553955078,10000011.444091797,-4753189.0869140625,-437827.467918396,-6263458.728790283,-14996909.141540527,-15838249.206542969,-4976561.546325684,19860282.89794922,14340149.879455566,6794377.326965332,-480788.9461517334,-282912.34374046326,2352881.1931610107,2959582.805633545,3353231.430053711,4302791.595458984,19966857.91015625,7266913.890838623,7678645.133972168,-2300989.3894195557,-1043316.125869751,-1930229.663848877,3643830.2993774414,2884244.918823242,2779863.119125366,15813007.354736328,15081602.096557617,17811077.117919922,7149839.401245117,3933365.5834198,3822694.5400238037,4215011.5966796875,7903410.4347229,7514141.082763672,7960041.9998168945,3575214.147567749,4020874.500274658
0.245,-13124585.151672363,4162028.7895202637,-9733362.197875977,-7632973.670959473,-9760629.653930664,10221480.369567871,-1538773.4174728394,-300941.22886657715,-3713953.4950256348,-2913635.25390625,-5641821.86126709,-10940744.400024414,-9323458.671569824,-9139013.290405273,23639364.24255371,14888407.707214355,7372750.282287598,3686638.593673706,-3752039.909362793,-2614963.7699127197,-3805168.628692627,-16445096.969604492,-3292979.955673218,23253171.920776367,19688352.584838867,13087664.604187012,-2625741.958618164,-136216.938495636,-3668574.571609497,-12526193.618774414,-13669382.095336914,-3860357.5229644775,22186830.520629883,15273479.461669922,6656498.432159424,-204398.67675304413,-38922.67122864723,2840557.813644409,3660768.508911133,2094682.216644287,2863947.629928589,22335161.209106445,7077895.641326904,7583230.972290039,-4121622.5624084473,-1013514.9955749512,-2868685.007095337,2203749.895095825,1380388.617515564,1323581.4571380615,14744479.179382324,13935357.093811035,15874457.359313965,5133340.835571289,2359573.6026763916,2274011.1351013184,2672982.4542999268,6929876.804351807,6712481.0218811035,5906744.003295898,1861201.4055252075,2459335.3271484375
0.25,13549616.813659668,31038869.857788086,14970918.655395508,6761753.559112549,2708586.4543914795,22770059.58557129,6581718.444824219,7703731.060028076,4827497.482299805,4109966.75491333,1037171.1254119873,-4784407.138824463,-3345830.202102661,-3059329.2713165283,24502939.224243164,19766950.607299805,12286714.553833008,8445655.822753906,741412.7588272095,978148.4007835388,-215759.35184955597,-13225234.031677246,-2892514.46723938,24004882.8125,22351184.844970703,15479067.8024292,-692233.9200973511,-183068.70758533478,-1538912.1770858765,-11494510.650634766,-13211471.557617188,-3561329.8416137695,22704477.310180664,14184221.267700195,5935489.177703857,-99834.6209526062,36094.821989536285,2102514.7438049316,1316567.1825408936,-3121603.9657592773,-2398127.317428589,22764522.552490234,6355760.097503662,6754877.090454102,-5671101.5701293945,-1189315.5574798584,-7248544.692993164,-3222261.905670166,-4063027.3818969727,-4091042.995452881,11298400.87890625,10408211.708068848,10501583.099365234,-335650.0566005707,-3153624.0577697754,-3233941.7934417725,-2674186.944961548,2102055.788040161,2054296.4935302734,426136.46388053894,-3736263.2751464844,-3053300.142288208
0.255,51878517.150878906,72588607.78808594,51101848.60229492,23611852.645874023,17974571.228027344,36113861.083984375,12939840.316772461,13970411.30065918,12419501.304626465,9414825.439453125,6591332.43560791,372009.15813446045,1675732.3741912842,2175357.8186035156,21498178.482055664,20721118.927001953,15343461.036682129,11541952.133178711,3040970.3254699707,1845007.7772140503,-391829.63967323303,-13858289.71862793,-5777104.85458374,20948488.235473633,21463375.091552734,15715379.71496582,-269245.982170105,-414658.69545936584,-1994919.8961257935,-14377020.835876465,-17841468.811035156,-6561784.744262695,19384601.593017578,10858119.010925293,4528100.967407227,-294103.62243652344,-46096.69744968414,89890.23417234421,-3923408.7467193604,-11334289.55078125,-10478413.581848145,19195573.806762695,5081675.052642822,5129068.851470947,-5387448.787689209,-1431132.435798645,-12204177.856445312,-11444515.228271484,-12256317.138671875,-12286891.93725586,5933059.6923828125,4949797.1534729,5255280.017852783,-7569554.805755615,-11351933.479309082,-11501409.530639648,-10802124.0234375,-6802470.684051514,-6815721.9886779785,-6830843.925476074,-11925086.975097656,-11314729.690551758
0.26,85775810.24169922,110681213.37890625,83467391.96777344,37885196.685791016,30742723.46496582,46776447.29614258,18260524.74975586,19255977.630615234,18572813.034057617,13108944.8928833,10685106.27746582,2774459.8388671875,4112031.936645508,4693518.63861084,17281978.607177734,20299829.483032227,17779066.08581543,13785334.587097168,3537782.4306488037,1016072.9885101318,-3092651.844024658,-18275741.577148438,-12203591.346740723,16671426.773071289,18968444.82421875,15482707.023620605,-33311.355859041214,-582004.725933075,-4275907.99331665,-19718873.977661133,-26109266.28112793,-13050100.326538086,15018022.537231445,7878664.016723633,2682893.991470337,-675092.6375389099,-275104.25448417664,-2413208.0078125,-9969924.926757812,-19822294.235229492,-18894899.368286133,14648860.931396484,3379347.801208496,3167408.4663391113,-4572578.907012939,-1569995.5224990845,-15130521.774291992,-19665378.57055664,-20555097.579956055,-20553745.26977539,-152521.5208530426,-1137306.4517974854,1658419.4898605347,-14599418.640136719,-19581417.083740234,-19847059.24987793,-19167324.06616211,-16951414.108276367,-17069976.806640625,-13937954.902648926,-20177022.93395996,-19707332.611083984
0.265,102029182.43408203,128490844.7265625,97632041.93115234,46364494.32373047,36410556.79321289,55128910.064697266,23997997.283935547,24957857.131958008,23230392.456054688,15488915.44342041,13291107.177734375,2561177.0153045654,4019932.746887207,4354817.3904418945,17205844.87915039,24078315.73486328,21499176.025390625,16253324.508666992,3892737.1501922607,767796.3376045227,-4668118.953704834,-22718387.603759766,-18768198.013305664,16463914.87121582,19819807.052612305,17337394.71435547,1693377.8524398804,-667991.5189743042,-5926013.469696045,-23602420.806884766,-32136661.529541016,-19576215.744018555,14955080.98602295,8481959.342956543,1925372.9581832886,-949868.0830001831,-596001.148223877,-4070997.2381591797,-13888706.20727539,-25211397.171020508,-24445960.998535156,14666494.369506836,2594216.823577881,2522087.0971679688,-4861092.567443848,-1583303.5707473755,-15986986.16027832,-24771652.221679688,-25858549.118041992,-25856735.229492188,-4116759.777069092,-4971000.671386719,-899807.5723648071,-19731649.39880371,-24875690.460205078,-25205478.66821289,-24611526.489257812,-23634963.989257812,-23902647.018432617,-19187887.19177246,-25561914.443969727,-25167779.92248535
0.27,96848175.04882812,121018432.6171875,88727821.35009766,46228431.701660156,32585529.327392578,59555492.40112305,27217727.661132812,28093551.635742188,23926996.2310791,14627854.347229004,12306880.950927734,-637884.6168518066,897216.9160842896,850286.1857414246,22249160.766601562,30294130.325317383,24804355.62133789,17444173.81286621,3865321.159362793,612635.5528831482,-5118083.477020264,-25570449.829101562,-22197725.296020508,21406654.357910156,24585023.880004883,20852725.982666016,3915702.3429870605,-748856.4252853394,-6399052.143096924,-24747507.095336914,-33076690.673828125,-22889905.92956543,20085336.685180664,12495719.909667969,3838927.745819092,-895349.1449356079,-786386.6686820984,-4328531.265258789,-14562208.17565918,-25795175.552368164,-25250186.920166016,20034460.067749023,4358029.365539551,4691030.502319336,-5168905.735015869,-1520046.8301773071,-15944269.180297852,-25302103.04260254,-26522195.81604004,-26662885.665893555,-2894660.9497070312,-3628362.1788024902,-1692603.9457321167,-20819150.924682617,-25685800.552368164,-25926010.131835938,-25341344.833374023,-23142929.077148438,-23516944.885253906,-20339218.139648438,-26352939.60571289,-25945911.407470703
0.275,74757530.21240234,94861335.75439453,62937648.77319336,36101222.99194336,20467037.200927734,55438747.40600586,23166297.912597656,23956354.14123535,18455196.380615234,8900797.843933105,5915589.332580566,-7599462.032318115,-6076393.604278564,-6206442.832946777,27360195.15991211,30466039.657592773,24066757.202148438,15126465.797424316,1790392.518043518,-1965199.35131073,-8050438.88092041,-29209762.573242188,-22742753.982543945,26643592.834472656,28143444.061279297,22830398.559570312,4007036.2091064453,-775409.8176956177,-7559348.106384277,-25537088.39416504,-32491455.078125,-23372953.414916992,25346073.150634766,16322311.401367188,7938642.501831055,-590219.5572853088,-654785.3350639343,-4041412.830352783,-13600048.065185547,-22655202.865600586,-22088180.541992188,25408267.974853516,8413127.899169922,9019035.339355469,-3361097.574234009,-1395239.7108078003,-15226204.872131348,-22168190.002441406,-23381269.454956055,-23709463.119506836,3599307.5370788574,2840212.821960449,1335097.4321365356,-16338758.46862793,-22676635.7421875,-22693706.512451172,-22092586.517333984,-15510845.184326172,-15917629.24194336,-15786079.406738281,-23092737.197875977,-22602251.052856445
0.28,46229743.95751953,62748245.23925781,33168678.283691406,20299350.73852539,5641817.092895508,42927700.04272461,13178434.371948242,14009472.846984863,9746799.46899414,1098265.4094696045,-3040931.463241577,-16307258.605957031,-14879288.673400879,-14686586.380004883,27996093.75,22002975.463867188,19425704.956054688,10352103.233337402,-1957758.069038391,-6720308.780670166,-14015207.290649414,-34597179.4128418,-22611204.147338867,27632671.356201172,26960020.065307617,21358640.670776367,1478003.740310669,-687801.0034561157,-10105757.713317871,-27435216.903686523,-34209980.01098633,-23354866.02783203,26238595.962524414,17316402.435302734,11584773.063659668,-361909.9259376526,-370192.4979686737,-4123949.0509033203,-12950869.5602417,-18258434.295654297,-17396577.835083008,26164100.646972656,12194625.854492188,12756795.883178711,-455615.1330471039,-1277232.28931427,-13553830.14678955,-17494745.2545166,-18717914.581298828,-19063713.07373047,11342439.651489258,10484438.8961792,7244085.788726807,-8396475.791931152,-17849452.97241211,-17691175.46081543,-17183963.775634766,-5329656.12411499,-5695471.76361084,-7667711.25793457,-17991865.158081055,-17319780.349731445
0.285,22835590.362548828,36346923.828125,10665459.632873535,7330905.914306641,-5190455.913543701,29861761.09313965,4846315.860748291,5904024.124145508,4050388.3361816406,-3259809.2555999756,-8550989.151000977,-22030645.3704834,-20775032.04345703,-20249792.098999023,25311033.248901367,12977259.635925293,15297811.508178711,6977229.595184326,-4324347.972869873,-9530790.328979492,-18088335.037231445,-37906993.8659668,-22307470.321655273,25230175.018310547,23613119.12536621,17883255.004882812,-1246104.121208191,-598648.3097076416,-11564640.998840332,-28160795.211791992,-36128383.63647461,-23268432.6171875,23821283.3404541,16280351.638793945,12354558.944702148,-451812.3269081116,-327241.2717342377,-3967813.014984131,-12261712.074279785,-14160967.826843262,-12987361.907958984,23520671.844482422,13103885.650634766,13449552.536010742,-398823.5592842102,-1335669.8751449585,-11678494.453430176,-12909459.114074707,-14246341.705322266,-14459774.9710083,15545218.467712402,14670311.92779541,11205404.281616211,-2292901.2775421143,-12950802.80303955,-12824822.425842285,-12475323.677062988,1400049.328804016,1119092.1068191528,-1377607.1071624756,-13120767.593383789,-12208869.934082031
0.29,9151794.43359375,19487972.259521484,-2241530.8952331543,1459357.2616577148,-9950784.683227539,22799135.208129883,2818291.664123535,4133251.667022705,3657839.53666687,-2251372.5757598877,-8215614.318847656,-22412900.924682617,-21341051.10168457,-20841220.85571289,23028255.462646484,10833228.11126709,14464705.467224121,6922599.792480469,-3295774.221420288,-7485368.251800537,-16284408.569335938,-35535068.51196289,-20554134.368896484,22900629.0435791,21956697.463989258,14865110.397338867,-2118270.1587677,-630565.8221244812,-9385212.898254395,-25191915.51208496,-33577224.73144531,-21603742.599487305,21630800.247192383,15094018.936157227,10261126.518249512,-739197.1945762634,-609125.4949569702,-2226318.597793579,-9806455.612182617,-10580068.588256836,-9299015.998840332,21246856.689453125,10999371.528625488,11145919.799804688,-4719016.551971436,-1613275.8855819702,-10791617.393493652,-9129835.12878418,-10498829.84161377,-10670798.301696777,15170502.662658691,14368516.92199707,10003376.007080078,-1210069.5371627808,-8923600.196838379,-8949353.218078613,-8635858.535766602,2477565.288543701,2239856.719970703,-130682.58762359619,-9390260.696411133,-8374874.114990234
0.295,115604.43788766861,7712028.503417969,-11052569.389343262,-1063390.4933929443,-12235274.314880371,19330688.4765625,3667135.9539031982,5026017.189025879,4775616.16897583,427118.59941482544,-5864441.871643066,-20486560.821533203,-19479095.458984375,-19224065.78063965,21906497.955322266,12421640.396118164,14701153.755187988,8125451.08795166,-629807.6510429382,-3075444.6983337402,-11430562.019348145,-30080043.79272461,-17489542.00744629,21547416.68701172,21339853.286743164,12943712.23449707,-1830136.6567611694,-660050.7497787476,-4882597.923278809,-20317066.192626953,-27116294.860839844,-18385002.13623047,20456777.572631836,13936001.777648926,7505896.56829834,-859068.8705444336,-826789.4983291626,832713.24634552,-5770061.96975708,-7671121.597290039,-6486766.338348389,20164146.423339844,8153674.125671387,8176099.77722168,-9569080.352783203,-1826160.3116989136,-10585611.343383789,-6562556.266784668,-7737733.840942383,-8007854.461669922,13427074.432373047,12675342.559814453,6456490.993499756,-2527148.723602295,-6307530.879974365,-6357040.882110596,-5921082.019805908,1281932.7116012573,954333.6629867554,-1318265.676498413,-6935490.608215332,-6098271.84677124
0.3,-10077254.295349121,-3556792.974472046,-20253086.09008789,-4879930.019378662,-15716713.905334473,14001008.033752441,2378211.259841919,3549405.097961426,3758621.2158203125,744973.8383293152,-6129871.368408203,-20741239.547729492,-19634210.58654785,-19477548.599243164,20300674.438476562,10769589.4241333,12957585.334777832,7959400.653839111,412828.59444618225,-1303675.651550293,-9598448.753356934,-27657846.450805664,-16024574.279785156,19898069.381713867,19141620.635986328,11382540.702819824,-2072472.095489502,-472182.035446167,-2196230.64994812,-18208955.764770508,-22720396.041870117,-16683227.5390625,18918117.52319336,12349332.809448242,6362838.7451171875,-616679.7876358032,-632163.1073951721,2897657.871246338,-3035341.262817383,-6112412.452697754,-5120161.056518555,18727931.97631836,6989654.064178467,6973810.195922852,-9841984.748840332,-1626329.1835784912,-9479687.690734863,-5489344.120025635,-6466570.3773498535,-6725460.529327393,13724236.488342285,12963771.82006836,5862587.451934814,-1460420.9661483765,-5335886.478424072,-5215734.004974365,-4676718.711853027,2383272.647857666,1859694.242477417,-255951.94101333618,-5739237.7853393555,-5222012.519836426
0.305,-20135414.123535156,-13384787.559509277,-28772827.1484375,-9325878.143310547,-20206417.083740234,7246576.309204102,-907604.992389679,111453.0935883522,1450772.2854614258,-1255611.1812591553,-9288413.047790527,-24119117.736816406,-22886070.251464844,-22627035.14099121,18243309.020996094,6108169.078826904,9748211.860656738,6312969.207763672,-1212622.2848892212,-3937409.4009399414,-12750338.554382324,-30559171.676635742,-18546274.185180664,18075630.18798828,16101036.071777344,9823127.746582031,-3099703.788757324,-157977.26809978485,-3600170.373916626,-21008111.95373535,-24248468.39904785,-19113023.75793457,17131233.21533203,11256267.547607422,7431965.351104736,-247838.78028392792,-205330.56557178497,2155328.9890289307,-3845291.6145324707,-5947875.499725342,-5154732.227325439,16953802.10876465,8126084.327697754,8170668.601989746,-4979322.43347168,-1092273.8313674927,-6970636.367797852,-5392419.815063477,-6486208.915710449,-6491026.401519775,16367919.921875,15604142.189025879,9681803.703308105,3096585.988998413,-5304839.611053467,-5043446.063995361,-4568071.8421936035,6659061.431884766,6007307.052612305,4092494.9645996094,-5340969.085693359,-4999053.478240967
0.31,-26082033.157348633,-19579038.619995117,-34792331.69555664,-12206006.050109863,-24245285.034179688,3122755.765914917,-3672066.9269561768,-2573521.614074707,-289812.20722198486,-3637901.544570923,-13031247.13897705,-28540668.487548828,-27314725.875854492,-26980310.440063477,17310745.239257812,3639825.8209228516,7178638.458251953,4186006.546020508,-4138319.0155029297,-8494602.20336914,-17737098.693847656,-35552814.48364258,-23333091.735839844,17367141.723632812,14968633.651733398,8272502.899169922,-4207874.774932861,-100171.39464616776,-7348438.739776611,-26101228.713989258,-28897865.295410156,-23951356.887817383,16381475.448608398,11708010.67352295,9451889.991760254,-179202.22878456116,-29257.752001285553,-439776.6888141632,-6699124.336242676,-5725822.925567627,-5067101.47857666,16236637.115478516,10224019.050598145,10352795.600891113,934896.1114883423,-737468.1234359741,-4462333.679199219,-4793821.334838867,-6243912.696838379,-5975219.249725342,19357654.571533203,18633062.3626709,14899479.866027832,8265225.410461426,-4581615.924835205,-4411094.188690186,-4109901.4282226562,11526865.005493164,10975481.033325195,9012961.387634277,-4522751.331329346,-4128135.6811523438
0.315,-28364639.282226562,-23432413.10119629,-39524669.6472168,-14587021.827697754,-27830001.831054688,1989269.495010376,-5955303.192138672,-4700630.664825439,-2129866.600036621,-5963473.796844482,-16203767.776489258,-32079921.72241211,-30950963.973999023,-30645042.419433594,17323127.74658203,4291316.986083984,5272079.4677734375,1576316.475868225,-6904763.698577881,-11869116.78314209,-21018844.604492188,-38416713.71459961,-26070444.107055664,17377405.166625977,15570745.468139648,6348989.963531494,-5327278.137207031,-474391.8776512146,-10181348.80065918,-29216554.641723633,-30968173.98071289,-26685749.053955078,16251117.706298828,12754276.275634766,10528293.60961914,-527382.1353912354,-282008.7671279907,-2257312.774658203,-7953470.706939697,-3842207.193374634,-3199217.0810699463,16283521.65222168,11346663.475036621,11442910.194396973,4090590.476989746,-919455.7070732117,-3295544.147491455,-2575685.2626800537,-4230690.956115723,-3899021.863937378,21155992.50793457,20485099.79248047,18435659.408569336,11534192.085266113,-2105617.7616119385,-2172528.5053253174,-1999054.6703338623,14654500.961303711,14386260.986328125,12275217.056274414,-2281500.816345215,-1783270.7166671753
0.32,-29344526.290893555,-26128738.403320312,-43361335.75439453,-17532945.63293457,-30444597.244262695,1242055.892944336,-8473762.512207031,-7256871.223449707,-4649530.410766602,-8310632.705688477,-18456125.259399414,-33598361.96899414,-32464733.123779297,-32142078.399658203,16442211.151123047,4605340.957641602,3022705.554962158,-1511764.0495300293,-8961416.244506836,-13029470.443725586,-21579357.147216797,-37629440.30761719,-24867599.487304688,16417373.657226562,15225337.982177734,3942531.8241119385,-6721167.56439209,-972778.7971496582,-10674909.591674805,-28527557.373046875,-28245834.350585938,-25339973.44970703,15127289.772033691,12645174.026489258,9832081.79473877,-939855.2179336548,-667154.1333198547,-2019657.850265503,-6303189.277648926,-692924.4995117188,29649.73635971546,15365708.351135254,10655720.710754395,10584403.038024902,4321602.821350098,-1407836.4372253418,-3135777.235031128,524351.1199951172,-1017137.0506286621,-733522.4747657776,21785566.329956055,21145967.483520508,19787218.09387207,12956920.623779297,1165910.7208251953,932059.7648620605,1113218.4267044067,15755531.311035156,15713985.443115234,13949350.357055664,734839.7374153137,1243958.830833435
0.325,-27907615.661621094,-24921680.450439453,-43149513.244628906,-18164957.04650879,-29801233.291625977,1195557.8327178955,-9145927.429199219,-8155422.210693359,-5574766.159057617,-9248281.478881836,-18569517.135620117,-32162754.05883789,-30859502.7923584,-30436498.641967773,14762967.109680176,4115948.6770629883,1382407.9036712646,-3551173.9253997803,-9890509.605407715,-12485419.273376465,-19945608.139038086,-34213539.123535156,-22187616.3482666,14798497.200012207,13698135.375976562,2245708.227157593,-7792506.217956543,-1170127.511024475,-9693598.747253418,-25554861.068725586,-23507204.055786133,-22526052.474975586,13484055.519104004,11757517.81463623,8365387.916564941,-1011946.5589523315,-836129.1885375977,-852050.6024360657,-4250484.943389893,1294651.0314941406,2102606.5349578857,13703424.453735352,9126048.08807373,8913383.483886719,3772905.5881500244,-1699506.9980621338,-3195769.3099975586,2231633.6631774902,898624.2413520813,1229014.1582489014,21845346.450805664,21189878.463745117,19581977.84423828,13205211.639404297,2846844.19631958,2555603.265762329,2869198.799133301,15480098.724365234,15426361.083984375,14412662.506103516,2368069.648742676,2850761.1751556396
0.33,-23755426.40686035,-19326745.986938477,-38489902.49633789,-14926098.823547363,-25956901.55029297,3157299.280166626,-6856309.413909912,-6018765.449523926,-3558013.677597046,-7904207.229614258,-16324920.654296875,-28653652.19116211,-27185403.82385254,-26725248.336791992,14257752.418518066,4903889.6560668945,1698603.2724380493,-3309528.350830078,-9426169.395446777,-11188105.583190918,-17381874.084472656,-30872304.916381836,-20980237.96081543,14434047.69897461,13187346.458435059,2512081.6230773926,-7860891.342163086,-1027421.7128753662,-8605717.658996582,-23092258.45336914,-21006916.046142578,-21338747.024536133,13257636.070251465,11830165.86303711,7745823.383331299,-781314.4326210022,-783221.6620445251,-289525.47907829285,-4480611.801147461,351195.96123695374,1211584.6872329712,13214677.810668945,8391683.578491211,8204408.645629883,3956593.5134887695,-1649376.7499923706,-3718402.862548828,1123066.6637420654,-110122.81477451324,305769.02627944946,21597658.157348633,20870168.685913086,18281034.469604492,12231849.670410156,1649532.7949523926,1291168.6897277832,1781551.2418746948,14556705.474853516,14334094.047546387,13432409.286499023,1246403.455734253,1743909.478187561
0.335,-22917478.561401367,-16624622.344970703,-36012485.50415039,-12990226.745605469,-23603433.60900879,3718737.3638153076,-5767807.0068359375,-4849534.034729004,-1890483.3793640137,-6471209.0492248535,-14424833.297729492,-26520704.26940918,-25070671.08154297,-24651624.67956543,14791776.657104492,5053462.982177734,2465705.156326294,-2146170.6161499023,-8340128.8986206055,-10315422.058105469,-16018426.895141602,-30762029.64782715,-20767986.297607422,14995471.954345703,13547448.15826416,4038168.430328369,-7660869.121551514,-855745.1367378235,-7986404.895782471,-22741268.157958984,-22405017.852783203,-21216770.17211914,13923039.436340332,12566890.716552734,8272158.622741699,-632850.8257865906,-747039.3180847168,-341528.89251708984,-6168671.607971191,-2369486.5703582764,-1442281.6038131714,13679666.519165039,8864471.435546875,8818150.520324707,4812209.129333496,-1561984.896659851,-4958803.653717041,-1524117.350578308,-2682711.124420166,-2340925.455093384,21042541.50390625,20245836.25793457,16838808.059692383,10536018.371582031,-986301.1837005615,-1430566.0724639893,-845218.1220054626,13947477.340698242,13639369.010925293,11692688.941955566,-1353536.84425354,-860578.4773826599
0.34,-30738916.397094727,-23466176.986694336,-41285373.68774414,-18003499.98474121,-26480716.705322266,-2070834.8751068115,-10462538.719177246,-9323779.106140137,-4435884.475708008,-7899253.845214844,-15726753.234863281,-28292779.92248535,-26995229.721069336,-26487934.112548828,13415040.016174316,-60700.45754313469,927728.4145355225,-2575930.595397949,-8239861.488342285,-10871110.916137695,-17437808.990478516,-34602420.806884766,-19247228.622436523,13530505.180358887,11713168.144226074,4728425.979614258,-8580601.692199707,-862879.3954849243,-7776402.473449707,-24013637.54272461,-25689052.58178711,-19684370.040893555,12385221.481323242,11600014.686584473,8833268.165588379,-738610.0888252258,-839273.7507820129,-111861.38540506363,-6307502.746582031,-3864578.96232605,-2834083.7955474854,12249295.234680176,9519744.873046875,9587132.453918457,5807003.021240234,-1677947.998046875,-5577206.134796143,-2819695.7111358643,-3819329.9770355225,-3692407.1311950684,20380428.314208984,19621141.43371582,17018016.815185547,9899582.862854004,-2212543.01071167,-2621560.0967407227,-2108754.873275757,14394733.428955078,14170467.376708984,11204294.204711914,-2575468.3017730713,-2172167.3011779785
0.345,-41490055.084228516,-34478347.77832031,-49551010.13183594,-26519573.211669922,-31767757.415771484,-11652832.984924316,-18170112.60986328,-16825778.96118164,-9583205.223083496,-11861683.84552002,-19443246.841430664,-32148391.723632812,-30948751.44958496,-30138858.795166016,9243227.005004883,-8888404.846191406,-2421916.723251343,-5004989.6240234375,-10039089.20288086,-12821946.144104004,-20655370.712280273,-38972766.8762207,-16628541.946411133,9300967.2164917,7175451.755523682,3843817.4724578857,-10491095.542907715,-941707.3726654053,-7935742.8550720215,-25352237.701416016,-27528945.922851562,-16976097.106933594,8054018.020629883,8603110.313415527,8814269.065856934,-828881.0849189758,-921927.5116920471,469798.2668876648,-4061060.905456543,-2538033.0085754395,-1457425.3559112549,8199482.9177856445,9657338.14239502,9769114.49432373,6891822.338104248,-1827016.7112350464,-3951654.6726226807,-1308901.9060134888,-2199868.679046631,-2210693.836212158,20116804.122924805,19490356.4453125,19533527.374267578,11524883.270263672,-707613.5277748108,-926300.6448745728,-582659.8405838013,15559253.692626953,15417526.245117188,13039763.450622559,-1012237.548828125,-689253.2110214233
0.35,-44337360.38208008,-38188587.1887207,-51894168.853759766,-29897535.32409668,-34360046.38671875,-16281782.150268555,-21664226.531982422,-20197420.120239258,-12547753.33404541,-15555793.762207031,-22696710.58654785,-34571407.318115234,-33353576.66015625,-32256359.100341797,5922691.345214844,-13413387.298583984,-4268530.84564209,-7637022.018432617,-13070279.121398926,-15154664.993286133,-23152948.3795166,-39944160.46142578,-15755723.95324707,5979797.36328125,4030239.5820617676,2836514.472961426,-11808869.361877441,-906839.7879600525,-8599531.173706055,-25832050.323486328,-26738445.281982422,-16123445.510864258,4836974.143981934,6707153.797149658,9012718.200683594,-622287.7502441406,-837900.8173942566,585291.8028831482,-1891845.464706421,146769.6875333786,1119661.3311767578,5129003.047943115,9896524.429321289,10046435.356140137,8209336.280822754,-1718640.8042907715,-911238.3127212524,1456870.3174591064,444376.2004375458,470609.6947193146,20671298.98071289,20108320.236206055,22582994.46105957,14376667.022705078,2001565.69480896,1939273.1189727783,2193224.6685028076,16573419.570922852,16341226.577758789,15835292.81616211,1770949.6021270752,2158518.075942993
0.355,-38814659.118652344,-33282539.36767578,-48424243.92700195,-26639152.52685547,-34368148.80371094,-12921418.190002441,-19385562.896728516,-17921236.038208008,-12340614.318847656,-17504743.576049805,-24564418.79272461,-35162105.560302734,-33923950.1953125,-32773895.263671875,6834185.1234436035,-10180298.805236816,-3476414.918899536,-9035348.892211914,-15570012.092590332,-16770717.62084961,-23882534.02709961,-37990001.6784668,-17608985.900878906,6864234.447479248,5430645.942687988,3135934.352874756,-11776553.1539917,-738273.6206054688,-9614767.074584961,-25743999.481201172,-25143301.010131836,-18154788.970947266,5971202.373504639,8200218.200683594,10073835.372924805,-252611.4284992218,-629451.6921043396,-21314.026787877083,-2038322.4487304688,1462196.2308883667,2218264.34135437,6203228.47366333,10833608.627319336,11044051.170349121,9405116.081237793,-1382161.021232605,661903.1429290771,2707407.4745178223,1431002.6168823242,1572920.560836792,21774053.5736084,21109111.785888672,23458105.087280273,16317892.074584961,3280225.7537841797,3159387.8269195557,3466380.834579468,17300174.713134766,16890165.328979492,17402320.861816406,3022378.444671631,3574271.6789245605
0.36,-34650844.57397461,-29204572.677612305,-46727077.48413086,-23254329.681396484,-35003929.138183594,-8365417.48046875,-16744079.58984375,-15449548.721313477,-11729883.193969727,-17751171.112060547,-25493192.672729492,-35526214.599609375,-34335880.279541016,-33258682.250976562,9965023.040771484,-5407974.720001221,-2384096.622467041,-8939328.19366455,-15645007.133483887,-16743875.503540039,-23433307.647705078,-36468505.859375,-19195440.2923584,9958364.486694336,8921018.600463867,4293323.040008545,-11224623.680114746,-514066.9345855713,-10104079.246520996,-25556400.299072266,-24696865.08178711,-19897127.151489258,9141670.227050781,10841177.940368652,10970898.628234863,-51332.0192694664,-452700.9129524231,-509675.68159103394,-3552101.6120910645,328040.7786369324,955701.5895843506,9291480.06439209,11576632.499694824,11812349.319458008,9684442.520141602,-1111062.2882843018,-512395.2627182007,1406460.4043960571,-5692.023318260908,233177.66189575195,22197507.858276367,21401020.050048828,21453187.942504883,16157400.131225586,2079157.5908660889,1768987.0595932007,2134230.136871338,17756549.835205078,17303901.67236328,16856189.727783203,1706882.7152252197,2334492.6834106445
0.365,-35711181.640625,-30032634.735107422,-48039531.70776367,-22752914.428710938,-34822761.53564453,-8967331.886291504,-16885540.008544922,-15850925.44555664,-11035123.825073242,-15347036.361694336,-24003759.384155273,-34607666.015625,-33442012.786865234,-32343029.022216797,10503196.716308594,-5658095.359802246,-2529097.080230713,-7114454.746246338,-12462919.235229492,-14342529.296875,-21720884.323120117,-35888515.47241211,-17551748.275756836,10549514.770507812,10067007.064819336,5058454.513549805,-10806035.995483398,-263177.752494812,-9077541.35131836,-25077701.568603516,-24780172.34802246,-18255865.0970459,9496873.85559082,10807477.951049805,10301445.960998535,-62143.75048875809,-350668.13230514526,-182727.8733253479,-4083394.0505981445,-2169433.355331421,-1461157.7987670898,9657547.950744629,10867820.739746094,11042210.578918457,8794135.093688965,-1044515.3713226318,-2535533.1897735596,-1239976.5253067017,-2548141.0026550293,-2264051.1989593506,20660419.464111328,19880455.017089844,18481584.548950195,14036438.941955566,-581458.9262008667,-948017.5971984863,-669897.1390724182,16806510.92529297,16484106.063842773,14610995.292663574,-994062.2448921204,-454986.5126609802
0.37,-35795803.07006836,-29384534.83581543,-45621524.810791016,-21199945.4498291,-29434162.139892578,-13163282.39440918,-16985628.128051758,-16068765.640258789,-7799825.668334961,-9608730.31616211,-18443771.362304688,-30027565.002441406,-28776670.455932617,-27602996.826171875,6894927.978515625,-9699384.689331055,-2732296.4668273926,-3839953.660964966,-7576336.38381958,-10191871.643066406,-18342142.10510254,-33965927.12402344,-14082333.5647583,7064285.755157471,7894442.558288574,5068037.033081055,-10174866.676330566,-22228.682413697243,-6884514.808654785,-24234222.412109375,-23935420.989990234,-14754645.347595215,5702875.61416626,7713415.145874023,8398305.892944336,-73633.72296094894,-251140.11764526367,517532.1102142334,-3380771.8753814697,-4593775.272369385,-3722853.899002075,5896567.821502686,9035431.861877441,9111907.005310059,7573844.432830811,-1045237.0643615723,-3174898.386001587,-3729601.1447906494,-4841977.119445801,-4607496.26159668,17271238.327026367,16616008.758544922,16760580.062866211,10915854.454040527,-3264939.069747925,-3446364.8796081543,-3360413.5513305664,13386361.122131348,13169744.491577148,11586077.690124512,-3561135.5304718018,-3139035.224914551
0.375,-33003002.166748047,-24805631.637573242,-38874378.2043457,-17722955.70373535,-21232727.05078125,-17289615.631103516,-15581339.836120605,-14467638.01574707,-3300370.931625366,-3871156.692504883,-12002954.483032227,-24215604.782104492,-22855075.83618164,-21754518.508911133,1857827.7826309204,-13483186.721801758,-2641881.9427490234,-1512875.4377365112,-4594328.880310059,-7079338.550567627,-15316534.996032715,-31437335.968017578,-12732757.568359375,2102382.4214935303,4258480.072021484,4591197.490692139,-9547901.153564453,63764.698803424835,-5528044.700622559,-23930820.46508789,-23070793.15185547,-13502849.578857422,656305.6707382202,4500840.187072754,6995577.335357666,-47957.535833120346,-173675.68612098694,761264.5030021667,-3127940.4163360596,-6320870.876312256,-5438238.620758057,846842.9446220398,7703916.549682617,7759624.481201172,7250486.850738525,-1009250.5216598511,-2654730.796813965,-5491835.117340088,-6513529.7775268555,-6408970.832824707,14054621.696472168,13460929.870605469,16761356.353759766,8610208.511352539,-5199169.635772705,-5146133.899688721,-5194065.093994141,9354484.558105469,9070887.565612793,9390862.464904785,-5357694.149017334,-4925606.727600098
0.38,-35761383.056640625,-25057832.717895508,-37669498.443603516,-18719518.661499023,-19241212.844848633,-22091051.10168457,-16670629.501342773,-15167514.80102539,-3269016.981124878,-3613381.862640381,-10976024.627685547,-23509990.692138672,-22154838.56201172,-21233741.760253906,-1610309.0047836304,-17228542.32788086,-4464012.622833252,-3039414.167404175,-5999510.765075684,-7647285.938262939,-15919155.12084961,-32449718.475341797,-14508012.771606445,-1351886.6300582886,369118.95871162415,3657865.047454834,-10296674.728393555,-123426.72795057297,-6555105.209350586,-24933858.87145996,-24245710.372924805,-15436346.054077148,-2655220.5085754395,3314846.2772369385,7127727.98538208,-160977.21457481384,-260947.40629196167,596484.899520874,-3690556.049346924,-6883753.776550293,-6162500.858306885,-2440778.0170440674,7837424.755096436,7992244.243621826,8316360.4736328125,-1067170.7391738892,-2387961.1492156982,-6114056.11038208,-7201404.094696045,-7146896.839141846,13525475.50201416,12897627.830505371,17760496.139526367,9129211.42578125,-5772138.595581055,-5691141.605377197,-5745768.070220947,8655090.33203125,8225163.459777832,9929722.785949707,-5956001.758575439,-5423423.767089844
0.385,-46535366.05834961,-34155483.24584961,-45522136.68823242,-26207895.278930664,-25466901.779174805,-27707664.489746094,-21812294.006347656,-20083841.32385254,-8882831.573486328,-8848874.09210205,-15865475.65460205,-28440052.032470703,-27178863.525390625,-26251640.31982422,-2375312.328338623,-21465351.104736328,-8433924.674987793,-7435465.335845947,-9932293.891906738,-10668668.746948242,-19189823.150634766,-36800056.45751953,-16011384.963989258,-2079083.9195251465,-2499540.8058166504,2783831.1195373535,-12514601.707458496,-470174.103975296,-8743045.806884766,-26117225.646972656,-26199710.845947266,-16955274.58190918,-3215559.0057373047,4122176.170349121,8537732.124328613,-398948.4906196594,-546315.610408783,767520.7257270813,-3302551.031112671,-5567061.901092529,-4952115.535736084,-2910912.036895752,9194520.950317383,9466747.283935547,10265642.166137695,-1345063.0903244019,-2540971.517562866,-4874159.812927246,-6083561.897277832,-5872259.616851807,16352331.161499023,15714154.243469238,19328100.204467773,12451116.561889648,-4363813.400268555,-4450463.29498291,-4463399.410247803,12255314.826965332,11778724.670410156,13219205.856323242,-4704981.803894043,-4156646.251678467
0.39,-50403945.92285156,-37902881.62231445,-48023368.83544922,-29605007.17163086,-28454786.30065918,-28152011.87133789,-23781072.61657715,-22231063.842773438,-12089233.3984375,-11930136.680603027,-18443344.116210938,-29979278.564453125,-28748790.740966797,-27533674.240112305,-496529.78777885437,-20972675.323486328,-9803791.999816895,-9347577.095031738,-11454070.091247559,-11412659.645080566,-18910449.981689453,-37091365.814208984,-14203891.75415039,-159732.6248884201,-1186215.0430679321,3589793.920516968,-13446394.920349121,-730695.903301239,-9100029.945373535,-25270238.876342773,-24500488.28125,-14995783.805847168,-1210085.391998291,6493244.171142578,10509952.545166016,-480573.71377944946,-849264.8601531982,1387956.6192626953,-1405709.0282440186,-3045408.7257385254,-2357786.4170074463,-834915.2207374573,11084015.846252441,11357156.753540039,11957181.930541992,-1693152.3084640503,-2891416.311264038,-2506122.827529907,-3750874.7577667236,-3311008.4533691406,19894950.86669922,19326396.942138672,20692857.74230957,15009296.417236328,-2019080.638885498,-2190985.4412078857,-2186920.404434204,15152091.979980469,14778485.298156738,15749001.502990723,-2404602.289199829,-2003802.5379180908
0.395,-33540466.30859375,-20712030.4107666,-30294239.044189453,-18740470.88623047,-17500688.552856445,-19712253.57055664,-15757208.824157715,-14615652.084350586,-5465583.801269531,-6435645.580291748,-11672347.068786621,-20608572.006225586,-19304567.337036133,-17811967.849731445,1995838.4037017822,-11661972.045898438,-4861914.63470459,-5251405.715942383,-7911327.838897705,-7149964.332580566,-11313215.255737305,-28426769.256591797,-10483086.585998535,2262892.246246338,5210287.570953369,6600286.00692749,-10690136.909484863,-838754.415512085,-6617045.4025268555,-22195573.806762695,-18002243.041992188,-11132233.619689941,1265375.6141662598,9418418.884277344,11728899.955749512,-332553.32708358765,-1019721.508026123,1581680.7746887207,-680160.1648330688,-2252051.1150360107,-1527776.598930359,1601680.1595687866,12181820.8694458,12357413.291931152,11973532.676696777,-1850124.0015029907,-4774369.716644287,-2075679.3022155762,-3204210.9966278076,-2711055.7556152344,19501937.866210938,19028406.143188477,19341789.24560547,12345285.415649414,-1940660.834312439,-1929583.0726623535,-1901086.926460266,10937651.634216309,10760737.419128418,13057789.80255127,-2103980.06439209,-1883783.1020355225
0.4,-7472034.454345703,8276158.332824707,-1195046.4248657227,-1138456.5830230713,1052979.3500900269,-11533475.875854492,-3925620.0790405273,-2980987.787246704,6131580.352783203,3840132.236480713,136714.1753435135,-5878080.368041992,-4517470.359802246,-3030819.4160461426,285897.9403972626,-1265466.2132263184,1851350.9035110474,1265858.4117889404,-2160046.8158721924,-1002033.7104797363,-1471720.6954956055,-17136981.964111328,-8418355.941772461,396317.89922714233,10307820.320129395,8878211.02142334,-6324023.246765137,-939144.8497772217,-3779037.7140045166,-19569236.755371094,-12070681.57196045,-9042812.34741211,-557277.0237922668,9588850.021362305,9946811.67602539,-286007.73215293884,-1128041.5058135986,792625.7252693176,-3623350.8586883545,-5555657.863616943,-5070713.043212891,-349779.9336910248,10263844.49005127,10415565.490722656,9434465.408325195,-1797564.98336792,-9455405.235290527,-5910411.834716797,-6841491.222381592,-6482003.688812256,12554974.555969238,12173622.131347656,12869337.08190918,4112637.996673584,-6225466.251373291,-5933269.97756958,-5819961.071014404,-605350.0175476074,-541983.3660125732,4756524.085998535,-6076901.435852051,-5889233.589172363
0.405,426623.79145622253,21142942.428588867,13440425.872802734,4289761.543273926,9966577.529907227,-17491516.11328125,-2403706.5505981445,-1250649.5714187622,9986020.0881958,8618317.604064941,5716718.673706055,1158533.0963134766,2473919.630050659,3832099.676132202,-8967764.854431152,-3378034.830093384,1492360.5918884277,2980465.1737213135,463068.81308555603,1415196.2995529175,1909597.5160598755,-13883749.008178711,-8615085.60180664,-8947081.565856934,5649518.966674805,6414929.8667907715,-5288443.565368652,-1065565.824508667,-3437198.4004974365,-19717472.076416016,-12287734.031677246,-9253463.745117188,-9901826.858520508,3759566.7839050293,4144740.104675293,-554143.8460350037,-1249568.9392089844,-78314.6470785141,-8133575.439453125,-11063570.976257324,-10916040.420532227,-9842406.272888184,4413738.250732422,4709598.541259766,5442178.249359131,-1748453.4978866577,-14700222.01538086,-11812050.819396973,-12579916.000366211,-12347585.678100586,1940375.4472732544,1661926.8655776978,3234511.137008667,-4597263.813018799,-12314302.444458008,-11949179.649353027,-11735851.287841797,-12233408.92791748,-11958666.801452637,-4087514.877319336,-12099981.307983398,-11798270.225524902
0.41,-16939270.01953125,7213313.579559326,3738051.652908325,-7638069.152832031,3265492.2008514404,-35638164.52026367,-14045232.772827148,-12612758.63647461,2043930.0537109375,3833169.460296631,1049927.5922775269,-3372749.3286132812,-2135522.6039886475,-672279.2983055115,-21291790.008544922,-18195751.190185547,-7127923.011779785,-2113410.472869873,-1944348.2160568237,-1211401.7009735107,-2364924.907684326,-19283132.553100586,-8529081.344604492,-21282661.43798828,-7123217.1058654785,-190362.94519901276,-9007549.285888672,-995394.766330719,-5093299.388885498,-21352035.522460938,-16500556.945800781,-9146145.820617676,-22259897.232055664,-5597120.761871338,-2736887.4549865723,-805175.9004592896,-1218836.5459442139,434094.6674346924,-9297425.270080566,-13958179.473876953,-13826786.041259766,-22317760.467529297,-2358324.7661590576,-1882424.9505996704,2954476.5949249268,-1779788.9709472656,-16042339.324951172,-14766355.514526367,-15425419.807434082,-15249756.813049316,-5759036.064147949,-5969179.153442383,-3523681.163787842,-8459876.06048584,-15110321.044921875,-14899543.762207031,-14674748.420715332,-16933702.46887207,-16605930.32836914,-8116606.712341309,-15153725.624084473,-14779030.799865723
0.415,-34901508.33129883,-11461376.190185547,-11389076.232910156,-20098121.643066406,-6575057.9833984375,-46354366.302490234,-24786867.141723633,-23463176.727294922,-7344376.564025879,-3535780.191421509,-5959350.109100342,-9784336.09008789,-8564871.788024902,-6767370.223999023,-26722446.44165039,-28691801.071166992,-14753033.638000488,-8203585.624694824,-6184885.025024414,-4596000.671386719,-6584223.747253418,-23140260.696411133,-7335653.781890869,-26807071.685791016,-15270608.901977539,-5061685.085296631,-13139626.502990723,-603579.6403884888,-5778376.10244751,-21101261.138916016,-17187366.485595703,-7962245.941162109,-27735164.642333984,-10698713.302612305,-5773488.521575928,-620550.811290741,-874581.8734169006,2408400.058746338,-5788657.188415527,-12208575.248718262,-11736294.746398926,-27844682.693481445,-5222763.538360596,-4728219.985961914,3775319.5762634277,-1713936.9249343872,-12385281.562805176,-12961150.169372559,-13510393.142700195,-13427724.838256836,-6739755.630493164,-6968308.448791504,-3930518.15032959,-7692478.179931641,-13088817.596435547,-12972208.976745605,-12842585.563659668,-15444452.285766602,-15257217.407226562,-7471657.276153564,-13407224.655151367,-13118122.100830078
0.42,-29979843.139648438,-10042755.126953125,-11018301.010131836,-16822856.903076172,-6632155.895233154,-37214069.36645508,-22113162.994384766,-21239908.21838379,-7278201.103210449,-5069314.956665039,-6711328.506469727,-9004180.908203125,-7766464.2333984375,-5786119.46105957,-21321508.407592773,-22175399.780273438,-13612697.60131836,-9207469.940185547,-8339590.072631836,-4746300.69732666,-4910933.494567871,-19025251.388549805,-7796284.6755981445,-21592863.082885742,-10366050.720214844,-4049252.0332336426,-13218697.547912598,-198887.24386692047,-4199774.265289307,-18050861.358642578,-11740620.613098145,-8514779.090881348,-22381837.844848633,-7427757.263183594,-3808910.131454468,-185320.1687335968,-467695.83225250244,4231616.497039795,-1743928.7900924683,-8901268.95904541,-8187917.709350586,-22480209.350585938,-3191541.1949157715,-2860617.160797119,6074685.096740723,-1461498.737335205,-7820301.055908203,-9770483.97064209,-10226480.484008789,-10264097.213745117,-3629391.90864563,-3893465.042114258,-1254880.666732788,-6751580.715179443,-9919259.071350098,-9677595.138549805,-9632370.948791504,-13965739.250183105,-13927950.859069824,-6555616.855621338,-10210704.803466797,-10037919.998168945
0.425,-12386333.465576172,4817319.393157959,-738367.9151535034,-4657150.2685546875,-921868.2646751404,-21325929.641723633,-12491714.477539062,-11915758.13293457,-787033.0810546875,-1798066.9736862183,-3225074.529647827,-4738489.151000977,-3527865.171432495,-1680848.9561080933,-12880750.65612793,-8432031.631469727,-7864995.956420898,-6487290.382385254,-8372855.186462402,-2979024.887084961,-1190025.5680084229,-13097307.205200195,-11446798.324584961,-13184619.903564453,-35414.78514671326,-330536.0674858093,-10478222.846984863,-232657.38785266876,-2262989.7594451904,-15115602.493286133,-6275593.280792236,-12225403.785705566,-13855646.133422852,-1200488.4481430054,-1079469.084739685,-91441.98149442673,-471049.63660240173,4534749.0310668945,-1134200.5729675293,-7676145.553588867,-7128993.034362793,-13954571.723937988,-513261.91425323486,-386960.506439209,6516454.219818115,-1269536.9720458984,-6434033.393859863,-8671199.798583984,-9149580.001831055,-9167851.448059082,-1431942.105293274,-1653850.1977920532,-534589.7674560547,-7681201.457977295,-9014669.418334961,-8635635.375976562,-8537716.86553955,-15296813.96484375,-15205655.097961426,-7434701.919555664,-9034170.150756836,-8820041.65649414
0.43,-10810719.49005127,6299783.229827881,-1691268.0864334106,-3354667.1867370605,-2447354.793548584,-20813899.993896484,-12029868.125915527,-11383378.982543945,437374.5024204254,-1479063.1532669067,-3817155.599594116,-6316373.348236084,-5198071.002960205,-3448120.594024658,-11475339.889526367,-7074487.686157227,-7333689.6896362305,-6175201.892852783,-9124549.865722656,-3355975.389480591,-2729829.0729522705,-14688898.086547852,-14575979.232788086,-11527885.437011719,1818257.3318481445,-95020.39849758148,-9612691.879272461,-695154.2496681213,-2160584.4497680664,-15364065.170288086,-7413419.246673584,-15247425.079345703,-12220851.89819336,-345061.89823150635,-1635905.146598816,-504307.98530578613,-927996.3374137878,3758596.658706665,-2808474.063873291,-8064807.891845703,-7811948.299407959,-12371365.547180176,-1084417.3431396484,-1090257.167816162,4733148.574829102,-1419897.9139328003,-7453462.12387085,-8782123.565673828,-9400856.018066406,-9255890.846252441,-1299773.097038269,-1485832.5719833374,-1513449.788093567,-7643287.181854248,-9191293.716430664,-8896714.210510254,-8634937.286376953,-15734577.178955078,-15459358.215332031,-7334196.090698242,-9016570.091247559,-8650145.530700684
0.435,-30534524.91760254,-12135679.244995117,-17587190.628051758,-16889520.6451416,-12725994.110107422,-36710556.03027344,-23210180.282592773,-22501928.329467773,-6869866.847991943,-6819796.562194824,-10246931.076049805,-13837487.22076416,-12846632.00378418,-10791045.188903809,-17027473.44970703,-20560220.71838379,-13538639.068603516,-10172858.238220215,-11708838.46282959,-6689758.777618408,-9466383.934020996,-22896619.79675293,-12643264.770507812,-16803840.63720703,-6413965.225219727,-4070448.398590088,-12051768.30291748,-1083794.2361831665,-3669867.0387268066,-18383491.51611328,-13636125.564575195,-13103661.53717041,-17665142.059326172,-5416285.514831543,-4253018.379211426,-955242.0973777771,-1328765.869140625,3134345.054626465,-3372448.205947876,-7583571.910858154,-7343913.0783081055,-17791488.647460938,-3608864.7842407227,-3651534.080505371,3733054.6379089355,-1806231.3795089722,-7521033.28704834,-7676654.815673828,-8405749.320983887,-8196437.835693359,-723828.9713859558,-1035208.1060409546,-245228.15644741058,-4284228.324890137,-7924336.910247803,-7808117.866516113,-7444634.437561035,-12023113.250732422,-11715327.262878418,-3940653.8009643555,-7790462.493896484,-7392372.608184814
0.44,-45514568.32885742,-26857337.951660156,-28686923.98071289,-27621799.46899414,-19066291.80908203,-47782546.99707031,-31275552.74963379,-30852863.311767578,-13156902.313232422,-11643437.385559082,-15025736.808776855,-17598814.010620117,-16748128.890991211,-14205178.260803223,-20810495.376586914,-30869533.53881836,-18104492.1875,-13675520.896911621,-13919635.772705078,-9516716.957092285,-13780345.916748047,-27737709.045410156,-7365455.627441406,-20608491.897583008,-12739729.881286621,-7028208.255767822,-14535296.440124512,-1049428.7014007568,-5101278.305053711,-20959560.39428711,-17571062.088012695,-7707605.361938477,-21671705.24597168,-9217465.4006958,-4990633.964538574,-1023480.7729721069,-1280896.9020843506,2831454.7538757324,-2667946.1002349854,-6426299.095153809,-6001765.727996826,-21565160.751342773,-4264076.709747314,-4264358.5205078125,5430236.81640625,-2051998.3768463135,-5902989.864349365,-6187013.626098633,-6900770.664215088,-6841058.254241943,1057609.5581054688,539799.5710372925,3286131.8588256836,-565602.8389930725,-6263453.960418701,-6129810.333251953,-5851614.952087402,-7623570.442199707,-7519901.752471924,-219355.35967350006,-6275197.505950928,-6021522.045135498
0.445,-36783321.380615234,-19795114.517211914,-21423307.418823242,-22198234.55810547,-13408461.570739746,-40713264.46533203,-25943710.327148438,-25838787.078857422,-10552670.4788208,-10450434.684753418,-12597784.996032715,-12214750.289916992,-11478420.25756836,-8820872.30682373,-18071001.052856445,-25034513.473510742,-15537117.958068848,-12682749.74822998,-13788896.560668945,-9156904.220581055,-10824589.729309082,-23274438.858032227,-4745621.204376221,-18119611.740112305,-9132973.670959473,-5758500.576019287,-14508053.77960205,-819752.2759437561,-5620219.707489014,-20558864.59350586,-15131137.84790039,-5134673.118591309,-19250808.715820312,-7076405.048370361,-3048909.4257354736,-840726.912021637,-1003361.701965332,2309607.50579834,-2777243.3757781982,-6505438.327789307,-6069897.651672363,-18859703.063964844,-2336290.8363342285,-2278543.9491271973,8053722.381591797,-2014080.7628631592,-4517230.987548828,-6635559.558868408,-7303057.670593262,-7374863.147735596,1729350.4476547241,1184839.129447937,4575894.832611084,-751027.4052619934,-6689541.816711426,-6379087.924957275,-6286207.19909668,-7900362.491607666,-7997942.4476623535,-430354.4759750366,-6823585.510253906,-6652987.003326416
0.45,-19291679.38232422,-4546203.61328125,-7610265.254974365,-10286445.617675781,-3897330.0457000732,-27215934.75341797,-15770550.727844238,-15466871.26159668,-4152293.6820983887,-6695834.636688232,-7388574.123382568,-4029913.902282715,-3309559.3452453613,-1008698.582649231,-13209866.523742676,-12077239.036560059,-10721861.839294434,-9893265.724182129,-12662786.483764648,-7242285.251617432,-4402443.885803223,-14171968.460083008,-6136791.229248047,-13399561.882019043,-1674772.5009918213,-3074162.9600524902,-13469433.784484863,-800386.0116004944,-5446572.780609131,-17311571.12121582,-9096239.08996582,-6626126.289367676,-14369214.057922363,-2261813.8790130615,-1087273.359298706,-743850.3503799438,-917100.8467674255,2028221.607208252,-3056780.5767059326,-7042643.5470581055,-6784628.391265869,-13985863.68560791,-400283.3366394043,-377475.768327713,9160693.168640137,-1894911.766052246,-4083040.714263916,-7848535.537719727,-8563728.332519531,-8505318.641662598,311875.581741333,-39774.26514029503,1936734.0803146362,-3780152.0824432373,-7910378.456115723,-7600093.841552734,-7581439.49508667,-11702620.506286621,-11788208.0078125,-3509158.134460449,-8189385.414123535,-7862659.454345703
0.455,-16032043.45703125,-2231928.586959839,-4166005.6114196777,-8021333.694458008,-2032012.939453125,-23149747.848510742,-13798093.795776367,-12844737.05291748,-3232543.706893921,-7216976.642608643,-6947653.770446777,-1879115.104675293,-1057023.1676101685,925397.8729248047,-11253587.72277832,-7496680.736541748,-10203681.945800781,-9976238.250732422,-13019962.310791016,-7005987.167358398,-1345718.1453704834,-8958865.16571045,-6754689.693450928,-11370591.163635254,667686.5816116333,-2161463.499069214,-13488002.77709961,-947340.2500152588,-4840847.969055176,-13572903.633117676,-4685967.445373535,-7300163.745880127,-12071599.006652832,228332.89206027985,-467940.5391216278,-745491.2662506104,-992669.9995994568,3014806.7474365234,-865873.4560012817,-5465111.255645752,-5227501.392364502,-12034025.192260742,226820.4540014267,115907.52750635147,9260505.676269531,-1816227.674484253,-3494433.879852295,-6547570.22857666,-7368078.708648682,-7033792.972564697,-658058.5837364197,-873386.1446380615,-431257.78436660767,-4949150.085449219,-6533724.308013916,-6515931.606292725,-6384314.060211182,-13120707.511901855,-13084144.592285156,-4743018.15032959,-6997661.113739014,-6460512.161254883
0.46,-19437397.003173828,-5221095.561981201,-5605622.291564941,-11999264.71710205,-5354949.474334717,-22654775.619506836,-17201963.424682617,-15782689.094543457,-6320257.186889648,-11375695.22857666,-10811727.523803711,-5917002.201080322,-4967669.0101623535,-2870488.8820648193,-10050488.471984863,-10479637.145996094,-11506912.231445312,-11705915.451049805,-14404892.921447754,-8829744.338989258,-3671642.780303955,-11209688.186645508,-4770104.885101318,-10120513.916015625,-352425.54545402527,-1058928.0128479004,-13333597.183227539,-829676.2108802795,-4326883.792877197,-12595213.890075684,-5115890.5029296875,-5365906.238555908,-10753785.133361816,759890.079498291,511925.6377220154,-611857.8314781189,-842609.9419593811,4504718.780517578,2483582.7350616455,-2952936.887741089,-2483983.039855957,-10999367.713928223,1101154.4466018677,937563.5385513306,10546648.025512695,-1582853.3172607422,-2829038.619995117,-3704635.3816986084,-4571639.060974121,-4132491.5885925293,900293.76745224,580241.9781684875,1254415.0352478027,-3329315.662384033,-3652516.6034698486,-3920609.23576355,-3655490.1599884033,-10795722.007751465,-10735053.062438965,-3182757.3776245117,-4184529.7813415527,-3686136.245727539
0.465,-1232388.2579803467,12981204.03289795,7667394.638061523,-4311255.931854248,-1727022.409439087,-7646279.811859131,-12399771.690368652,-11034508.70513916,-3279060.125350952,-11504894.256591797,-11473894.119262695,-9787027.359008789,-8783666.610717773,-6372821.807861328,-4718402.862548828,-8186778.0685424805,-7235628.604888916,-9392156.600952148,-13741149.90234375,-10216623.306274414,-8379813.194274902,-18665964.126586914,-5610866.069793701,-4935500.144958496,2927705.2879333496,3695211.172103882,-10720029.830932617,-297499.6566772461,-4981391.429901123,-16404422.760009766,-11152571.678161621,-6299464.225769043,-5891607.284545898,2777911.901473999,3096610.3076934814,-296931.77342414856,-365932.8818321228,4076799.8695373535,1621207.594871521,-4409832.000732422,-3784940.9580230713,-6011476.516723633,3390696.0487365723,3392408.609390259,13143461.227416992,-1065917.1342849731,-3839579.1053771973,-4555848.598480225,-5404049.396514893,-5125523.090362549,3218214.750289917,2719687.4618530273,4956286.430358887,-2696798.086166382,-4583628.6544799805,-4862594.127655029,-4636692.047119141,-9525878.90625,-9524338.722229004,-2566576.0040283203,-4972058.7730407715,-4733635.425567627
0.47,42203865.05126953,55125801.08642578,38022838.5925293,18756746.292114258,11916303.634643555,21905225.75378418,2880479.097366333,4007723.808288574,8780359.268188477,-4076268.6729431152,-5360054.016113281,-10189650.535583496,-9185676.574707031,-6700016.498565674,3707416.296005249,1866902.470588684,2723147.8691101074,-1689656.376838684,-9676159.858703613,-9347345.352172852,-12229470.252990723,-27214366.912841797,-12794089.317321777,3313128.94821167,10217088.69934082,10546217.918395996,-6662774.085998535,215803.0867576599,-6849412.441253662,-23210651.397705078,-20977182.388305664,-13546411.514282227,1828724.1458892822,6347927.570343018,5701089.382171631,-31403.083354234695,63656.65793418884,1268849.8497009277,-4692638.397216797,-10910707.473754883,-10410878.18145752,2090436.2201690674,5765165.80581665,5991859.436035156,14879155.158996582,-575710.654258728,-6640613.555908203,-10513618.469238281,-11368067.741394043,-11307743.072509766,3648100.8529663086,3125913.8584136963,6721732.616424561,-4504863.262176514,-10531927.108764648,-10675870.895385742,-10611619.94934082,-11575783.729553223,-11555871.963500977,-4315879.344940186,-10739050.86517334,-10662454.605102539
0.475,78673713.68408203,90867340.08789062,64466117.85888672,38748775.482177734,24936185.836791992,44127037.048339844,15211030.006408691,16332416.534423828,20351211.547851562,5270786.762237549,2709511.7568969727,-8795100.212097168,-7765737.533569336,-5434951.305389404,9115720.748901367,7791841.983795166,10055684.089660645,5718050.003051758,-4474669.933319092,-6730201.244354248,-13575672.149658203,-32638530.731201172,-19487514.49584961,8735110.28289795,13360017.776489258,14385939.598083496,-4519242.763519287,195135.36989688873,-7634597.7783203125,-27436510.08605957,-28890584.94567871,-20178588.8671875,6907780.170440674,8147751.808166504,6345585.823059082,-39252.445101737976,90624.33987855911,-767439.2461776733,-9679418.563842773,-16283174.514770508,-15951201.438903809,7413216.114044189,6529845.237731934,6777678.966522217,14355472.564697266,-553979.9928665161,-8700798.988342285,-15556230.545043945,-16475229.263305664,-16463964.462280273,2735025.644302368,2300216.6748046875,6488265.037536621,-5178957.462310791,-15336552.619934082,-15456598.281860352,-15429662.704467773,-12577443.12286377,-12459770.202636719,-4879795.074462891,-15538766.860961914,-15379095.077514648
0.48,82092742.91992188,96371971.1303711,70478889.46533203,40481842.041015625,28482036.590576172,44397197.72338867,15244452.476501465,16546400.07019043,22999982.833862305,10046714.782714844,7191570.75881958,-6398864.74609375,-5332776.5464782715,-3048748.731613159,8674592.971801758,3251921.4153289795,9707018.852233887,7801997.661590576,-771893.3820724487,-3439377.546310425,-11138647.079467773,-31057985.305786133,-16310739.517211914,8427574.157714844,9625782.96661377,13725059.509277344,-5126462.936401367,-320923.388004303,-4950784.206390381,-24512205.123901367,-27945487.97607422,-16870796.20361328,6621874.809265137,6940305.233001709,5324372.291564941,-331082.94010162354,-214919.61181163788,812795.3410148621,-6888678.073883057,-14711321.830749512,-14329974.174499512,7126757.621765137,5818866.729736328,5915706.634521484,12237479.209899902,-983158.5884094238,-8532491.683959961,-14046720.504760742,-15029659.271240234,-14870617.866516113,2515464.7827148438,2113350.6298065186,6292341.709136963,-2754824.161529541,-13677510.261535645,-13854317.665100098,-13624869.346618652,-9351943.969726562,-9209304.809570312,-2371781.11076355,-13990006.446838379,-13695995.330810547
0.485,64756874.084472656,82798500.06103516,63078388.21411133,31716436.3861084,26579711.9140625,32980411.529541016,10096326.82800293,11500654.220581055,20354631.423950195,11257955.551147461,8885014.533996582,-1387915.9688949585,-373415.4403209686,2046402.931213379,5609128.475189209,-2291468.620300293,6204451.084136963,6528563.022613525,1601351.4995574951,260460.70456504822,-4894040.584564209,-22016422.271728516,-5025921.34475708,5372682.094573975,5875807.762145996,12101967.811584473,-5941517.8298950195,-793081.6411972046,75017.25107431412,-16183761.596679688,-17388280.868530273,-5563631.534576416,3786364.793777466,5075730.800628662,3962113.380432129,-726019.3228721619,-535067.2602653503,4278283.596038818,676795.8402633667,-8619953.155517578,-8098334.312438965,4237787.246704102,4515571.594238281,4566488.265991211,9681334.495544434,-1404086.3513946533,-7998891.353607178,-8539343.83392334,-9524686.813354492,-9162743.56842041,2580736.3986968994,2161863.5654449463,5531309.604644775,-1152015.5668258667,-8468844.413757324,-8575702.667236328,-8094459.533691406,-6070281.028747559,-6007781.028747559,-746001.660823822,-8811774.253845215,-8504276.275634766
0.49,54149093.62792969,73764373.77929688,57477737.42675781,28749368.66760254,27533145.904541016,26847444.534301758,10604883.193969727,11987130.165100098,20907876.96838379,13915746.688842773,11716918.9453125,5611461.162567139,6460083.0078125,8933056.831359863,3674422.7409362793,985372.5433349609,6067328.453063965,7066258.907318115,4386323.45199585,4182059.2880249023,2228887.3195648193,-10469131.469726562,3417880.7735443115,3295192.7185058594,7597530.841827393,12302389.144897461,-5094672.203063965,-806995.9878921509,3629448.652267456,-8997014.045715332,-5091526.031494141,2716978.7883758545,1875183.343887329,4524930.953979492,2470925.0926971436,-959103.2266616821,-681150.3171920776,5472875.118255615,4681138.038635254,-4845069.408416748,-4341348.648071289,2307948.589324951,2740438.69972229,2927809.715270996,7129502.773284912,-1506931.5433502197,-9379815.101623535,-5618136.405944824,-6526515.960693359,-6069053.649902344,1070003.2711029053,681665.4801368713,2300074.577331543,-4142445.0874328613,-6030368.328094482,-5953379.6310424805,-5417687.892913818,-7847676.753997803,-7827755.928039551,-3713491.201400757,-6349526.882171631,-6032999.515533447
0.495,53431606.29272461,70633605.95703125,54692687.98828125,32308010.10131836,30871660.232543945,26196119.30847168,15161778.450012207,16519233.703613281,25116571.4263916,18403587.341308594,15809008.598327637,10484989.166259766,11169557.571411133,13501668.930053711,2785115.2420043945,7964743.137359619,8854812.622070312,10322818.756103516,7727188.587188721,7482619.285583496,6551036.834716797,-2608264.684677124,4212380.409240723,2342969.1791534424,11079902.648925781,12967617.988586426,-3664366.0068511963,-468219.6080684662,4087228.298187256,-6869932.174682617,741695.2848434448,3319930.7918548584,962197.5421905518,4463188.171386719,629378.8552284241,-858890.4142379761,-663173.0794906616,3686416.1491394043,2962156.5341949463,-5035055.160522461,-4663937.091827393,1301166.6536331177,661532.5808525085,935205.2807807922,4853847.980499268,-1419972.4197387695,-11939588.54675293,-6423148.632049561,-7189276.695251465,-6788038.25378418,-1386166.4533615112,-1739439.845085144,-2054745.6741333008,-8865535.736083984,-6883252.6206970215,-6726152.8968811035,-6303179.2640686035,-12309574.127197266,-12240381.240844727,-8361283.302307129,-7303579.330444336,-6834281.444549561
0.5,44530342.10205078,57786514.28222656,45014839.17236328,30048236.846923828,29295396.80480957,20258468.627929688,14635524.74975586,15998772.621154785,26211221.69494629,19985620.498657227,17375604.6295166,10687251.091003418,11344578.742980957,13564191.818237305,1357902.8844833374,7811617.374420166,9643557.54852295,12550781.25,9824003.219604492,9319697.380065918,7715840.816497803,274617.5229549408,3558281.183242798,1065271.258354187,10483163.833618164,12037836.074829102,-3255916.8338775635,-156208.93239974976,3801518.440246582,-7429320.812225342,564080.5959701538,2671565.055847168,-311435.66966056824,3560952.1865844727,-840483.9634895325,-536028.5043716431,-536813.3783340454,2474641.799926758,1143760.9195709229,-5064177.989959717,-4749125.003814697,-160186.9761943817,-706561.5653991699,-534858.3459854126,3171080.3508758545,-1360428.810119629,-13301822.662353516,-6640107.154846191,-7258321.762084961,-6942199.70703125,-2167785.406112671,-2573614.1204833984,-4078126.907348633,-10103899.955749512,-6685349.941253662,-6599989.891052246,-6207943.439483643,-13483983.993530273,-13413158.416748047,-9538986.206054688,-7286717.891693115,-6655340.194702148
