time,Fp1,Fpz,Fp2,AF3,AF4,F7,F5,F3,F1,Fz,F2,F4,F6,F8,FT7,FC5,FC3,FC1,FCz,FC2,FC4,FC6,FT8,T7,C5,C3,C1,Cz,C2,C4,C6,T8,TP7,CP5,CP3,CP1,CPz,CP2,CP4,CP6,TP8,P7,P5,P3,P1,Pz,P2,P4,P6,P8,PO7,PO5,PO3,POz,PO4,PO6,PO8,CB1,O1,Oz,O2,CB2
0.0,-6637934.684753418,-7781074.523925781,-2952300.786972046,-3947667.121887207,-2404398.9181518555,-4551790.237426758,-3298797.607421875,-3234113.6932373047,-1412146.2106704712,-1425276.279449463,-1152805.9244155884,-362635.61248779297,-442903.19085121155,-487415.93956947327,-178305.59611320496,-2928592.6818847656,-1711118.6981201172,-779641.5686607361,-769676.4469146729,-273278.71322631836,-572685.956954956,-567712.3069763184,595947.0868110657,-219680.14538288116,-1256632.924079895,-751102.8051376343,-90672.72394895554,80368.79450082779,342843.9199924469,678037.4050140381,727323.8897323608,678495.466709137,-89889.60832357407,761680.6030273438,403043.7171459198,139976.50146484375,51475.81547498703,596060.1568222046,382261.33584976196,974702.000617981,1059714.913368225,-126531.12411499023,436250.38862228394,443525.105714798,1029850.6021499634,79559.13990736008,-89302.07788944244,1065061.5692138672,1101655.0064086914,1039080.3813934326,357827.7826309204,328896.76094055176,1353939.6524429321,2795098.066329956,1039497.971534729,1000052.0944595337,1068012.1183395386,1577382.8029632568,1627887.6066207886,2843159.9140167236,1000180.721282959,1023662.6863479614
0.005,-7597665.786743164,-20232780.45654297,27903047.561645508,-928324.9974250793,6768220.901489258,-13632197.380065918,-965951.8003463745,-825599.1339683533,2517407.8941345215,4521227.836608887,4196632.385253906,416025.90680122375,-174223.6167192459,-640429.2583465576,2136338.472366333,-7226609.230041504,-1050198.9126205444,3302890.5391693115,3969490.7665252686,3280314.2070770264,-1743521.9287872314,-4644913.196563721,-14670816.421508789,681529.2835235596,-664669.394493103,-1203711.8673324585,2640615.463256836,1030964.4937515259,1648068.3088302612,-3910567.9988861084,-7565336.227416992,-13566637.03918457,1818232.536315918,753368.3776855469,-4087234.9739074707,2141128.3016204834,595956.7427635193,248739.76409435272,-7063778.877258301,-10241971.969604492,-9525660.514831543,1551490.306854248,-4024174.213409424,-3431128.740310669,-1554293.2748794556,967608.1538200378,-8443603.515625,-10205425.262451172,-9564097.40447998,-10015914.916992188,-11578166.961669922,-11763606.071472168,-5223840.713500977,-5028908.729553223,-9908257.484436035,-10432480.812072754,-9637502.670288086,-11864044.189453125,-10308182.716369629,-3964464.6644592285,-10664948.463439941,-10650722.50366211
0.01,-2763737.440109253,-18744771.95739746,42346794.12841797,1376053.810119629,10949282.6461792,-13955331.802368164,1224785.327911377,1525849.3423461914,4833230.972290039,7499288.558959961,6122604.3701171875,-893798.291683197,-1771318.9125061035,-2305711.7462158203,1249779.7012329102,-7206530.570983887,-141928.19595336914,5315905.0941467285,6586585.998535156,3574392.795562744,-4098236.083984375,-8332482.33795166,-25058427.810668945,-581563.2939338684,-886993.5870170593,-1340515.8519744873,3714075.803756714,1347167.2534942627,559303.6413192749,-7629855.632781982,-14727722.16796875,-23494905.471801758,873411.5958213806,-2060189.962387085,-8310755.729675293,2793502.3307800293,807768.2256698608,-1032217.264175415,-12242145.538330078,-18862936.01989746,-18022150.03967285,439823.9850997925,-8321162.223815918,-7559533.596038818,-3699131.965637207,1210612.0586395264,-13294071.197509766,-18942056.65588379,-18092134.475708008,-18757394.790649414,-19312803.268432617,-19578573.22692871,-11467740.058898926,-13018905.639648438,-18516422.271728516,-19249895.095825195,-18101570.12939453,-21784070.96862793,-19606555.938720703,-11605801.582336426,-19542345.04699707,-19571117.401123047
0.015,1426302.3138046265,-11961198.806762695,38375354.7668457,997914.0162467957,8897583.0078125,-9771925.926208496,1992192.6259994507,2501851.797103882,4428730.9646606445,7345187.664031982,4624398.231506348,-3730278.968811035,-4671440.601348877,-4964541.435241699,-1483707.6663970947,-5777976.989746094,-634428.6799430847,4556317.329406738,6434106.349945068,1303069.9491500854,-6918012.1421813965,-10531975.746154785,-28576299.6673584,-2883460.760116577,-2842090.368270874,-2556922.674179077,2931187.391281128,1068629.3840408325,-1774412.5127792358,-9592035.293579102,-18445253.372192383,-27070419.311523438,-1674134.373664856,-6139218.807220459,-11027501.106262207,2274307.0125579834,605921.20885849,-2380279.779434204,-13383238.792419434,-21894783.02001953,-21216714.85900879,-2178216.2189483643,-11133433.34197998,-10488306.045532227,-4324301.242828369,907084.9418640137,-13323661.804199219,-21996753.692626953,-21265754.69970703,-21964506.149291992,-21087106.704711914,-21393949.508666992,-14377665.519714355,-16887525.55847168,-21685739.517211914,-22386182.78503418,-21199480.056762695,-24924552.91748047,-22965692.5201416,-15715620.994567871,-22457527.16064453,-22564163.208007812
0.02,-6784175.872802734,-19960224.151611328,25564859.39025879,-4260007.381439209,2404667.615890503,-12558595.657348633,-641031.2652587891,-1787.3526085168123,912753.2839775085,5554111.957550049,1676708.9366912842,-6429885.8642578125,-7359340.190887451,-7462711.334228516,-2522825.002670288,-9155583.381652832,-4284527.778625488,1753873.4674453735,4269904.136657715,-550839.364528656,-8851341.247558594,-10769772.52960205,-27062746.047973633,-3727262.7353668213,-6569231.5101623535,-6029833.3168029785,1689409.2559814453,749093.7113761902,-2682157.7548980713,-9757260.3225708,-17511030.197143555,-25681755.06591797,-2622344.0170288086,-7770182.6095581055,-11017320.63293457,1807942.7480697632,228323.35531711578,-2275376.796722412,-10645691.871643066,-18582050.323486328,-17750061.03515625,-3148671.865463257,-11076820.373535156,-10421098.709106445,-2552360.5346679688,632538.4974479675,-10008356.094360352,-18413970.947265625,-17761671.06628418,-18445301.055908203,-18441276.55029297,-18837717.056274414,-10869934.08203125,-12173117.637634277,-18287551.879882812,-18939113.61694336,-17741819.381713867,-20463508.60595703,-18841823.57788086,-11241544.723510742,-18652845.38269043,-18807010.650634766
0.025,-26469503.40270996,-44430591.58325195,13153852.462768555,-13324517.250061035,-5911656.379699707,-24318815.231323242,-6541665.077209473,-5924742.698669434,-4564527.988433838,3017486.810684204,-1798533.0820083618,-8892830.848693848,-9817008.972167969,-10010734.558105469,-1205748.5580444336,-17240602.493286133,-9507819.175720215,-1434507.8468322754,1537277.6985168457,-920612.2756004333,-10054098.129272461,-10496333.122253418,-24545982.360839844,-2860814.5713806152,-10174678.802490234,-9815422.058105469,1692901.2537002563,757006.2875747681,-2135409.8320007324,-9430648.803710938,-14511432.647705078,-23142534.255981445,-1373160.719871521,-6175323.486328125,-8740077.018737793,2020323.0381011963,25324.91832971573,-953025.2814292908,-6895834.445953369,-12831047.058105469,-11446314.811706543,-1969524.9795913696,-8615956.30645752,-7752090.930938721,729048.6693382263,644878.6854743958,-6446609.020233154,-12195849.418640137,-11434845.924377441,-12152824.401855469,-14819298.74420166,-15337027.549743652,-2734518.7664031982,-1838378.0717849731,-12073442.459106445,-12758631.706237793,-11511193.27545166,-12185604.095458984,-10576839.447021484,-839978.7545204163,-12342769.622802734,-12426510.81085205
0.03,-41408718.10913086,-63891551.97143555,5332281.112670898,-20673900.604248047,-12985451.698303223,-33982368.46923828,-11693927.764892578,-11189140.319824219,-8982427.597045898,211514.8901939392,-5702023.983001709,-11930028.915405273,-12838288.307189941,-13243688.583374023,364106.3868999481,-22711040.496826172,-11865037.91809082,-3053703.3081054688,-190601.9002199173,-1217926.8598556519,-11644984.245300293,-11716863.632202148,-24138320.922851562,-1762977.7193069458,-10886337.280273438,-10147223.472595215,3356715.9175872803,972923.6960411072,-2407350.0633239746,-10029707.908630371,-13817073.822021484,-22735078.811645508,199821.78509235382,-3858098.268508911,-6042131.423950195,2430670.4998016357,140791.69929027557,-319629.60958480835,-5643759.250640869,-10265050.888061523,-8493247.032165527,-529895.7824707031,-5793292.045593262,-4811466.693878174,3071373.93951416,725895.7028388977,-5135458.946228027,-9330935.47821045,-8478815.078735352,-9266078.94897461,-12835354.804992676,-13381355.285644531,3696677.2079467773,5166203.498840332,-8985784.530639648,-9720797.538757324,-8502681.732177734,-6492496.967315674,-4764825.820922852,6320080.280303955,-9547351.837158203,-9460552.215576172
0.035,-39608345.03173828,-62124561.30981445,3284696.102142334,-21536972.045898438,-16180313.110351562,-32467823.028564453,-11849297.523498535,-11414690.971374512,-9955333.709716797,-2041933.536529541,-9069579.124450684,-15145744.323730469,-16049213.409423828,-16486701.965332031,1122821.2118148804,-20774459.838867188,-9300665.855407715,-2341092.348098755,-248970.55327892303,-2510547.399520874,-13684820.175170898,-14640329.360961914,-26275913.23852539,-901739.1204833984,-8051375.389099121,-6204350.94833374,5279013.633728027,1129626.1548995972,-4168464.183807373,-11472271.919250488,-16662355.422973633,-25014265.060424805,1109573.6026763916,-2600767.8508758545,-4269547.939300537,2477807.5218200684,409559.1604709625,-1408741.83177948,-7639769.077301025,-12399597.16796875,-10794989.585876465,295925.17018318176,-4078111.171722412,-3202470.541000366,2994804.859161377,711619.4367408752,-6135501.384735107,-11523387.908935547,-10780418.395996094,-11621637.344360352,-12694624.900817871,-13133127.212524414,4095273.017883301,4128179.0733337402,-10953168.869018555,-11734475.135803223,-10587167.739868164,-6731440.544128418,-5066684.722900391,5271339.893341064,-11839917.182922363,-11631801.60522461
0.04,-28801475.524902344,-49240306.85424805,5403793.811798096,-18003555.297851562,-15790097.2366333,-24925300.59814453,-8237951.278686523,-7778121.9482421875,-8839205.741882324,-3552242.9943084717,-10758793.830871582,-17265230.178833008,-18250886.917114258,-18506875.99182129,1602643.7282562256,-15691189.765930176,-5382261.276245117,-971183.717250824,236879.73618507385,-4195163.726806641,-15107885.360717773,-17705497.74169922,-29588039.39819336,-20536.985248327255,-4509978.294372559,-1788171.648979187,5485701.560974121,1174131.7510604858,-5525666.7137146,-12448006.629943848,-20083930.96923828,-28436094.284057617,1659650.5641937256,-1885167.5987243652,-3435640.0966644287,2324426.1741638184,590855.0024032593,-3063525.676727295,-10202647.20916748,-15554418.563842773,-14356306.076049805,920810.4610443115,-3366239.547729492,-2621543.6458587646,1788975.477218628,755338.9072418213,-7328867.435455322,-14850855.827331543,-14309616.088867188,-15181852.340698242,-13232383.728027344,-13564488.410949707,645449.9959945679,-385064.2442703247,-14267749.786376953,-15151444.435119629,-13952702.522277832,-10374589.920043945,-8911739.349365234,651571.6910362244,-15191072.463989258,-15023803.7109375
0.045,-24912582.397460938,-44995014.19067383,7680333.137512207,-16383569.717407227,-14608153.343200684,-22619888.305664062,-6450710.773468018,-5973217.964172363,-8998541.831970215,-5052888.870239258,-10935998.916625977,-17771331.787109375,-18897207.260131836,-19032409.66796875,1265419.4831848145,-14569762.229919434,-5034145.832061768,-1327106.7142486572,-321622.16305732727,-5339577.674865723,-15303320.88470459,-19525943.756103516,-32789875.030517578,-257779.12139892578,-3773392.43888855,-927518.0697441101,3563574.0756988525,1197397.8281021118,-5248114.109039307,-12199471.473693848,-21182615.280151367,-31567977.905273438,1158517.7183151245,-1376039.1473770142,-3228430.0327301025,2395037.4126434326,654517.2333717346,-3598989.248275757,-10454501.152038574,-16213302.612304688,-15170500.755310059,635395.348072052,-3183981.8954467773,-2428097.0096588135,1744114.1605377197,975903.2130241394,-6983959.674835205,-15483653.06854248,-15041501.998901367,-15927768.70727539,-14087811.470031738,-14453927.993774414,-1774956.5839767456,-2150947.8092193604,-15064720.153808594,-16046379.089355469,-14731976.509094238,-13273288.72680664,-11911402.702331543,-1164447.30758667,-15805204.391479492,-15777103.424072266
0.05,-29921506.881713867,-50483379.36401367,8372977.256774902,-18362243.65234375,-13728773.11706543,-27027667.999267578,-8619467.735290527,-8288705.825805664,-10558567.04711914,-6246466.636657715,-10271731.37664795,-16865154.266357422,-18017454.147338867,-18295038.2232666,-1361756.682395935,-17673036.575317383,-7873538.970947266,-3054104.3281555176,-1473350.8825302124,-5723236.083984375,-14668076.515197754,-19889200.21057129,-35185287.47558594,-3073941.946029663,-6003772.735595703,-3034649.610519409,1417077.4221420288,1224038.7201309204,-4645817.756652832,-11426456.451416016,-20563209.533691406,-33864322.662353516,-1663552.165031433,-2171515.703201294,-3734587.6693725586,2658786.0584259033,768463.134765625,-2905877.5901794434,-8572033.882141113,-15316024.780273438,-14226208.686828613,-1934838.6526107788,-3661246.7765808105,-2874854.803085327,2959578.7525177,1194117.3076629639,-5909718.5134887695,-14456894.874572754,-14000393.867492676,-14878784.1796875,-16033929.824829102,-16512384.414672852,-2269054.889678955,-2163672.685623169,-14215664.863586426,-15092182.159423828,-13858453.750610352,-15301365.852355957,-13876210.21270752,-1252726.435661316,-14807651.51977539,-14865593.910217285
0.055,-32116798.400878906,-50948802.94799805,9822052.955627441,-19468873.977661133,-11572842.597961426,-29865612.030029297,-10626165.390014648,-10597604.751586914,-10149565.696716309,-5509046.55456543,-8773006.439208984,-14796094.89440918,-15761960.02960205,-16284002.304077148,-5410495.281219482,-19448860.16845703,-9000995.635986328,-3309964.418411255,-1257088.0651474,-5476691.722869873,-13867897.987365723,-19167150.497436523,-35899108.88671875,-7114685.535430908,-8231000.900268555,-4358008.861541748,1214611.8879318237,1235407.5908660889,-5186788.082122803,-11273039.817810059,-20293336.868286133,-34641613.0065918,-5672363.758087158,-4489194.393157959,-4708383.083343506,2792857.6469421387,1022190.3324127197,-2134969.711303711,-6913743.495941162,-15543604.850769043,-14583291.053771973,-5743048.191070557,-4679915.904998779,-4024108.88671875,3483417.749404907,1222841.6204452515,-6070029.735565186,-14809379.577636719,-14322202.682495117,-15204113.960266113,-18953481.674194336,-19454088.21105957,-3573396.682739258,-5140881.061553955,-14707751.274108887,-15240810.39428711,-14298381.805419922,-18812829.971313477,-17295892.7154541,-4470141.887664795,-15236371.040344238,-15271821.022033691
0.06,-26809913.635253906,-42417407.98950195,12522961.616516113,-17510948.181152344,-8494943.618774414,-27225522.994995117,-9127836.227416992,-9323065.757751465,-7086508.274078369,-3142530.4412841797,-7047676.086425781,-12661350.25024414,-13376935.005187988,-13914475.440979004,-7383662.700653076,-17736242.294311523,-6495833.873748779,-1288639.5454406738,268870.91994285583,-5042988.300323486,-13575203.895568848,-17911062.240600586,-34119571.685791016,-8799235.343933105,-8487882.614135742,-3453115.701675415,2623980.760574341,1283339.6196365356,-6166384.220123291,-12010696.411132812,-20270040.51208496,-32970218.658447266,-7463344.573974609,-6228816.032409668,-5089190.95993042,2755499.6013641357,1267377.8533935547,-1971665.620803833,-6610513.210296631,-16433233.261108398,-15759251.594543457,-7437650.203704834,-5094172.954559326,-4680061.340332031,2682104.1107177734,1179119.1101074219,-7293216.228485107,-16100156.784057617,-15572998.046875,-16525833.129882812,-20679954.528808594,-21101814.27001953,-5831831.932067871,-9785401.344299316,-16125673.294067383,-16372409.82055664,-15583518.028259277,-22543243.408203125,-21015762.329101562,-9379327.774047852,-16557353.973388672,-16533605.575561523
0.065,-23200412.75024414,-37838577.27050781,12261566.162109375,-16642576.217651367,-8164422.035217285,-24579675.674438477,-7005213.737487793,-7138833.045959473,-5795549.8695373535,-2513251.781463623,-7085002.422332764,-12386430.740356445,-13030682.563781738,-13276809.692382812,-5240357.398986816,-16325420.379638672,-4242810.7261657715,-10164.526291191578,304384.0527534485,-5416375.160217285,-14438046.4553833,-16837503.43322754,-30482086.181640625,-6546985.149383545,-7726525.30670166,-2611643.3143615723,3167355.77583313,1405800.461769104,-6215577.602386475,-12934025.764465332,-18800951.00402832,-29240196.228027344,-5327864.646911621,-5404606.342315674,-4066343.7843322754,2755091.667175293,1286780.3573608398,-2175147.533416748,-6410926.342010498,-14998609.54284668,-14326219.55871582,-5340625.286102295,-3877657.651901245,-3622660.6369018555,2538072.347640991,1266252.3984909058,-6966809.7496032715,-14888188.362121582,-14293325.424194336,-15333006.858825684,-18999946.59423828,-19400474.548339844,-4977959.632873535,-9127213.478088379,-14962953.567504883,-15280751.22833252,-14299051.284790039,-21533081.0546875,-20070966.720581055,-8705638.885498047,-15282094.955444336,-15238941.192626953
0.07,-27077264.7857666,-43883773.80371094,7677152.633666992,-19593652.725219727,-11437855.72052002,-25773689.27001953,-8010503.768920898,-7894744.873046875,-9149590.492248535,-5376593.589782715,-9423006.057739258,-14044308.66241455,-14832562.446594238,-14744699.478149414,-758223.3548164368,-17591815.948486328,-5644736.289978027,-1797542.691230774,-2416821.241378784,-7009461.879730225,-16121007.919311523,-16118686.67602539,-27026031.494140625,-2345000.5054473877,-7168203.353881836,-3666231.393814087,1666601.7770767212,1498452.4250030518,-5721946.239471436,-13167317.390441895,-15959604.263305664,-25556987.762451172,-1115667.462348938,-2697820.6634521484,-2216667.890548706,2789913.8927459717,1058612.1082305908,-2532092.809677124,-4996206.283569336,-10604025.840759277,-9518033.027648926,-1265861.1536026,-1662485.957145691,-1409091.7110443115,4551398.277282715,1386294.2457199097,-3761192.0833587646,-10217131.614685059,-9632453.918457031,-10595674.514770508,-14516772.270202637,-15028484.344482422,939686.65599823,-1297689.437866211,-10172341.346740723,-10799828.52935791,-9568694.114685059,-14566741.943359375,-13200781.82220459,-557039.2608642578,-10518537.521362305,-10498147.964477539
0.075,-29934106.826782227,-48519432.067871094,5219134.330749512,-21533748.626708984,-13063633.918762207,-26033096.313476562,-9845865.249633789,-9599848.747253418,-13078987.121582031,-8343636.512756348,-11031581.87866211,-14639005.661010742,-15585709.571838379,-15387165.069580078,3090640.7833099365,-18270471.572875977,-8327394.485473633,-4432153.701782227,-4983911.037445068,-8387184.143066406,-16840112.686157227,-14819359.77935791,-24991785.049438477,1280474.6627807617,-6135245.323181152,-5220789.909362793,-5554.547533392906,1416383.6240768433,-5948290.824890137,-12331354.141235352,-13913079.261779785,-23483301.162719727,2520675.4207611084,-290498.88253211975,-923786.1037254333,2632767.915725708,769991.1594390869,-3172665.1191711426,-2923778.772354126,-6275027.751922607,-4823875.904083252,2244230.7472229004,-207517.02785491943,111821.42794132233,7048926.830291748,1244989.3951416016,-78126.10268592834,-5424423.2177734375,-5009656.4292907715,-5669488.906860352,-10326181.411743164,-10974358.558654785,7369146.823883057,6366482.734680176,-5179336.071014404,-5931797.504425049,-4778083.801269531,-7497909.069061279,-6209243.297576904,7376780.986785889,-5679757.118225098,-5687102.317810059
0.08,-23975463.8671875,-41047462.463378906,9830369.94934082,-17541664.123535156,-9002642.631530762,-21282974.243164062,-8019880.294799805,-7896749.019622803,-12291024.208068848,-7432888.984680176,-9017345.428466797,-11935295.104980469,-12893879.890441895,-12781180.381774902,5038779.258728027,-15755866.050720215,-8363650.321960449,-4645076.274871826,-4346471.309661865,-7667562.007904053,-15242518.424987793,-12124081.6116333,-23585311.889648438,3503747.4632263184,-4315000.057220459,-5591963.291168213,326802.70075798035,1169987.678527832,-6513366.222381592,-10689817.428588867,-13685048.10333252,-22296106.338500977,4575861.45401001,627549.5290756226,-1050677.1802902222,2261651.7543792725,581377.9830932617,-3818637.1326446533,-1526803.0166625977,-4744540.691375732,-3392048.8357543945,4266617.774963379,-583871.066570282,-214820.13165950775,7317598.342895508,808810.8897209167,633885.9796524048,-3819014.78767395,-3562544.822692871,-3928857.3265075684,-8869306.564331055,-9575561.5234375,8339545.249938965,6899651.050567627,-3504373.788833618,-4022202.968597412,-3167807.5790405273,-6245983.600616455,-4948126.316070557,7831761.837005615,-4077094.554901123,-4083705.425262451
0.085,-16990003.58581543,-30656290.05432129,15579295.15838623,-11771279.335021973,-3488273.859024048,-17108242.03491211,-4106665.61126709,-4167599.678039551,-8613522.52960205,-4351442.337036133,-5394051.074981689,-8267461.776733398,-9157682.418823242,-9134326.934814453,4949913.024902344,-13910152.435302734,-6926383.495330811,-3485373.9738464355,-2143378.0193328857,-5315547.943115234,-12555963.516235352,-9062552.452087402,-21852003.09753418,3948300.1232147217,-4083753.5858154297,-6147575.378417969,1783730.0300598145,885145.4257965088,-5804261.207580566,-9001239.776611328,-13779331.20727539,-20726257.32421875,4742708.683013916,-47266.27469062805,-2640852.212905884,1938982.367515564,448729.4852733612,-3728243.827819824,-1009921.5507507324,-5609695.4345703125,-4627573.9669799805,4470178.604125977,-2554325.580596924,-2131297.3499298096,5449979.305267334,398223.04248809814,-1915137.2909545898,-5093740.940093994,-4733136.6539001465,-5116922.855377197,-9984301.567077637,-10693016.052246094,4040102.958679199,2519334.316253662,-4890800.952911377,-5122614.860534668,-4330164.432525635,-9420477.867126465,-8000523.567199707,3148197.889328003,-5383436.20300293,-5336760.0440979
0.09,-20323822.021484375,-31897535.32409668,13831824.30267334,-11844002.723693848,-3191987.7529144287,-20581577.30102539,-3800158.977508545,-3873999.59564209,-8226119.041442871,-4157037.2581481934,-4764698.9822387695,-7687555.313110352,-8572415.351867676,-8577934.265136719,2805320.7397460938,-17605871.200561523,-8265119.552612305,-4555544.376373291,-2449752.09236145,-4013644.6952819824,-11523623.4664917,-7786080.837249756,-20710111.618041992,2014840.3644561768,-7639699.935913086,-9086750.984191895,1637719.988822937,621406.3763618469,-3889740.467071533,-8232765.197753906,-12908150.672912598,-19468322.75390625,2642346.143722534,-2300012.1116638184,-5208669.662475586,1806686.0437393188,242859.31885242462,-2887745.8572387695,-767524.003982544,-7147022.724151611,-6349545.001983643,2408734.5600128174,-5229129.314422607,-4706895.351409912,4162596.2257385254,275244.5936203003,-4875502.109527588,-7037454.605102539,-6373385.429382324,-7059230.327606201,-11892687.797546387,-12561111.450195312,106867.44004487991,71028.42628955841,-6947631.359100342,-7200495.719909668,-6095968.246459961,-11249876.022338867,-9693140.983581543,523831.24828338623,-7393218.040466309,-7239187.717437744
0.095,-29550886.154174805,-41291137.6953125,7032941.818237305,-16635704.040527344,-7040005.683898926,-27800617.218017578,-7408740.520477295,-7358062.267303467,-11927157.402038574,-7608577.728271484,-7707531.452178955,-10239449.501037598,-11171671.867370605,-11241072.654724121,-43565.213680267334,-24244628.90625,-12322108.268737793,-7862164.02053833,-5750874.042510986,-5312811.851501465,-13195122.718811035,-8976927.757263184,-21636728.286743164,-1078928.5898208618,-12757214.546203613,-13153575.897216797,-580012.3810768127,390752.6135444641,-3013871.908187866,-9036382.675170898,-12234007.835388184,-20206293.1060791,-425003.7968158722,-5297147.274017334,-7603834.629058838,1722972.7506637573,6713.960319757462,-2443310.022354126,-860593.0209159851,-8735778.80859375,-7842457.294464111,-640602.707862854,-7451439.380645752,-6829156.398773193,5036367.416381836,355667.47188568115,-5944217.205047607,-8591188.430786133,-7764416.217803955,-8711309.432983398,-13048860.549926758,-13558234.214782715,178232.68473148346,1398674.6072769165,-8471977.233886719,-8976855.278015137,-7578501.7013549805,-9747357.368469238,-8204677.581787109,1932977.6763916016,-9015512.466430664,-8755715.370178223
0.1,-31045757.293701172,-43967823.02856445,4707746.505737305,-17775178.909301758,-8360280.0369262695,-28668470.38269043,-8736735.343933105,-8625623.70300293,-14114949.226379395,-10253223.419189453,-10047585.487365723,-12263244.62890625,-13170523.643493652,-13375278.47290039,-620720.9825515747,-26489517.211914062,-14214072.227478027,-9454503.059387207,-8489427.56652832,-7714363.098144531,-15915320.39642334,-11070999.145507812,-23885587.692260742,-1986795.6638336182,-14611845.970153809,-14596587.181091309,-2176964.282989502,308320.8203315735,-4378051.7578125,-11091482.162475586,-13330205.917358398,-22490354.537963867,-1196663.9757156372,-6710976.123809814,-8254779.815673828,1607876.181602478,-12874.741107225418,-3169077.157974243,-1771390.676498413,-10233016.967773438,-9205583.572387695,-1408946.15650177,-7966160.774230957,-7344113.826751709,6781757.354736328,427456.5279483795,-5408673.7632751465,-9707110.404968262,-9006576.538085938,-9979948.997497559,-12832081.79473877,-13076654.434204102,2456783.5330963135,3059017.6582336426,-9505437.850952148,-10133374.214172363,-8811520.57647705,-7870743.274688721,-6540442.943572998,3751034.97505188,-10113149.642944336,-9844803.810119629
0.105,-23881866.455078125,-38021450.04272461,8054372.787475586,-12797881.126403809,-5657136.917114258,-22134077.072143555,-4561820.030212402,-4522073.745727539,-11648822.784423828,-9137104.988098145,-8907051.086425781,-11964127.540588379,-12750264.167785645,-13066444.396972656,2214144.9451446533,-22701478.958129883,-11536033.630371094,-7418634.414672852,-8311642.646789551,-8609375.0,-17408090.591430664,-12219120.025634766,-25067699.432373047,700340.0325775146,-12112511.63482666,-12423133.850097656,-962985.9924316406,498770.147562027,-6021859.169006348,-12943671.226501465,-15190194.129943848,-23858394.622802734,1653920.6504821777,-5050159.931182861,-6813877.105712891,1642561.0780715942,323583.4538936615,-4150383.949279785,-3017431.9744110107,-10938380.241394043,-9853813.171386719,1426178.3361434937,-6585389.614105225,-6096590.995788574,7407026.290893555,457911.4317893982,-4720433.235168457,-10072848.320007324,-9574610.710144043,-10469159.126281738,-11745467.185974121,-11823210.716247559,3639550.9243011475,3123965.02494812,-9905548.095703125,-10421393.394470215,-9370371.81854248,-7863788.12789917,-6788404.941558838,3867116.928100586,-10371534.34753418,-10241786.003112793
0.11,-20966827.392578125,-36123733.52050781,8668890.953063965,-8760916.709899902,-4302999.496459961,-17674158.096313477,492330.1637172699,450084.2094421387,-8125374.794006348,-6295094.4900512695,-6116309.642791748,-11423174.858093262,-12106820.106506348,-12455348.96850586,5211700.916290283,-19068178.176879883,-7854119.300842285,-4485261.917114258,-6639371.395111084,-7184489.727020264,-16961746.215820312,-12218083.381652832,-24679269.790649414,3652761.697769165,-9574865.341186523,-9893820.762634277,1919976.3536453247,821326.732635498,-5393846.9886779785,-13152198.791503906,-15492457.389831543,-23526477.813720703,4747769.355773926,-2282889.8429870605,-5190923.690795898,1929171.085357666,765400.8269309998,-3998862.7433776855,-3435415.267944336,-10767551.42211914,-9601536.750793457,4493810.653686523,-5081386.089324951,-4768694.877624512,6631729.602813721,511191.4277076721,-4634075.64163208,-9775954.246520996,-9360298.156738281,-10226853.370666504,-11426249.504089355,-11595757.484436035,3133309.6027374268,3052663.3262634277,-9754508.018493652,-10197769.165039062,-9193204.879760742,-8751033.782958984,-7764811.992645264,3766628.7422180176,-10044145.584106445,-10125638.008117676
0.115,-27862497.329711914,-43193832.39746094,3197886.9438171387,-10820847.511291504,-7016768.455505371,-20774215.698242188,1096656.4416885376,1061252.1171569824,-7619983.196258545,-4694985.389709473,-4701550.9605407715,-12575167.655944824,-13249107.360839844,-13634019.85168457,4255215.167999268,-20296079.635620117,-7197342.395782471,-3500916.004180908,-5626328.945159912,-4879750.2517700195,-15588159.561157227,-12130605.697631836,-25015888.214111328,2675207.1380615234,-10899632.453918457,-9868153.57208252,3741698.2650756836,912325.0842094421,-3092723.3695983887,-11932279.586791992,-14298449.516296387,-23792488.09814453,3799518.346786499,-1903010.2491378784,-5636502.265930176,2183829.5459747314,854834.4969749451,-3011724.7104644775,-2940103.769302368,-10994569.778442383,-9713483.810424805,3540395.736694336,-5564409.7328186035,-5348695.755004883,5553796.768188477,498669.83294487,-5073935.985565186,-9967027.66418457,-9606507.301330566,-10423675.537109375,-13270770.072937012,-13669862.747192383,2246116.3997650146,3440904.8557281494,-10030542.373657227,-10643778.800964355,-9400654.792785645,-9556936.264038086,-8459483.14666748,4136050.224304199,-10403246.879577637,-10604616.165161133
0.12,-34811073.303222656,-48789005.279541016,-1416740.894317627,-14940133.094787598,-9823916.4352417,-25744220.733642578,-1665655.1361083984,-1637820.4822540283,-9307791.709899902,-4667076.587677002,-5230212.688446045,-14453044.891357422,-15162676.811218262,-15648401.260375977,-81245.47451734543,-23517204.28466797,-8765969.276428223,-3790241.003036499,-5603979.587554932,-3795814.9909973145,-14995666.50390625,-12808643.341064453,-27558200.83618164,-1551912.784576416,-14638513.565063477,-11147046.089172363,3398667.573928833,622961.2231254578,-2176317.2149658203,-11127916.33605957,-14169463.157653809,-26404687.881469727,-575107.216835022,-4281505.107879639,-7851606.369018555,2056570.7683563232,455555.5582046509,-2802930.1166534424,-2621446.6094970703,-12087706.565856934,-10812914.848327637,-811643.0640220642,-7758054.256439209,-7521421.909332275,5103486.061096191,278135.5679035187,-5495714.6644592285,-11019671.440124512,-10801800.727844238,-11449120.52154541,-16312627.792358398,-16837940.216064453,1647159.9340438843,2920494.0795898438,-11002643.585205078,-11829927.444458008,-10416805.267333984,-10883138.656616211,-9641374.588012695,3571512.222290039,-11658658.027648926,-11797993.659973145
0.125,-33529872.89428711,-45449802.39868164,15748.74110519886,-15586103.439331055,-9494969.367980957,-25789354.32434082,-3516486.883163452,-3424289.4649505615,-10824176.788330078,-5669312.953948975,-6919116.497039795,-15509105.682373047,-16253807.067871094,-16807558.059692383,-2895983.2191467285,-23890592.575073242,-9523055.076599121,-3814301.013946533,-6387400.150299072,-5008091.926574707,-16227344.512939453,-14105701.446533203,-30129503.25012207,-4135904.7889709473,-16608686.447143555,-11033877.3727417,1816732.0489883423,244536.08691692352,-3869538.7840270996,-11972304.344177246,-16125774.383544922,-29224660.873413086,-3381457.3287963867,-6015886.7835998535,-9251135.82611084,1646352.6487350464,-35528.46983075142,-3690685.510635376,-2766885.280609131,-12119923.59161377,-11022665.977478027,-3597501.9931793213,-9115218.162536621,-8771940.231323242,5556908.130645752,-15315.023250877857,-4990394.592285156,-11110013.961791992,-10981565.475463867,-11484037.399291992,-17490402.221679688,-17994842.529296875,1342532.992362976,1825409.173965454,-10947416.305541992,-11716986.656188965,-10462415.69519043,-12210533.142089844,-10959806.442260742,2335868.1201934814,-11699469.566345215,-11697891.235351562
0.13,-29613925.93383789,-40567626.953125,2987176.1798858643,-14444674.491882324,-8713459.968566895,-22669948.57788086,-3501923.3226776123,-3335432.291030884,-12584261.894226074,-7976763.2484436035,-9437891.960144043,-15931281.089782715,-16744865.417480469,-17215761.184692383,-1027757.5254440308,-21911487.579345703,-9219557.762145996,-4449474.811553955,-8371714.5919799805,-7675621.509552002,-18390691.75720215,-14987673.75946045,-29431730.270385742,-2185207.1285247803,-15510429.382324219,-9678481.101989746,108133.91953706741,161234.7960472107,-5887222.766876221,-13354695.320129395,-17632293.701171875,-28633625.030517578,-1518275.260925293,-4537582.874298096,-8312144.2794799805,1406923.4132766724,-137046.2030172348,-3871894.598007202,-2125493.288040161,-9225819.58770752,-8326441.764831543,-1723226.1896133423,-8096526.145935059,-7591417.7894592285,6756525.993347168,-20733.4216684103,-3005177.4978637695,-8449003.219604492,-8180638.313293457,-8790184.020996094,-15046023.36883545,-15524219.512939453,1748431.5633773804,2838941.812515259,-8253478.050231934,-8719106.674194336,-7793467.044830322,-11083509.44519043,-9955905.91430664,3190624.237060547,-8735485.076904297,-8699789.047241211
0.135,-31223363.876342773,-42592857.360839844,2196430.444717407,-16225906.372070312,-10405644.416809082,-21611341.47644043,-3475077.6290893555,-3215305.0899505615,-15340513.229370117,-10650535.583496094,-11836006.164550781,-16312511.444091797,-17227649.688720703,-17527128.219604492,3382683.753967285,-21399410.247802734,-9756561.279296875,-6971852.779388428,-10855283.737182617,-9540078.163146973,-19176502.227783203,-14493273.735046387,-25753978.729248047,1997149.4674682617,-13721869.468688965,-9609615.325927734,-1406026.2441635132,406636.95335388184,-5811076.1642456055,-13394083.976745605,-16241207.122802734,-24725698.471069336,2802141.1895751953,-1466137.2900009155,-6423578.73916626,1546349.7638702393,149431.973695755,-2019498.8250732422,-90207.75556564331,-4981983.661651611,-4177528.3813476562,2621553.659439087,-6147490.02456665,-5482930.660247803,8014496.803283691,354929.50677871704,-517389.178276062,-4433876.991271973,-3916296.2436676025,-4840654.373168945,-10966001.510620117,-11468005.180358887,2936516.523361206,6420547.962188721,-4351348.400115967,-4602883.815765381,-3845733.880996704,-7048370.361328125,-6054687.976837158,6754169.464111328,-4489463.806152344,-4554807.662963867
0.14,-34964469.90966797,-46295013.427734375,817356.2288284302,-20119524.002075195,-11938878.059387207,-22268188.4765625,-3599015.474319458,-3280247.211456299,-16790838.24157715,-10876166.343688965,-12045054.43572998,-16121185.302734375,-17057527.542114258,-17276491.165161133,6063755.035400391,-22839632.034301758,-11142986.297607422,-9771488.189697266,-11509767.532348633,-9000323.295593262,-17592382.431030273,-12989847.183227539,-23117801.666259766,4376352.310180664,-13361965.17944336,-11624342.918395996,-2685523.03314209,724468.2908058167,-4450113.773345947,-12364914.894104004,-13654411.315917969,-21782705.307006836,5423173.904418945,-184274.76286888123,-5839785.099029541,1794810.8911514282,407547.4441051483,408582.866191864,1513076.5438079834,-3274596.2142944336,-2498601.6750335693,5268751.621246338,-5631056.308746338,-4940031.051635742,8282172.203063965,732745.1705932617,308450.847864151,-2693635.2252960205,-2080562.5915527344,-3242165.8039093018,-8848360.061645508,-9330089.569091797,3535404.4437408447,8860537.5289917,-2728009.2239379883,-3050963.1633758545,-2198630.0945281982,-3766017.9138183594,-2846705.675125122,9322696.685791016,-2812175.750732422,-2949661.4933013916
0.145,-32100627.899169922,-41525897.97973633,4725001.335144043,-21399049.758911133,-9404940.605163574,-20753763.19885254,-2489389.419555664,-2196636.199951172,-14656121.253967285,-7772315.02532959,-9547273.635864258,-14899204.25415039,-15698802.947998047,-15991210.9375,5436609.745025635,-23078479.766845703,-11311504.364013672,-10038579.940795898,-9353965.759277344,-6825115.68069458,-15486572.265625,-11964969.635009766,-24224697.11303711,3704717.8745269775,-14005713.46282959,-13465275.764465332,-3548802.614212036,942366.361618042,-4272292.137145996,-12417800.903320312,-13672241.2109375,-22874322.89123535,4900707.244873047,-1590902.8053283691,-6930575.370788574,1840075.8504867554,403938.889503479,830362.9159927368,375798.16579818726,-5667327.404022217,-4905989.646911621,4741753.578186035,-6862495.422363281,-6343377.113342285,7141390.800476074,746616.7211532593,-1682405.5910110474,-4820300.579071045,-4293097.019195557,-5460318.565368652,-9839716.911315918,-10216034.889221191,2010237.9322052002,7030715.465545654,-4870819.091796875,-5378772.258758545,-4336220.264434814,-4751534.461975098,-3863682.508468628,7606929.779052734,-5144275.665283203,-5216533.184051514
0.15,-23712015.15197754,-30408256.53076172,12016046.524047852,-19819875.717163086,-4619795.799255371,-17546796.798706055,-874778.8071632385,-665156.6624641418,-11314045.906066895,-4758575.439453125,-7026675.224304199,-13473334.312438965,-14088726.997375488,-14494806.289672852,3259418.725967407,-20957033.157348633,-9760966.300964355,-8015120.506286621,-6875655.651092529,-5197949.8863220215,-15090846.061706543,-11896386.14654541,-26823492.0501709,1720356.3451766968,-14398837.089538574,-13104618.072509766,-3849123.239517212,1069798.1119155884,-5534317.970275879,-14119422.912597656,-16449035.64453125,-25738386.154174805,2883985.2809906006,-3757413.864135742,-8286323.547363281,1750616.6696548462,362364.3219470978,-887838.1848335266,-2830504.4174194336,-9322781.562805176,-8528779.029846191,2723584.8903656006,-8219780.921936035,-7900369.644165039,5494266.033172607,545928.6570549011,-5079339.504241943,-8289369.583129883,-7836542.60635376,-8905596.733093262,-11745268.821716309,-12031712.532043457,-916977.8823852539,3106283.9031219482,-8342530.250549316,-8883716.583251953,-7732329.845428467,-8389000.89263916,-7507202.1484375,3690374.3743896484,-8696271.896362305,-8679958.34350586
0.155,-20159603.118896484,-25595296.85974121,14928270.33996582,-20672466.278076172,-3236139.2974853516,-17263637.54272461,-1419859.0517044067,-1279008.150100708,-11424627.304077148,-5603814.601898193,-7401781.08215332,-12842369.079589844,-13404229.164123535,-13852754.592895508,1831865.3106689453,-19377208.709716797,-8777448.654174805,-6939264.297485352,-7356486.3204956055,-5163831.71081543,-15926215.171813965,-11252583.503723145,-26339948.654174805,435963.1836414337,-14479050.636291504,-11666836.738586426,-3637430.6678771973,1097833.275794983,-6120707.035064697,-15171782.493591309,-17643405.91430664,-25494569.778442383,1472917.7951812744,-4850914.478302002,-8778642.654418945,1786191.3442611694,550348.5202789307,-2094836.2350463867,-4567149.639129639,-9977852.821350098,-9103384.971618652,1371453.4044265747,-8522206.30645752,-8177951.812744141,4834791.18347168,548706.2335014343,-7013854.026794434,-9007434.844970703,-8545845.031738281,-9579495.429992676,-11959692.001342773,-12253274.917602539,-2433803.5583496094,2317718.267440796,-9183264.73236084,-9602361.679077148,-8425724.029541016,-9608576.774597168,-8699237.823486328,2897232.7709198,-9364006.996154785,-9374993.324279785
0.16,-26533073.42529297,-33058620.45288086,10296555.519104004,-26927352.905273438,-7115388.3934021,-21228349.685668945,-4580043.792724609,-4458013.534545898,-15478772.163391113,-9442206.382751465,-10172865.867614746,-13043436.050415039,-13699555.397033691,-14137671.47064209,2105889.7972106934,-20807100.296020508,-10217434.883117676,-8544149.398803711,-10735390.663146973,-5876862.049102783,-15924739.837646484,-8859169.006347656,-21543920.516967773,669335.2460861206,-14727652.549743652,-11738154.411315918,-3069817.543029785,958603.5013198853,-5076082.706451416,-13688613.891601562,-14285027.503967285,-20757614.135742188,1676331.2816619873,-4604299.068450928,-8404544.830322266,1963668.704032898,839687.9434585571,-897749.125957489,-2564568.042755127,-6275538.921356201,-5373837.471008301,1630034.6851348877,-7992420.673370361,-7435281.276702881,5883098.602294922,810600.996017456,-5836709.022521973,-5399202.346801758,-4971733.570098877,-6020127.773284912,-10028805.73272705,-10377859.115600586,-638643.0859565735,6787025.451660156,-5749644.756317139,-6115701.675415039,-4900042.0570373535,-6058383.464813232,-5105899.333953857,7444567.2035217285,-5748767.852783203,-5825994.491577148
0.165,-35599132.5378418,-44390975.95214844,3403866.5294647217,-34381080.627441406,-12112233.16192627,-25164722.442626953,-7216492.176055908,-7067793.846130371,-18912736.892700195,-11954535.484313965,-12257764.81628418,-13727730.751037598,-14489974.975585938,-14943589.210510254,3610321.283340454,-23482955.932617188,-12754499.435424805,-10604993.82019043,-13589599.609375,-6217134.475708008,-14846844.673156738,-6340958.595275879,-16162332.534790039,2067354.679107666,-14808176.99432373,-13592897.415161133,-2381076.8127441406,711944.4608688354,-4042916.2979125977,-11176502.227783203,-9288219.451904297,-15360770.225524902,3249857.187271118,-3461960.0772857666,-7641060.829162598,2039280.4145812988,893193.7217712402,1313814.2824172974,1264036.0593795776,-1057932.6152801514,-243772.4769115448,3121896.743774414,-7291046.619415283,-6657861.709594727,8009975.433349609,966249.5255470276,-2706226.587295532,-47167.11491346359,236152.2912979126,-781993.8659667969,-7549865.245819092,-7909723.281860352,3075958.251953125,12989086.151123047,-425877.8691291809,-930004.358291626,362326.08556747437,-941916.7637825012,38100.17928481102,13716746.33026123,-486624.98593330383,-515315.05584716797
0.17,-36682510.37597656,-47025409.69848633,1576285.1238250732,-36501701.35498047,-13189786.911010742,-24926641.4642334,-6280909.538269043,-6068441.390991211,-17854278.564453125,-10629569.053649902,-11603768.348693848,-14428935.050964355,-15225596.42791748,-15738917.350769043,4714689.254760742,-23839992.52319336,-13519795.417785645,-9804900.169372559,-12985110.28289795,-5894125.938415527,-14109895.706176758,-6085563.659667969,-14513962.745666504,3117843.1510925293,-14176136.97052002,-14746707.916259766,-1841394.1860198975,556537.2705459595,-4365116.596221924,-10435405.731201172,-7820732.593536377,-13717123.985290527,4544661.045074463,-2075912.7140045166,-7014409.065246582,1881678.581237793,665169.4774627686,1764630.5561065674,3011445.999145508,1238749.1464614868,1931966.3047790527,4243284.702301025,-6826313.018798828,-6400905.609130859,9818635.940551758,807875.1564025879,-641456.2463760376,2471489.191055298,2607449.0547180176,1664703.7267684937,-6621276.378631592,-6904111.862182617,5180310.249328613,15251169.204711914,2210191.7266845703,1528289.1988754272,2837958.574295044,481728.55377197266,1490274.19090271,15871386.528015137,1964180.2310943604,2019281.3873291016
0.175,-27427656.173706055,-37443416.595458984,6928303.7185668945,-32070133.209228516,-9371348.38104248,-21185531.616210938,-2405617.2370910645,-2111221.0750579834,-13331844.329833984,-6964780.807495117,-8774549.48425293,-14060734.748840332,-14850466.72821045,-15426569.938659668,3336339.7121429443,-21255357.74230957,-11704160.690307617,-5926216.602325439,-9368075.370788574,-4978105.545043945,-13759695.053100586,-7539092.540740967,-16879333.49609375,1733869.6718215942,-13368351.936340332,-13458769.798278809,-1640620.5892562866,571690.4997825623,-4919411.182403564,-11742901.802062988,-10769453.048706055,-16060848.236083984,3195129.632949829,-1763704.4191360474,-7201068.878173828,1630312.8004074097,448446.03538513184,-279023.79631996155,1107128.620147705,-1361917.495727539,-713547.2297668457,2855038.642883301,-7065616.130828857,-6858521.938323975,10199872.970581055,569084.1674804688,-1804710.865020752,-194148.13816547394,-109615.5196428299,-995831.7875862122,-8529176.712036133,-8648852.348327637,3493892.4312591553,11122102.737426758,-424896.9256877899,-1103891.0150527954,69235.28760671616,-3868274.450302124,-2796722.173690796,11464845.657348633,-657102.644443512,-718938.8275146484
0.18,-15049907.684326172,-23279087.06665039,15222341.537475586,-26192445.755004883,-3786079.6451568604,-17445047.37854004,1120689.6305084229,1463200.2115249634,-9277431.48803711,-4006776.809692383,-5793820.381164551,-11989152.908325195,-12747115.135192871,-13356760.97869873,-919817.0304298401,-18426469.802856445,-9336224.555969238,-2152819.3950653076,-5815994.2626953125,-3776185.5125427246,-12590964.317321777,-8087690.353393555,-20020589.82849121,-2475850.3437042236,-13341836.929321289,-11116968.154907227,-1910650.8493423462,614143.0139541626,-4398147.5830078125,-13249803.54309082,-14405722.618103027,-19137630.462646484,-1277624.1302490234,-3617876.5296936035,-8476768.493652344,1448453.0687332153,436001.15180015564,-3129477.9777526855,-2584813.356399536,-6475180.625915527,-5790746.212005615,-1457027.554512024,-8284513.473510742,-8021616.9357299805,9211866.37878418,514536.0827445984,-5365828.514099121,-5691603.183746338,-5590297.698974609,-6436846.733093262,-12637542.724609375,-12575455.665588379,-500585.49642562866,3731920.003890991,-6052654.266357422,-6558826.923370361,-5611473.083496094,-11001520.156860352,-9876807.21282959,3854204.6546936035,-6013165.9507751465,-6384315.013885498
0.185,-8131380.081176758,-15012516.975402832,20210382.46154785,-24355176.92565918,-415854.18581962585,-15815750.122070312,2140990.2572631836,2443474.054336548,-8166132.926940918,-3315110.206604004,-4459712.982177734,-9806771.278381348,-10479219.436645508,-11092786.78894043,-5314034.461975098,-17590206.146240234,-8611459.732055664,-1473918.5571670532,-5055674.076080322,-3329454.183578491,-11282961.84539795,-7270840.644836426,-21214317.321777344,-6717542.64831543,-13784724.235534668,-10215517.9977417,-2784166.8128967285,567437.469959259,-3890915.632247925,-14178207.397460938,-15750951.766967773,-20324357.986450195,-5840703.964233398,-6599357.128143311,-10021511.07788086,1320165.991783142,490612.11943626404,-5003519.535064697,-5302909.374237061,-9548533.43963623,-8801453.590393066,-5897870.5406188965,-9778802.871704102,-9331390.380859375,8036127.090454102,561276.8530845642,-8081813.812255859,-9041087.15057373,-8909705.16204834,-9681613.92211914,-16218004.22668457,-16111425.399780273,-3006254.9114227295,-772735.8937263489,-9434491.157531738,-9825522.422790527,-8988615.036010742,-15440045.356750488,-14365865.707397461,-616192.0428276062,-9160719.871520996,-9717360.496520996
0.19,-8707351.684570312,-16440641.403198242,19620414.73388672,-26866542.81616211,-606824.1000175476,-16098478.317260742,1462195.7540512085,1647254.8246383667,-9343061.447143555,-4121114.730834961,-5028316.020965576,-9849946.022033691,-10433524.131774902,-11038397.789001465,-6311788.082122803,-18288305.282592773,-9529131.889343262,-3509111.166000366,-6985774.993896484,-4487060.070037842,-12128831.86340332,-7194365.978240967,-20485013.961791992,-7494794.3687438965,-13451328.27758789,-11110854.148864746,-4135159.969329834,523935.2583885193,-4951637.744903564,-15140723.22845459,-15446998.596191406,-19686178.20739746,-6721480.369567871,-8039419.174194336,-10668148.040771484,1187829.613685608,416976.3922691345,-5389378.547668457,-5753635.406494141,-8320228.576660156,-7499168.395996094,-6881784.439086914,-10367933.27331543,-9938955.307006836,7753562.450408936,514221.9662666321,-7474935.531616211,-7665142.53616333,-7497764.110565186,-8176494.598388672,-16597812.65258789,-16689041.137695312,-1787382.6026916504,1140833.1394195557,-7811051.368713379,-8271311.7599487305,-7314373.016357422,-14061402.320861816,-13129173.278808594,1532665.8487319946,-7582461.357116699,-7999033.9279174805
0.195,-12440523.147583008,-22628402.709960938,16759218.215942383,-29866464.614868164,-2244789.3619537354,-17618524.5513916,984654.3669700623,1054123.7592697144,-10613812.446594238,-4485473.6328125,-5914975.643157959,-11706607.818603516,-12328145.027160645,-12919869.422912598,-3888489.246368408,-19235008.239746094,-10662968.635559082,-5293773.651123047,-8939022.064208984,-6215877.056121826,-14979842.185974121,-8556174.278259277,-19456090.927124023,-4932742.118835449,-12413985.252380371,-12250265.121459961,-5352670.669555664,590274.6319770813,-6363495.826721191,-15763886.451721191,-15164862.632751465,-18733367.919921875,-4056897.1633911133,-6927329.540252686,-10429884.910583496,1130805.492401123,256799.69787597656,-4435971.736907959,-4206258.296966553,-4778911.590576172,-3876758.813858032,-4384162.425994873,-9996408.462524414,-9770971.298217773,8164068.222045898,429534.4352722168,-4365798.9501953125,-3770256.0424804688,-3586503.267288208,-4233240.604400635,-14107770.919799805,-14502777.099609375,1516174.7932434082,6990320.205688477,-3650140.5239105225,-4207831.859588623,-3052442.0738220215,-9046353.340148926,-8203346.252441406,7578496.45614624,-3623841.0472869873,-3761080.265045166
0.2,-15535225.868225098,-27225280.76171875,15202714.920043945,-31086116.790771484,-2914514.7800445557,-20443740.844726562,909281.7306518555,946711.003780365,-10736207.008361816,-3452885.389328003,-5568708.419799805,-12756910.32409668,-13546781.539916992,-14101652.145385742,-1811547.040939331,-20542707.443237305,-11479974.746704102,-4911720.752716064,-8742291.450500488,-6522958.278656006,-16776556.015014648,-9506762.504577637,-19433042.526245117,-2864535.093307495,-12450387.001037598,-12938247.680664062,-5809028.148651123,660902.738571167,-5635643.482208252,-14808175.086975098,-15065912.246704102,-18675785.064697266,-1889565.110206604,-5278158.664703369,-10323266.983032227,1244478.5833358765,182744.100689888,-2574423.313140869,-1831432.7001571655,-2527790.5464172363,-1590597.0335006714,-2207533.597946167,-9788647.651672363,-9629344.940185547,8276988.0294799805,472898.2448577881,-1843567.2521591187,-1375436.9020462036,-1247247.815132141,-1928585.6485366821,-11825006.484985352,-12345511.436462402,3425181.8656921387,11093927.383422852,-1332295.0601577759,-1810254.454612732,-652858.1380844116,-5587107.6583862305,-4683801.174163818,11675168.991088867,-1408939.242362976,-1403845.9062576294
0.205,-18995403.289794922,-30099811.553955078,13634685.516357422,-32536525.72631836,-3324589.252471924,-24496553.421020508,-126852.09512710571,-24103.138595819473,-10413601.875305176,-2289386.27243042,-4764276.98135376,-12427879.333496094,-13335384.368896484,-13800421.714782715,-2557380.199432373,-22542552.947998047,-12598230.361938477,-3485000.1335144043,-7262632.846832275,-5439269.542694092,-16284997.940063477,-9193261.14654541,-20538902.282714844,-3660174.84664917,-14123762.130737305,-13808118.82019043,-5387506.484985352,585060.8944892883,-3233070.6119537354,-12881675.720214844,-14805808.067321777,-19703489.303588867,-2677265.167236328,-4969684.600830078,-10415766.716003418,1452502.6082992554,250474.81060028076,-1007201.9100189209,-376211.91143989563,-2924121.141433716,-2035949.945449829,-2875807.762145996,-9995912.551879883,-9662835.121154785,7934011.459350586,599830.8062553406,-1933302.5217056274,-1895564.079284668,-1871186.7332458496,-2538379.669189453,-11677259.44519043,-12054948.806762695,2865353.584289551,10890465.73638916,-2159801.0063171387,-2451723.098754883,-1544135.8089447021,-6147267.818450928,-5104920.864105225,11327557.563781738,-2234939.0983581543,-2221777.2006988525
0.21,-24601812.3626709,-35039997.10083008,9362132.07244873,-36556892.39501953,-5692118.167877197,-28206365.58532715,-2277824.4018554688,-2073725.4619598389,-10994769.096374512,-2916449.546813965,-5583654.880523682,-12819205.284118652,-13672091.484069824,-14034355.163574219,-3677349.805831909,-23637937.545776367,-13854335.78491211,-3146737.813949585,-7084508.895874023,-5230380.058288574,-16060657.501220703,-9205453.872680664,-21587490.08178711,-4770322.799682617,-14916535.377502441,-14457208.633422852,-4184983.730316162,460497.4687099457,-2304021.5969085693,-12327175.14038086,-14756560.325622559,-20741210.9375,-3783854.7229766846,-4604519.367218018,-9226882.934570312,1608548.4027862549,395767.3907279968,-1174328.4463882446,-1203229.4273376465,-4559011.459350586,-3741593.837738037,-3972995.5196380615,-9072138.786315918,-8578867.91229248,8203310.012817383,668348.4315872192,-4005954.7424316406,-3649093.6279296875,-3675785.3031158447,-4204778.19442749,-12030162.811279297,-12216469.764709473,2379621.5057373047,9300842.28515625,-4002954.4830322266,-4270415.306091309,-3600457.9067230225,-7858065.128326416,-6719817.161560059,9640324.592590332,-4162406.4445495605,-4108654.499053955
0.215,-29613616.943359375,-41450538.635253906,4973670.482635498,-41308353.424072266,-9115224.838256836,-29174182.891845703,-3345155.715942383,-3089593.6489105225,-12380011.558532715,-4970138.072967529,-7823276.042938232,-14296978.950500488,-15044677.734375,-15433238.02947998,-1416134.5958709717,-21815004.348754883,-13689972.877502441,-3894215.1069641113,-8785540.580749512,-6791974.5445251465,-17819959.64050293,-10113558.769226074,-20990903.854370117,-2500894.546508789,-12262000.08392334,-13042110.443115234,-2163976.1924743652,519935.2502822876,-3764382.839202881,-13629553.79486084,-14938670.15838623,-20185091.018676758,-1473516.583442688,-1806424.856185913,-6147383.213043213,1709733.247756958,565316.3194656372,-2955260.2767944336,-3809185.266494751,-5874466.419219971,-5055842.876434326,-1732062.3397827148,-6109063.148498535,-5653350.353240967,9646670.3414917,731609.1060638428,-6398892.402648926,-4949411.392211914,-4938408.374786377,-5312873.840332031,-10565199.851989746,-10734226.22680664,4351884.365081787,10121273.9944458,-5065210.342407227,-5538467.884063721,-4822108.745574951,-6762441.635131836,-5598984.718322754,10481382.369995117,-5403009.414672852,-5285941.123962402
0.22,-29712852.478027344,-43874660.49194336,5611792.56439209,-42778232.57446289,-9752647.399902344,-27012046.813964844,-1554883.1224441528,-1328600.6450653076,-12835570.335388184,-5691511.631011963,-8465430.25970459,-14045432.090759277,-14811440.467834473,-15463867.1875,3158208.3702087402,-18451282.501220703,-11508042.335510254,-3784302.9499053955,-9972455.024719238,-7769583.225250244,-19008428.5736084,-9738197.326660156,-18762889.862060547,1970077.5146484375,-7910613.059997559,-9559675.216674805,28925.001621246338,738942.9211616516,-4640882.49206543,-14351146.697998047,-14394125.938415527,-17964044.57092285,3006865.0245666504,1959691.6437149048,-3652183.5327148438,1825077.2953033447,704971.4922904968,-4326633.930206299,-5906785.488128662,-6762567.99697876,-5889843.463897705,2803663.730621338,-3449249.505996704,-3104379.653930664,10855322.83782959,910375.4162788391,-8302000.999450684,-5846769.8097229,-5782336.711883545,-6170914.649963379,-8465396.881103516,-8732248.306274414,6993300.914764404,12678051.948547363,-5763986.110687256,-6421466.827392578,-5435385.227203369,-3540678.2627105713,-2392253.1604766846,13077801.704406738,-6143430.233001709,-6105670.928955078
0.225,-26034883.499145508,-40533771.51489258,9846051.216125488,-40400917.053222656,-6521538.734436035,-24603408.813476562,1708701.9681930542,1891004.4431686401,-11155237.197875977,-3454566.478729248,-5815099.716186523,-10861405.372619629,-11729428.2913208,-12766264.915466309,4795062.54196167,-18001585.006713867,-9372575.759887695,-2033451.0803222656,-8587537.76550293,-5842271.327972412,-16809532.165527344,-6976924.896240234,-17190975.189208984,3431275.8445739746,-6762416.839599609,-7400043.487548828,565756.6785812378,804927.5279045105,-2694620.8477020264,-12860402.10723877,-12965693.473815918,-16364347.457885742,4434959.888458252,1941693.7828063965,-5310853.481292725,1860540.747642517,687020.7786560059,-3707162.857055664,-5742461.681365967,-7493870.735168457,-6632940.292358398,4366515.636444092,-4884482.860565186,-4572416.78237915,9705050.468444824,1057511.329650879,-9497675.895690918,-6732599.258422852,-6644874.095916748,-7226438.999176025,-9348386.764526367,-9631292.343139648,5949829.1015625,12968833.923339844,-6719098.091125488,-7316274.642944336,-6162117.004394531,-2747514.9631500244,-1665593.0280685425,13325182.914733887,-6908647.060394287,-7105854.034423828
0.23,-23278509.14001465,-35718898.77319336,11164721.488952637,-37304950.71411133,-2936692.237854004,-24641971.588134766,3801308.8703155518,4030920.5055236816,-8206401.824951172,-111030.49665689468,-2092303.5144805908,-7782203.197479248,-8671400.07019043,-9902269.36340332,1332006.335258484,-22351213.455200195,-9549110.412597656,-247115.43321609497,-5787793.159484863,-2285830.020904541,-12954431.533813477,-4360655.307769775,-17969890.594482422,-125411.10813617706,-10575678.825378418,-9249151.229858398,-1564032.6738357544,559602.4394035339,38177.650421857834,-10746353.149414062,-12039139.747619629,-17137535.095214844,884312.2720718384,-3417753.6964416504,-11178224.563598633,1644945.2638626099,439990.49067497253,-1869799.4947433472,-3818728.6853790283,-7544697.284698486,-6805069.923400879,770657.0625305176,-10731100.082397461,-10429731.369018555,6126452.922821045,908939.003944397,-9466519.355773926,-6975791.454315186,-6836658.000946045,-7590567.588806152,-14008410.453796387,-14205337.524414062,138624.906539917,9543277.740478516,-7035065.650939941,-7445621.013641357,-6422639.846801758,-6455183.982849121,-5502254.486083984,9824768.06640625,-7036692.142486572,-7437596.797943115
0.235,-19684175.491333008,-29902826.3092041,11453900.337219238,-34478832.24487305,-821843.6241149902,-25011940.002441406,4917102.813720703,5302867.412567139,-5581392.765045166,1454075.813293457,721.5928053483367,-6865271.091461182,-7698907.852172852,-8718726.15814209,-2823752.4032592773,-27539283.752441406,-10878990.173339844,68550.31847953796,-4357637.882232666,-156485.4085445404,-10910939.21661377,-3875620.3651428223,-19126077.65197754,-4247128.963470459,-15108510.01739502,-12720910.07232666,-4251914.024353027,254689.2762184143,554534.0180397034,-9894297.59979248,-12085085.86883545,-18290924.072265625,-3194088.935852051,-9215798.377990723,-16704343.795776367,1266923.189163208,126210.88325977325,-647285.9382629395,-1829571.6047286987,-6517066.955566406,-5887727.737426758,-3528734.4455718994,-16396289.825439453,-16153133.392333984,2728875.8754730225,550039.7086143494,-8100728.0349731445,-6051544.189453125,-5781445.503234863,-6537614.822387695,-18733381.271362305,-18899478.912353516,-5953945.159912109,5806592.94128418,-5910117.149353027,-6279768.943786621,-5538090.229034424,-11274939.53704834,-10434052.467346191,6117592.811584473,-5956856.727600098,-6421546.459197998
0.24,-5094017.98248291,-13671569.82421875,24785356.521606445,-27899242.401123047,4702587.127685547,-19906961.44104004,8263798.713684082,8792790.412902832,-3048554.1820526123,1476588.9644622803,1881795.048713684,-4281641.006469727,-5148307.323455811,-5666052.341461182,-2268079.5192718506,-28253078.46069336,-9580211.639404297,51937.18522787094,-4916026.1154174805,215972.60236740112,-9939680.099487305,-2705729.4845581055,-16843425.750732422,-3660952.091217041,-15066017.150878906,-12743402.481079102,-3835971.5938568115,226440.81711769104,-322148.1442451477,-9395808.219909668,-11166078.567504883,-15930789.947509766,-2650238.9907836914,-9484580.993652344,-17340353.01208496,1085347.4140167236,21124.208346009254,-520247.1613883972,-710830.6288719177,-5590656.280517578,-4918653.0113220215,-3053913.5932922363,-17089488.983154297,-16862583.16040039,2106843.7099456787,374488.6517524719,-6971324.443817139,-5193784.236907959,-4770002.841949463,-5449116.7068481445,-20055784.225463867,-20308353.424072266,-7379491.806030273,5382894.992828369,-4801846.504211426,-5299421.310424805,-4694432.258605957,-13108321.189880371,-12255772.590637207,5855105.400085449,-5006064.414978027,-5499292.373657227
0.245,25788200.37841797,20367399.215698242,59735057.83081055,-13986547.470092773,19375631.33239746,-7101458.0726623535,15706609.725952148,16234569.549560547,1485751.5096664429,3400207.996368408,7516354.084014893,4864223.957061768,3852906.2271118164,3781464.5767211914,2307298.8986968994,-24487197.875976562,-4088397.50289917,2284168.004989624,-5089816.570281982,1528732.5382232666,-6181747.4365234375,2980602.741241455,-10699752.807617188,829122.6029396057,-10526915.550231934,-8084969.520568848,454037.9047393799,466198.3549594879,650333.4641456604,-7612499.237060547,-7787625.789642334,-9639674.186706543,1679031.0144424438,-4564993.381500244,-13600412.368774414,1282151.5798568726,179173.72286319733,-620709.6576690674,-443918.1685447693,-6705565.452575684,-5867152.690887451,1477834.2247009277,-13236841.201782227,-12931382.179260254,3896445.9896087646,514776.64709091187,-8279376.029968262,-6447551.727294922,-5939177.513122559,-6632522.106170654,-19390974.044799805,-19707208.63342285,-5046615.123748779,6979439.258575439,-6165997.9820251465,-6721488.952636719,-6010347.366333008,-12903272.62878418,-11921438.217163086,7608038.902282715,-6362594.6044921875,-6958605.766296387
0.25,61518466.94946289,61887313.84277344,102322250.36621094,3675259.590148926,39942584.99145508,7645995.616912842,24820270.538330078,25239748.001098633,8995114.32647705,9518033.981323242,17404394.149780273,18177883.14819336,17117393.493652344,17175090.789794922,5174564.361572266,-21161895.751953125,2525168.4188842773,7382148.265838623,-2501488.68560791,5350577.831268311,777498.185634613,11457628.25012207,-4792594.909667969,3586355.447769165,-6456019.878387451,-2899811.9831085205,5265423.29788208,688043.2367324829,4019609.9281311035,-5420741.081237793,-3746711.015701294,-3619386.911392212,4303808.689117432,-512244.8205947876,-10276629.447937012,1585805.4161071777,359660.71486473083,-544910.5501174927,-882314.5031929016,-9993882.179260254,-9047336.57836914,4257194.995880127,-9787416.458129883,-9443720.817565918,5187986.373901367,654728.7106513977,-12089123.725891113,-9906122.207641602,-9404013.633728027,-10183415.412902832,-20899089.813232422,-21115383.14819336,-4633910.655975342,5978024.959564209,-10055755.615234375,-10462120.056152344,-9574948.31085205,-15211177.825927734,-14095252.03704834,6602651.596069336,-10081643.104553223,-10774702.072143555
0.255,81205726.62353516,87216270.44677734,125529647.82714844,15714850.425720215,54545639.03808594,15307723.045349121,30969314.575195312,31359010.696411133,16807863.235473633,17484624.8626709,26462215.423583984,26932294.845581055,26059089.66064453,25946405.4107666,2753837.1086120605,-21620046.615600586,5848719.596862793,12833277.702331543,2307552.8144836426,9752009.391784668,6383746.147155762,16569667.81616211,-2826716.423034668,1214721.918106079,-6608771.800994873,-1324433.68434906,7204027.6527404785,717220.7832336426,6924047.946929932,-4882425.308227539,-2036082.7445983887,-1646572.5898742676,1937493.2050704956,-1541447.2818374634,-10831028.938293457,1605414.1521453857,329943.6569213867,-742422.2826957703,-1725223.3028411865,-13088595.390319824,-12206608.772277832,1737731.5759658813,-10362967.491149902,-10110610.008239746,3895886.4212036133,529637.336730957,-15793958.66394043,-13094520.568847656,-12648515.701293945,-13424470.901489258,-25647426.60522461,-25663505.55419922,-9186564.445495605,683498.2633590698,-13546731.948852539,-13748873.710632324,-12821127.891540527,-21536460.876464844,-20363437.65258789,1131160.6168746948,-13514895.43914795,-14135976.791381836
0.26,74243667.60253906,81879341.12548828,116247894.28710938,15395029.067993164,54231342.31567383,12317431.449890137,31372636.795043945,31920852.661132812,20052755.35583496,21916679.38232422,28761680.603027344,25681562.423706055,25089359.283447266,24716436.3861084,-2697509.765625,-24102432.250976562,4770035.743713379,15406601.905822754,6288623.332977295,11670907.974243164,6824522.495269775,15119739.532470703,-4323706.62689209,-4028353.691101074,-9860729.217529297,-2854123.35395813,6554386.615753174,609246.3135719299,7288886.547088623,-5985840.320587158,-3098455.6674957275,-3213635.206222534,-3253029.3464660645,-5586729.049682617,-13899970.054626465,1307894.229888916,117169.5664525032,-1295171.0224151611,-2406661.5104675293,-13935261.726379395,-13195555.686950684,-3697886.4669799805,-13558479.309082031,-13374667.167663574,1094908.7142944336,284651.36885643005,-17208911.895751953,-13969484.329223633,-13566389.083862305,-14228084.564208984,-30222730.63659668,-30151395.797729492,-15306488.037109375,-5369375.705718994,-14358366.966247559,-14501843.452453613,-13683533.668518066,-27824047.088623047,-26656167.98400879,-5129275.321960449,-14503504.753112793,-14855110.168457031
0.265,49760711.669921875,54380733.489990234,86639793.3959961,4668081.760406494,41574237.82348633,3379172.5635528564,26934597.01538086,27706184.38720703,16264570.236206055,19449504.852294922,23226791.381835938,17502954.483032227,17057561.87438965,16516742.706298828,-6310811.996459961,-25079084.396362305,1954456.3293457031,14143454.551696777,6799571.514129639,10117906.57043457,3092631.1016082764,9795599.937438965,-6863553.524017334,-7496245.861053467,-12327452.659606934,-4086050.510406494,5763277.530670166,458487.8981113434,5979165.554046631,-7276410.5796813965,-5277989.864349365,-5835724.353790283,-6745468.1396484375,-7766720.294952393,-15567244.529724121,1008089.1847610474,-88427.48403549194,-1678356.1706542969,-2957292.5567626953,-13417665.481567383,-12725119.590759277,-7188887.596130371,-15293828.010559082,-15024492.263793945,-280335.8733654022,162348.672747612,-17134464.263916016,-13525353.43170166,-13072131.156921387,-13670825.958251953,-30996942.5201416,-31081140.518188477,-17695699.69177246,-7818888.187408447,-13698607.444763184,-13900824.546813965,-13213457.107543945,-29174907.684326172,-28030797.958374023,-7641211.986541748,-14035657.88269043,-14074075.698852539
0.27,26219316.482543945,25989601.135253906,58650192.26074219,-8122747.421264648,26922277.450561523,-3820652.2464752197,21121368.408203125,21959009.170532227,8289002.418518066,11918679.237365723,14075074.195861816,9134046.55456543,8686232.566833496,8098183.631896973,-5401826.858520508,-23576217.651367188,424198.5082626343,10755248.069763184,3895653.247833252,6373651.027679443,-1545353.5318374634,4800547.122955322,-9623462.677001953,-6651363.849639893,-11405613.899230957,-3199373.960494995,5694870.948791504,303912.2223854065,4401632.785797119,-8611263.275146484,-7729299.545288086,-8662481.307983398,-5960974.69329834,-6063129.425048828,-13901507.377624512,961449.0866661072,-165978.98304462433,-1855940.9379959106,-4178580.2841186523,-13775883.674621582,-13024853.706359863,-6216199.87487793,-13568173.4085083,-13227152.824401855,1274090.051651001,140027.13561058044,-17587818.145751953,-14032722.473144531,-13399192.810058594,-14056956.29119873,-27759759.9029541,-28141822.814941406,-15387147.903442383,-6305765.628814697,-14096705.436706543,-14303565.02532959,-13691695.213317871,-25217214.584350586,-24103290.557861328,-5983306.884765625,-14402895.9274292,-14291519.165039062
0.275,14057364.463806152,10061525.344848633,43265838.623046875,-16003126.14440918,18074296.951293945,-5691921.234130859,17190036.77368164,17875776.290893555,1622363.3289337158,4311001.777648926,6500653.7437438965,4022939.2051696777,3579310.178756714,2980383.87298584,-929752.2902488708,-21212339.401245117,645033.7171554565,7502609.729766846,-136757.61222839355,2287480.592727661,-5284014.701843262,1821014.7619247437,-12554872.512817383,-2305638.551712036,-7612009.048461914,-1230383.5153579712,5304499.626159668,233982.02657699585,2573215.961456299,-10483878.135681152,-10302204.132080078,-11647111.892700195,-1605655.0741195679,-2368492.841720581,-10392630.577087402,1137685.2989196777,-109269.29861307144,-2265340.0897979736,-5767754.077911377,-14659325.59967041,-13909531.593322754,-1785409.688949585,-9970702.171325684,-9797598.838806152,4426834.1064453125,110826.13468170166,-18214969.635009766,-15033826.82800293,-14199929.237365723,-14886958.122253418,-22647521.97265625,-23221700.66833496,-11374827.38494873,-3377863.645553589,-15065495.491027832,-15187211.990356445,-14623628.616333008,-19372858.04748535,-18290519.71435547,-2828123.5694885254,-15194774.627685547,-15189234.733581543
0.28,9520353.317260742,3858765.125274658,36629211.42578125,-18847927.09350586,14905147.552490234,-4973188.400268555,15414978.981018066,15891280.174255371,-1284197.9265213013,-229121.28269672394,2497634.172439575,1309920.7878112793,938945.5318450928,283877.4025440216,3684073.6865997314,-19803504.943847656,760367.9299354553,5157739.639282227,-3192807.912826538,-745546.4601516724,-7700557.231903076,674964.0703201294,-14257135.391235352,2355403.184890747,-3927660.7036590576,-129708.4391117096,4187974.9298095703,347077.54850387573,502542.3765182495,-11507884.979248047,-11550176.620483398,-13402178.764343262,3103651.523590088,372799.5455265045,-7807866.57333374,1337563.6339187622,35611.95358633995,-2513403.1772613525,-5480621.337890625,-13107902.526855469,-12517235.75592041,2855049.8485565186,-7403759.479522705,-7527613.162994385,6667456.62689209,155468.35958957672,-16607227.325439453,-13450429.916381836,-12601036.071777344,-13165772.438049316,-17732318.878173828,-18246244.430541992,-7938846.588134766,-456189.8112297058,-13395329.475402832,-13494239.807128906,-12960327.1484375,-14558806.419372559,-13493642.807006836,176933.12466144562,-13456582.069396973,-13693079.948425293
0.285,2782551.050186157,-3066777.9445648193,30157999.03869629,-21891395.568847656,12269018.173217773,-7350317.478179932,12756137.84790039,13149091.720581055,-3113681.7932128906,-2829707.384109497,270821.80976867676,-1134127.3784637451,-1462279.7966003418,-2219566.583633423,4664499.759674072,-20525339.126586914,-1153570.1751708984,2948644.1612243652,-5064631.462097168,-2128886.2228393555,-8581253.051757812,659077.5847434998,-13572335.243225098,3536411.2854003906,-3722284.5554351807,-1090353.9657592773,3301583.2901000977,547541.7375564575,-706709.1464996338,-9864039.421081543,-10130355.834960938,-12774255.752563477,4264594.554901123,511054.9330711365,-7676071.1669921875,1387467.5035476685,160368.78526210785,-1482000.1125335693,-2013181.209564209,-8153841.972351074,-7755019.664764404,4034012.794494629,-7406579.01763916,-7634208.202362061,6799015.522003174,344525.12860298157,-12305510.520935059,-8308110.237121582,-7688323.020935059,-8113277.435302734,-14691878.318786621,-15002858.16192627,-5131171.226501465,2887665.271759033,-8159707.069396973,-8406412.124633789,-7812897.682189941,-11457547.187805176,-10398404.121398926,3347802.8774261475,-8329158.782958984,-8695139.88494873
0.29,-10623009.68170166,-16622610.092163086,19556863.78479004,-29339633.94165039,6062718.868255615,-15918621.063232422,6307404.518127441,6765378.475189209,-7575953.960418701,-6318590.6410217285,-3033376.693725586,-4701137.065887451,-5094321.727752686,-5931312.084197998,642432.9280853271,-24094432.830810547,-5336355.209350586,-17849.46210682392,-6822286.605834961,-2536796.808242798,-8788120.26977539,60419.16832327843,-12322692.87109375,-362296.1938381195,-8075397.491455078,-4231423.377990723,3045406.5799713135,582603.5737991333,-617815.4349327087,-7092193.603515625,-8070018.768310547,-11530802.726745605,296942.97909736633,-1892205.3575515747,-9529134.750366211,1249997.4966049194,118615.7688498497,698675.2152442932,2101054.4300079346,-3185986.280441284,-2825405.8361053467,230372.30968475342,-9390087.127685547,-9457987.785339355,5717991.828918457,483906.89492225647,-8197092.056274414,-3085746.0498809814,-2743824.9588012695,-3210355.043411255,-14791378.021240234,-14981592.178344727,-3090272.1881866455,6492488.861083984,-2973118.543624878,-3429814.577102661,-2673101.6635894775,-9952111.24420166,-8917496.681213379,6662517.547607422,-3231638.6699676514,-3503566.9803619385
0.295,-26130235.67199707,-33312511.444091797,6801774.024963379,-39578235.6262207,-2972906.5895080566,-27824737.548828125,-2546942.710876465,-1977807.2834014893,-14234928.131103516,-11006082.534790039,-7894505.023956299,-9456192.970275879,-9956846.237182617,-10804039.001464844,-5612516.8800354,-29776414.87121582,-10218427.658081055,-3488013.505935669,-8844023.704528809,-3409865.8561706543,-10346655.84564209,-2947230.339050293,-13616371.154785156,-6656723.0224609375,-14513742.446899414,-8479417.80090332,2499531.2690734863,385067.6715373993,-677147.388458252,-7015889.644622803,-9350380.897521973,-12679445.266723633,-5985969.066619873,-5331844.329833984,-11652781.48651123,1056950.8075714111,-97884.6475481987,2091535.0914001465,2775390.625,-2117137.670516968,-1638260.2453231812,-5931160.449981689,-11519967.079162598,-11419134.140014648,5091740.131378174,372356.20617866516,-6952725.410461426,-1797154.3073654175,-1553877.1152496338,-2188735.4850769043,-17334712.982177734,-17538927.07824707,-2792217.73147583,8835582.733154297,-1823539.6146774292,-2350555.181503296,-1477673.4113693237,-9983251.571655273,-8999357.223510742,8865888.595581055,-1976050.615310669,-2124393.2247161865
0.3,-35851383.209228516,-44592662.8112793,-2401178.5984039307,-46960117.34008789,-10222982.406616211,-36066814.42260742,-8797898.292541504,-8153621.673583984,-19045545.57800293,-14358285.903930664,-11872779.846191406,-13873741.149902344,-14401291.847229004,-15228769.302368164,-9198101.043701172,-34471427.91748047,-13607755.661010742,-6200305.461883545,-10260265.350341797,-5221449.851989746,-13738229.751586914,-7481136.322021484,-17539764.404296875,-10296490.669250488,-18908609.39025879,-11779587.745666504,1225793.6000823975,192479.59554195404,-2094807.8632354736,-10287877.082824707,-14464571.952819824,-16321022.033691406,-9495315.551757812,-7522391.796112061,-12422604.56085205,998970.9258079529,-275875.65779685974,1324419.8560714722,-476109.6239089966,-4687849.998474121,-4087876.796722412,-9442132.949829102,-12165802.001953125,-12080951.690673828,5602875.232696533,155429.48246002197,-7819855.690002441,-4226881.02722168,-3919365.644454956,-4615259.170532227,-19266206.741333008,-19457214.35546875,-3891106.128692627,9168145.179748535,-4341397.285461426,-4741433.143615723,-3960406.78024292,-10696223.258972168,-9733318.328857422,9321013.450622559,-4264320.373535156,-4519929.4090271
0.305,-36285266.8762207,-45131217.95654297,-3465576.410293579,-47862957.00073242,-11827725.410461426,-35350624.084472656,-9216864.585876465,-8551549.911499023,-19624118.80493164,-14744138.717651367,-12728292.465209961,-15901595.115661621,-16327775.955200195,-17185520.17211914,-7466197.490692139,-34557102.20336914,-14077083.587646484,-7151495.933532715,-10479586.601257324,-6830747.604370117,-16540849.685668945,-10065623.28338623,-20947534.561157227,-8549945.831298828,-18850536.346435547,-12392747.87902832,435479.611158371,200014.57631587982,-3854357.0041656494,-13345126.152038574,-19303924.560546875,-19542024.612426758,-7601038.455963135,-6833480.8349609375,-11377045.631408691,1104499.8168945312,-220446.76542282104,-531814.455986023,-4069537.1627807617,-7572844.982147217,-6921519.2794799805,-7530889.03427124,-10965543.746948242,-10997008.323669434,6557782.6499938965,97803.13074588776,-8489298.820495605,-7017856.597900391,-6675032.615661621,-7266529.083251953,-18063428.87878418,-18116466.522216797,-4152604.579925537,8799272.537231445,-7098014.831542969,-7309782.028198242,-6765610.694885254,-10407529.830932617,-9368382.453918457,9176064.491271973,-6887335.777282715,-7419117.9275512695
0.31,-30567293.167114258,-37878742.21801758,2357487.440109253,-44071884.15527344,-8654839.515686035,-26926189.422607422,-5961222.6486206055,-5332436.084747314,-18050977.70690918,-13880786.895751953,-11433241.844177246,-15166957.85522461,-15422961.235046387,-16361127.853393555,-1907455.9211730957,-29481491.088867188,-11885882.377624512,-6699349.880218506,-10436226.844787598,-7202437.400817871,-16474431.991577148,-8764541.625976562,-21406911.849975586,-3038668.394088745,-15095570.56427002,-10472009.658813477,1222374.3200302124,270180.94062805176,-4360722.064971924,-13723177.909851074,-20369237.899780273,-20143554.6875,-2004200.4585266113,-3571923.4943389893,-9270465.850830078,1195298.433303833,-38544.245064258575,-1417337.6560211182,-5110846.042633057,-8670680.046081543,-7966689.109802246,-1840758.3236694336,-8792033.195495605,-8878458.023071289,7091455.936431885,139009.78863239288,-8456576.347351074,-8012711.524963379,-7742397.785186768,-8248972.8927612305,-14449681.282043457,-14385852.813720703,-2072803.4973144531,9711337.089538574,-7995974.063873291,-8115459.442138672,-7719267.36831665,-8090853.691101074,-6904041.767120361,10171875.0,-7854021.5492248535,-8494392.395019531
0.315,-24804306.030273438,-31413139.34326172,8325875.282287598,-40247997.28393555,-5380172.252655029,-17705278.396606445,-3873324.6326446533,-3320683.479309082,-17844860.076904297,-14568240.16571045,-11007542.610168457,-13421447.75390625,-13565986.633300781,-14518903.732299805,4104468.822479248,-22910421.37145996,-9021964.073181152,-6320407.867431641,-11563693.046569824,-6997145.652770996,-14515673.637390137,-5455782.890319824,-19191738.12866211,2783286.8099212646,-10368143.081665039,-8090229.9880981445,2452829.122543335,169846.92215919495,-3989390.6116485596,-13097492.218017578,-18425647.735595703,-18282297.134399414,3873306.0359954834,225224.88236427307,-7138188.362121582,1142822.6232528687,-11801.62187665701,-779984.2953681946,-4101649.761199951,-7820171.356201172,-7039669.513702393,4044637.680053711,-6725444.316864014,-6774653.911590576,7403181.552886963,32689.02376294136,-8359800.338745117,-7058063.983917236,-6846700.191497803,-7409501.552581787,-10919460.29663086,-10937832.832336426,1456331.2530517578,12896928.787231445,-6940214.63394165,-7087272.167205811,-6654291.62979126,-4127871.513366699,-2864017.2481536865,13244679.45098877,-6971602.916717529,-7422216.892242432
0.32,-23497629.165649414,-32046199.798583984,8598626.136779785,-39247928.619384766,-5537172.794342041,-14407979.011535645,-5186541.557312012,-4645413.875579834,-19683679.580688477,-16918697.357177734,-12557332.992553711,-12426686.28692627,-12628050.804138184,-13441566.467285156,8125494.003295898,-19602798.461914062,-8011891.3650512695,-7128458.9767456055,-13830857.276916504,-7448339.939117432,-13218381.881713867,-3067800.998687744,-15654649.73449707,6635371.685028076,-7455778.5987854,-7453381.538391113,1805230.2598953247,-62421.20638489723,-4244325.160980225,-13503792.762756348,-15885053.634643555,-14892329.216003418,7799573.4214782715,2318764.2097473145,-5546275.1388549805,1043756.8426132202,-207674.74174499512,384250.4322528839,-2470451.3549804688,-4668905.735015869,-3913425.4455566406,7799779.415130615,-5253306.865692139,-5230121.612548828,8363970.756530762,-165595.74007987976,-7379234.790802002,-3881137.8479003906,-3605166.435241699,-4248692.035675049,-8514557.838439941,-8747138.023376465,4779847.145080566,18067066.192626953,-3664711.7137908936,-3877619.0280914307,-3377404.21295166,522495.2697753906,1668749.8092651367,18271421.432495117,-3812500.7152557373,-4054054.7370910645
0.325,-27386978.149414062,-38541805.267333984,3839790.5826568604,-40312931.060791016,-8135372.161865234,-18020301.818847656,-7886072.158813477,-7156461.238861084,-21200139.99938965,-18125305.17578125,-13826550.483703613,-12347870.826721191,-12740786.5524292,-13360754.96673584,9285426.139831543,-20922597.885131836,-9659636.497497559,-8561422.348022461,-15473950.386047363,-8217451.095581055,-13080940.246582031,-2457792.7589416504,-12071381.568908691,7813422.679901123,-7648260.116577148,-8885484.69543457,-1016130.3281784058,-222783.6549282074,-5087351.322174072,-13799632.07244873,-13467079.162597656,-11045096.397399902,9044207.572937012,1851218.9388275146,-4704763.889312744,992748.3201026917,-425060.2722167969,1250209.5699310303,-311300.128698349,776886.7015838623,1325865.2687072754,8865125.65612793,-4443620.681762695,-4365944.862365723,9986110.68725586,-164782.16648101807,-4272142.41027832,1467857.003211975,1859761.4765167236,1263139.8439407349,-6708535.194396973,-7077803.611755371,7286074.161529541,23698497.772216797,1757062.0775222778,1500185.6088638306,1955847.5017547607,4882435.321807861,5778693.199157715,23904304.50439453,1609760.7612609863,1324964.2848968506
0.33,-32614711.76147461,-43673755.64575195,147179.61847782135,-40359214.782714844,-9042818.069458008,-23002138.137817383,-8358825.68359375,-7272046.5660095215,-19872737.884521484,-15720202.445983887,-12021300.315856934,-12312153.816223145,-12834756.851196289,-13415680.885314941,8211201.6677856445,-23352750.778198242,-11554664.611816406,-8674288.749694824,-14672641.75415039,-7635582.92388916,-12478140.830993652,-2936411.6191864014,-10256929.397583008,6854003.90625,-9428874.015808105,-10324054.718017578,-3304982.4237823486,-319141.4177417755,-5029994.964599609,-12304440.49835205,-11331228.256225586,-8876296.997070312,8072892.189025879,40579.94484901428,-4667612.552642822,823235.9886169434,-546184.3013763428,1665768.3849334717,1906324.028968811,5534653.663635254,5834598.064422607,7903589.248657227,-4309673.78616333,-4233838.081359863,10918314.933776855,-2912.1299739927053,-734877.2883415222,6073231.220245361,6479438.304901123,6029371.738433838,-5673871.5171813965,-6058376.312255859,8674364.08996582,27024248.123168945,6363667.964935303,6074803.352355957,6467883.586883545,7416536.808013916,8155753.135681152,27358524.322509766,6290293.6935424805,5842337.131500244
0.335,-31991983.41369629,-40229454.040527344,3222437.620162964,-36164916.9921875,-4843185.901641846,-22127536.77368164,-4531519.412994385,-3190981.149673462,-14893421.173095703,-9900589.942932129,-6822092.533111572,-11207959.175109863,-11644138.33618164,-12388592.720031738,6951348.781585693,-21852670.669555664,-9876660.346984863,-5861559.867858887,-10981939.315795898,-4855347.156524658,-10308389.663696289,-3739181.7569732666,-11642447.471618652,5634544.849395752,-9206500.053405762,-9195614.8147583,-2337672.472000122,-532569.2296028137,-3537986.7553710938,-10193237.3046875,-10868835.44921875,-10286938.667297363,6725208.282470703,-894713.9978408813,-5189580.917358398,351023.67401123047,-684172.6303100586,1488680.6011199951,2099931.478500366,5251235.9619140625,5462397.575378418,6699218.75,-4755520.343780518,-4721724.987030029,9776045.799255371,-87000.3029704094,-589776.8139839172,5673310.279846191,5954596.042633057,5641665.458679199,-6541471.9581604,-6953121.662139893,7910261.154174805,25529438.018798828,5894876.480102539,5571398.735046387,6041023.254394531,6289148.330688477,7107221.603393555,25941043.853759766,5931285.381317139,5479968.070983887
0.34,-21270555.49621582,-27368400.57373047,13354143.142700195,-27005073.54736328,4208790.7791137695,-13737862.586975098,2628925.323486328,3867109.775543213,-7376072.883605957,-2902048.349380493,-223149.8807668686,-7981657.028198242,-8223564.147949219,-9140194.8928833,7415982.246398926,-15378631.591796875,-3910893.678665161,-528494.7752952576,-5537278.175354004,-802869.0814971924,-6944032.669067383,-3747963.6669158936,-14769079.208374023,6097123.622894287,-5226061.3441467285,-5416054.725646973,1265435.4572296143,-807858.1690788269,-1589192.1520233154,-9325195.3125,-12666533.470153809,-13817279.815673828,6992524.62387085,-77681.9959282875,-5744018.5546875,-187172.72579669952,-877879.9772262573,772673.3684539795,-545812.2491836548,-218664.88456726074,58014.10600543022,7037246.227264404,-5422022.819519043,-5365178.108215332,6772940.158843994,-525686.502456665,-4699285.507202148,114660.8293056488,250183.49289894104,47925.662249326706,-9277612.686157227,-9767316.818237305,4621335.029602051,19885744.094848633,250377.14838981628,-79357.69110918045,543382.7042579651,1515190.0053024292,2537380.2185058594,20202018.73779297,423555.07612228394,93107.60349035263
0.345,-6118337.631225586,-13028780.937194824,24393497.467041016,-16719167.709350586,13551883.697509766,-4391710.7582092285,9449218.75,10325910.568237305,-376082.9269886017,2509699.3446350098,5139940.7386779785,-3126536.8461608887,-3338662.1475219727,-4255050.6591796875,9108496.66595459,-8551157.95135498,2111835.9565734863,4905540.943145752,-721458.7926864624,2712502.2411346436,-3432067.1558380127,-1994134.1876983643,-16116682.052612305,7864561.080932617,-361190.3786659241,-1920924.6635437012,4294541.835784912,-815756.2017440796,-75825.55711269379,-8889018.058776855,-14559432.029724121,-15465927.124023438,8636537.551879883,1070058.2265853882,-5883257.865905762,-281256.61611557007,-898682.2366714478,276252.06112861633,-3430299.5204925537,-5701105.117797852,-5391270.637512207,8593325.6149292,-5792629.718780518,-5589960.57510376,3732264.0419006348,-849357.0685386658,-9323776.245117188,-5496051.31149292,-5382872.104644775,-5488169.193267822,-12084482.192993164,-12582372.665405273,815903.7232398987,14498741.149902344,-5427522.659301758,-5696495.056152344,-5049983.978271484,-3787935.0185394287,-2652936.6970062256,14620983.123779297,-5151412.010192871,-5477186.20300293
0.35,968725.9197235107,-8323901.176452637,28128284.454345703,-11708257.675170898,17105827.33154297,-2482535.6006622314,12001542.091369629,12637266.159057617,2180935.3828430176,3968677.520751953,6979840.7554626465,176124.36413764954,-254388.89861106873,-1078076.6010284424,9787683.486938477,-6727521.4195251465,3276803.493499756,7854770.660400391,716011.1665725708,4050900.459289551,-1225046.7538833618,369985.967874527,-14317927.360534668,8625471.115112305,1046114.2063140869,-1325422.1677780151,4866082.668304443,-453225.7914543152,799215.6744003296,-7215699.195861816,-14195715.90423584,-13534844.398498535,9466137.886047363,989278.9125442505,-5359963.893890381,176459.26773548126,-585422.6350784302,605955.8987617493,-3667780.876159668,-6693759.441375732,-6462889.671325684,9264881.134033203,-5361322.87979126,-5027298.927307129,2572099.9240875244,-661833.1670761108,-10784551.620483398,-6646475.315093994,-6406175.61340332,-6500861.644744873,-13369324.684143066,-13776852.60772705,-494592.45800971985,13656230.926513672,-6619304.180145264,-6789885.997772217,-6265652.656555176,-5813661.098480225,-4713313.102722168,13645229.33959961,-6384524.345397949,-6800269.603729248
0.355,-5558106.899261475,-16079929.35180664,22285524.368286133,-14267261.505126953,13147505.760192871,-8652574.53918457,9768815.994262695,10484365.463256836,-818794.4293022156,1200981.0209274292,4794418.811798096,-881414.8306846619,-1553126.9311904907,-2403409.481048584,8750744.819641113,-9772103.309631348,-188719.7643518448,7939184.188842773,-2010212.1829986572,2743901.7295837402,-1522989.9883270264,875181.1385154724,-11583641.052246094,7510978.698730469,-1169513.5831832886,-2723603.0101776123,4264606.952667236,-87322.70449399948,797480.8812141418,-5210117.340087891,-12223707.19909668,-10478076.934814453,8543946.266174316,333788.3651256561,-4180501.4610290527,678699.8510360718,-181534.61813926697,1109105.5870056152,-2020012.378692627,-4310164.928436279,-4135785.1028442383,8237535.47668457,-4030580.0437927246,-3761594.05708313,3680545.0916290283,-241177.7377128601,-9640203.475952148,-4360683.441162109,-3969754.695892334,-4189626.693725586,-13306522.369384766,-13686638.832092285,1315165.9965515137,17126558.303833008,-4331938.743591309,-4469760.417938232,-3988975.5249023438,-4129861.831665039,-3103440.523147583,17079896.926879883,-4302500.247955322,-4642425.060272217
0.36,-16402418.13659668,-26061038.970947266,14183867.454528809,-18663686.752319336,7560595.0355529785,-14914159.774780273,6634494.781494141,7522157.192230225,-4984232.9025268555,-2243910.074234009,1623861.1936569214,-4027503.490447998,-4736607.551574707,-5751880.168914795,7593068.599700928,-12362939.834594727,-3176791.191101074,7590782.642364502,-5737355.2322387695,630430.281162262,-3205052.8526306152,-252122.75981903076,-10103665.351867676,6162809.8487854,-2979036.808013916,-3188259.3631744385,4498631.000518799,-79916.87208414078,8683.696389198303,-4758018.970489502,-10747850.41809082,-8962592.124938965,7274878.025054932,696433.3057403564,-3101315.498352051,755470.6931114197,-52868.5636818409,801424.4437217712,-1267178.4162521362,-2674479.9613952637,-2400101.1848449707,6968183.0406188965,-2758960.247039795,-2684725.522994995,5452960.968017578,-131913.31923007965,-8726148.60534668,-2734114.8853302,-2326178.789138794,-2694875.2403259277,-13248375.89263916,-13735580.444335938,3471522.331237793,20523590.087890625,-2663424.9687194824,-2912327.289581299,-2262391.5672302246,-2412763.1187438965,-1444362.2827529907,20437007.904052734,-2856432.9147338867,-2961247.9209899902
0.365,-18569889.068603516,-26372997.283935547,12766086.57836914,-17264562.606811523,7869733.810424805,-14966204.643249512,6673892.021179199,7502786.159515381,-4335037.708282471,-1374132.1563720703,2026980.8769226074,-3904542.922973633,-4522102.832794189,-5635008.335113525,7017533.302307129,-10931453.704833984,-2068065.881729126,9535700.798034668,-5679625.988006592,879491.2099838257,-3080220.2224731445,71057.34944343567,-9758381.843566895,5506728.172302246,-2065248.966217041,-1913446.4263916016,5502216.339111328,-273487.5977039337,-310874.9985694885,-5193434.238433838,-10276292.80090332,-8939905.166625977,6467645.645141602,1556058.1684112549,-3606544.256210327,581241.6672706604,-167641.66951179504,77697.08335399628,-1966879.0102005005,-3628826.856613159,-3163852.2148132324,6230368.137359619,-3254413.12789917,-3238220.453262329,5604164.600372314,-354645.1926231384,-9071708.679199219,-3682428.8368225098,-3399203.7773132324,-3806393.86177063,-14441138.26751709,-14955112.45727539,2765630.2452087402,20171699.52392578,-3607366.5618896484,-4047503.94821167,-3179497.241973877,-4426673.412322998,-3557326.078414917,19988864.89868164,-3867158.4129333496,-3937070.13130188
0.37,-12586006.164550781,-19244728.088378906,16767829.895019531,-10661711.692810059,13205045.700073242,-12504504.203796387,9162948.608398438,9750636.100769043,1067946.434020996,4085827.8274536133,6203135.967254639,-145864.85922336578,-789467.9307937622,-1799660.086631775,5297882.080078125,-8225804.328918457,1090682.2681427002,13282027.244567871,-1162112.832069397,4122300.148010254,-342086.3449573517,2168766.0217285156,-10498240.47088623,3882098.436355591,-824640.7508850098,-905422.568321228,5933763.9808654785,-230787.7093553543,922588.4079933167,-4709910.869598389,-10631774.90234375,-9933366.775512695,4656534.671783447,735667.5267219543,-6243576.526641846,658560.2164268494,-161836.56454086304,186901.16703510284,-2512961.1492156982,-5997068.405151367,-5431328.773498535,4463245.391845703,-6010286.808013916,-5821926.593780518,3473681.4498901367,-425743.7288761139,-9730723.38104248,-6077164.649963379,-5890809.059143066,-6297520.637512207,-17236097.33581543,-17475206.37512207,-897076.0107040405,16884380.340576172,-6118685.245513916,-6644820.690155029,-5734453.201293945,-9732121.467590332,-8996219.635009766,16637557.983398438,-6283701.419830322,-6660982.608795166
0.375,-10470472.33581543,-17900302.88696289,16550535.202026367,-7057106.971740723,14880989.074707031,-15098638.534545898,9976031.303405762,10483277.320861816,4642625.80871582,8205727.577209473,8681934.356689453,1125943.7799453735,286804.9144744873,-552680.253982544,1627325.7732391357,-9036875.72479248,2044652.9388427734,15305411.338806152,2866938.591003418,6766580.581665039,1369452.8341293335,1786867.2609329224,-13651348.114013672,332804.20303344727,-2053789.1387939453,-1507890.1052474976,5629226.207733154,124505.55711984634,2542192.9359436035,-4039860.248565674,-12788578.987121582,-12909138.679504395,1129214.882850647,-1889393.68724823,-9206752.77709961,1057789.8025512695,93652.58365869522,1164723.0386734009,-2466462.6121520996,-8297751.426696777,-7805147.647857666,908708.7512016296,-9017926.216125488,-8634216.30859375,872596.1446762085,-100514.35977220535,-10141568.183898926,-8393589.973449707,-8143782.615661621,-8668775.55847168,-20597734.451293945,-20411134.719848633,-4611789.703369141,14343321.800231934,-8628706.932067871,-9016162.872314453,-8221857.070922852,-14412955.284118652,-13715045.928955078,14135274.887084961,-8673048.973083496,-9328912.734985352
0.38,-16722198.486328125,-26574462.890625,9194524.765014648,-10360458.374023438,9107180.59539795,-22086885.452270508,7823942.184448242,8525886.535644531,2200136.423110962,6235751.628875732,5750396.728515625,-3177864.5515441895,-4159296.989440918,-4983483.791351318,-1261821.985244751,-13038896.560668945,236639.3804550171,13641035.079956055,2038896.5606689453,5532412.052154541,-673067.8677558899,-2906234.9796295166,-18409175.872802734,-2506067.0375823975,-4362003.803253174,-2431007.3852539062,5614399.433135986,429531.5146446228,2408260.1070404053,-5062120.43762207,-16575046.53930664,-17225570.678710938,-1547333.3597183228,-3543402.671813965,-9961188.316345215,1345180.7498931885,321882.3969364166,1764672.5177764893,-2840126.5144348145,-9802321.434020996,-9466976.165771484,-1784626.0070800781,-9712919.235229492,-9312602.043151855,54099.757224321365,304777.1155834198,-10449715.614318848,-9877589.225769043,-9494920.73059082,-10189813.613891602,-22530241.012573242,-22170515.060424805,-5974445.343017578,14481526.374816895,-10235522.270202637,-10372109.413146973,-9662344.932556152,-15785850.524902344,-14972434.997558594,14312751.770019531,-10225755.69152832,-10781828.880310059
0.385,-21094783.782958984,-33176002.502441406,4382573.60458374,-14148020.74432373,3681826.591491699,-24797088.623046875,6144999.027252197,7011782.646179199,-2032700.0617980957,1453258.6336135864,1602759.599685669,-6847714.424133301,-7726310.729980469,-8730648.040771484,-444315.73152542114,-14921958.923339844,-920429.6469688416,11005921.363830566,-1474597.8116989136,2583286.0469818115,-3071517.9443359375,-6392860.889434814,-20171911.239624023,-1668533.8020324707,-4380561.828613281,-2001175.1651763916,6215232.372283936,430256.8733692169,823166.6088104248,-6576430.320739746,-18240736.00769043,-18765165.328979492,-671463.4299278259,-2398349.7619628906,-8339739.799499512,1253185.8682632446,302109.7183227539,1519555.4494857788,-3408552.885055542,-9882286.071777344,-9615440.368652344,-829104.1851043701,-8083123.207092285,-7783881.187438965,1113559.0076446533,407292.36602783203,-10309278.48815918,-9956621.170043945,-9567031.860351562,-10226237.297058105,-22012254.71496582,-21876710.891723633,-5510229.587554932,15733727.45513916,-10291046.142578125,-10319842.338562012,-9585118.293762207,-14998368.263244629,-14051156.997680664,15458319.664001465,-10266639.709472656,-10566267.967224121
0.39,-15195430.755615234,-27615804.67224121,9946526.527404785,-11474994.659423828,6795172.214508057,-19470500.946044922,7384400.367736816,8111885.070800781,-1880619.5259094238,541168.5109138489,2511042.356491089,-3088656.9023132324,-3715656.9957733154,-4923629.283905029,2687653.7799835205,-11714460.372924805,716454.267501831,11252902.030944824,-2332930.326461792,2701318.0255889893,-922122.0016479492,-3024951.934814453,-16100288.391113281,1446236.491203308,-1872432.1126937866,-559404.6115875244,6745270.729064941,285326.62987709045,328996.6881275177,-5591614.246368408,-14587773.323059082,-14897843.360900879,2336228.132247925,-78987.28549480438,-6470079.8988342285,1044211.0300064087,184979.75170612335,1346140.98072052,-2755273.5805511475,-8499029.159545898,-8110985.75592041,2254270.553588867,-6320446.491241455,-6066854.476928711,2386073.589324951,243810.62388420105,-9354700.088500977,-8623785.018920898,-8376668.930053711,-8737161.636352539,-20236719.131469727,-20407203.674316406,-4988949.298858643,15974062.9196167,-8854799.270629883,-9035995.483398438,-8257749.557495117,-14421557.426452637,-13461298.942565918,15480908.393859863,-8808824.53918457,-9163478.85131836
0.395,-6439787.3878479,-17815202.713012695,18961341.857910156,-5620395.660400391,14184234.619140625,-13155105.590820312,8745739.936828613,9215536.117553711,1437413.5732650757,3704199.3141174316,6969607.353210449,4358801.364898682,3868312.358856201,2622096.7769622803,4301136.9705200195,-6769611.358642578,3127687.454223633,13771933.555603027,1356.732682324946,5929336.5478515625,3981794.1188812256,3815726.2802124023,-10114157.676696777,2934223.175048828,273780.5247306824,658036.9472503662,6988085.2699279785,233108.0287694931,1643374.0854263306,-2585597.7535247803,-8579710.006713867,-9269977.569580078,3836009.2639923096,1107560.634613037,-5468765.735626221,1069337.7256393433,192603.54340076447,1798362.0166778564,-1167720.1986312866,-6849229.335784912,-6237330.436706543,3638656.1393737793,-5429671.764373779,-5128432.750701904,3071353.9123535156,109702.78084278107,-8368950.843811035,-7019114.017486572,-6898096.561431885,-6969718.933105469,-18935758.590698242,-19111953.735351562,-4422459.602355957,15640026.092529297,-7149813.652038574,-7588240.146636963,-6818601.131439209,-14096131.324768066,-13179552.07824707,14996676.445007324,-7089837.551116943,-7814047.336578369
0.4,-6165349.006652832,-17134426.11694336,20031623.84033203,-4507725.238800049,15353726.387023926,-12919488.906860352,6778327.941894531,7265671.730041504,1858031.3920974731,4864182.949066162,7778299.808502197,6177049.160003662,5596083.164215088,4519383.430480957,3749126.672744751,-4805112.361907959,3527042.6273345947,14515892.98248291,1001791.4772033691,7383740.9019470215,5235841.751098633,6167064.189910889,-8023303.985595703,2240244.150161743,578062.1767044067,1608802.1993637085,7531853.675842285,249740.98801612854,2436963.7966156006,-1120215.2967453003,-6192386.627197266,-7325680.732727051,3367912.0540618896,1440507.411956787,-4274892.807006836,1265361.9050979614,273111.10496520996,2235271.215438843,-606185.5554580688,-5922506.809234619,-5212713.241577148,2908035.7551574707,-4266398.906707764,-3894021.2726593018,3830398.0827331543,143136.35230064392,-8238745.68939209,-6120059.967041016,-6014314.651489258,-6039122.581481934,-18071819.305419922,-17973779.678344727,-2524608.373641968,16580545.425415039,-6158113.956451416,-6721303.939819336,-5978686.809539795,-12468752.86102295,-11498556.137084961,15928497.314453125,-6130702.018737793,-7071893.215179443
0.405,-10726035.118103027,-22648853.302001953,15476588.249206543,-7435630.321502686,9976400.375366211,-15131205.558776855,3801380.8727264404,4599552.154541016,-1107912.6596450806,1843315.7205581665,3646265.745162964,1861594.557762146,1111989.6173477173,293834.1200351715,4132480.1445007324,-5540289.878845215,2618351.2210845947,12542711.25793457,-1155191.0638809204,5136863.708496094,2004219.7704315186,3581956.148147583,-9005036.354064941,2702987.6708984375,716203.0339241028,2973327.398300171,8511609.077453613,214361.771941185,1302816.390991211,-1765964.6272659302,-7732492.923736572,-8212505.340576172,3991250.2765655518,2416331.7680358887,-2388732.433319092,1338552.3557662964,271171.4804172516,2274862.289428711,-1207730.770111084,-4866769.313812256,-4310216.426849365,3413411.6172790527,-2388904.571533203,-1950128.7937164307,4733371.257781982,264170.40824890137,-8139160.15625,-5170502.185821533,-5074757.5759887695,-5179819.107055664,-16438877.10571289,-16155942.916870117,326956.8979740143,18964048.385620117,-5132402.8968811035,-5639256.954193115,-4915026.664733887,-9470674.514770508,-8360527.992248535,18344316.482543945,-5189290.523529053,-5931822.299957275
0.41,-7196270.942687988,-19988862.991333008,17666355.13305664,-5936927.318572998,8403976.440429688,-11892292.022705078,5085813.045501709,6072314.262390137,-1286367.0587539673,56298.07338118553,1665630.2213668823,693891.3464546204,-101382.5461268425,-750563.0850791931,7106499.195098877,-5158129.692077637,3231851.816177368,11668269.157409668,-2480669.2600250244,3521916.627883911,813539.8030281067,3531044.4831848145,-6902516.841888428,6000117.778778076,2323531.6276550293,4482127.666473389,9282226.5625,181769.43063735962,291204.0054798126,-957807.8389167786,-7277165.88973999,-6015642.6429748535,7148654.460906982,3756885.528564453,-1380458.950996399,1249758.005142212,233619.48132514954,2579361.4387512207,-640780.6277275085,-2305039.882659912,-1989925.0268936157,6744648.456573486,-1428338.1700515747,-926670.5513000488,4682323.455810547,387702.8524875641,-6527305.126190186,-2801114.320755005,-2813859.9395751953,-2893100.2616882324,-13941453.93371582,-13807158.470153809,1952922.5826263428,21285638.8092041,-2786556.0054779053,-3192743.7782287598,-2524746.894836426,-6554141.998291016,-5399729.7286987305,20655832.290649414,-2945194.959640503,-3332887.4111175537
0.415,4199635.028839111,-8111668.586730957,28143514.63317871,1832547.4262237549,14839836.120605469,-4817347.049713135,10146302.223205566,10913248.062133789,3624945.4021453857,3411726.236343384,5932694.911956787,7087475.299835205,6381112.575531006,5715453.624725342,10151921.272277832,-2959767.1031951904,5490252.97164917,14061645.5078125,90025.05242824554,6117954.730987549,5252500.534057617,9093423.843383789,11416.404508054256,9297100.067138672,4201104.640960693,5046045.303344727,9545588.493347168,252267.33088493347,1518562.4361038208,2649950.7427215576,-1978093.981742859,850557.3868751526,10207847.595214844,4068252.5634765625,-2153352.0221710205,1216355.6814193726,285525.6795883179,3451016.902923584,2040784.8358154297,1355692.8634643555,1613776.3261795044,10054715.156555176,-2228493.4520721436,-1717192.1730041504,3769062.280654907,494684.4279766083,-3673783.540725708,793679.416179657,654955.5063247681,685217.0825004578,-11603493.690490723,-11796587.944030762,1906093.1205749512,23251352.310180664,634825.2892494202,276338.3984565735,826468.2292938232,-3900555.6106567383,-2909962.1772766113,22627979.278564453,427145.0936794281,185019.0907716751
0.42,7564010.6201171875,-3729161.9777679443,33269947.052001953,6565091.609954834,20102016.44897461,-4134313.1065368652,12053165.435791016,12430455.207824707,7187056.541442871,7376240.253448486,10579603.19519043,13496407.508850098,12869891.166687012,12071252.822875977,10308231.353759766,-2787314.1765594482,6077081.680297852,16084709.167480469,3270569.5629119873,9819210.052490234,10051049.23248291,13876971.244812012,5974205.493927002,9378051.7578125,3939589.738845825,4179506.778717041,9703496.932983398,322168.4992313385,3575340.2709960938,5279212.951660156,3405227.4227142334,6722662.925720215,10309206.96258545,3589616.060256958,-2753860.4736328125,1319166.4218902588,353634.774684906,4084857.46383667,4634843.826293945,4542947.292327881,4950230.598449707,10223030.090332031,-2734582.6625823975,-2317864.6564483643,4161037.4450683594,545041.9783592224,-1457414.8654937744,4206589.221954346,4064466.953277588,4073354.721069336,-9621152.877807617,-10002802.848815918,2749271.1544036865,26368089.67590332,3830346.8227386475,3507784.605026245,3957433.4621429443,-81043.93631219864,640825.5100250244,25844526.290893555,3701064.8250579834,3374207.9734802246
0.425,-4991125.583648682,-16349021.911621094,24865303.03955078,1616067.886352539,16058094.024658203,-13643593.788146973,7152832.508087158,7397038.459777832,3799830.198287964,6006765.842437744,8959328.651428223,12178666.114807129,11564078.330993652,10658745.765686035,8163749.694824219,-6985826.015472412,3132731.9145202637,13816822.052001953,2518207.07321167,9887946.128845215,9352100.372314453,12341052.055358887,6117052.5550842285,6981570.243835449,1175024.151802063,2383812.189102173,9896042.823791504,234427.91402339935,3976934.9098205566,4079583.6448669434,3933064.2223358154,6860900.87890625,8175661.087036133,3830279.588699341,-1192413.9261245728,1406747.9372024536,274542.4211025238,4124507.9040527344,5310699.462890625,6832721.23336792,7349583.625793457,8013156.890869141,-943464.0407562256,-695892.4531936646,6862717.628479004,480855.3457260132,-731446.2661743164,6813428.4019470215,6778939.247131348,6593401.908874512,-7440638.065338135,-7779208.660125732,6072693.347930908,30868471.145629883,6353323.936462402,6094998.836517334,6564088.821411133,4783599.853515625,5331252.574920654,30489946.365356445,6413176.536560059,5976409.435272217
0.43,-20124761.5814209,-32675113.677978516,13431899.070739746,-6317208.766937256,8652366.638183594,-24451032.638549805,662842.0352935791,1073906.3024520874,-2335728.168487549,1550312.9959106445,4231601.238250732,6847888.946533203,6285091.400146484,5338238.23928833,6315287.113189697,-12235800.743103027,-594011.9624137878,9709529.876708984,-681689.6796226501,7572804.927825928,5699532.508850098,8392478.942871094,3103321.313858032,5036804.676055908,-2027381.8969726562,438665.2708053589,9745454.788208008,81789.7617816925,3456521.0342407227,2002708.6734771729,1736321.4492797852,3912512.77923584,6386767.864227295,4757395.267486572,1023909.4495773315,1390723.5860824585,85806.49644136429,4540361.8812561035,5298697.948455811,8715227.127075195,9170966.148376465,6200764.6560668945,1532436.3708496094,1609894.9909210205,9268933.296203613,318693.45903396606,-699517.8461074829,8731910.705566406,8795659.065246582,8448102.951049805,-5771857.738494873,-6020873.546600342,9223836.898803711,34106990.814208984,8370527.267456055,8137793.54095459,8751026.153564453,7911878.1089782715,8454931.259155273,33815654.75463867,8574866.29486084,8096290.588378906
0.435,-21422863.006591797,-34700183.8684082,12926625.25177002,-6743508.815765381,8658387.184143066,-26807043.075561523,-758421.5402603149,-228450.80494880676,-3442825.0789642334,744124.8297691345,4096850.872039795,6104102.611541748,5695338.726043701,4692441.940307617,5586591.720581055,-13756130.21850586,-1409221.7683792114,9190693.855285645,-1342508.316040039,7600295.066833496,5357513.427734375,8646761.894226074,2214015.007019043,4441794.395446777,-3632473.4687805176,-1019120.5739974976,9227613.44909668,87408.72144699097,4573155.879974365,2990087.0323181152,1767533.6599349976,3081682.9204559326,5664469.7189331055,4582586.288452148,849440.8130645752,1358223.557472229,-49308.81783366203,5803275.585174561,6181922.435760498,9573909.759521484,9979357.719421387,5524448.871612549,1471190.6909942627,1435931.3249588013,8296754.837036133,138675.10855197906,-843147.0990180969,9318214.416503906,9434783.935546875,9103848.457336426,-6179307.460784912,-6463954.448699951,8633471.488952637,33673488.61694336,9112883.567810059,8809928.894042969,9588683.128356934,7484936.237335205,8066679.000854492,33392894.744873047,9274463.653564453,8768067.359924316
0.44,-11276506.423950195,-23618997.57385254,20890718.460083008,-498310.77456474304,14938302.040100098,-22000659.942626953,1643258.0947875977,2034960.7467651367,117365.11439085007,3755276.918411255,8199834.823608398,9995436.668395996,9680202.48413086,8608586.311340332,5028311.252593994,-11566221.237182617,99355.22824525833,12083419.799804688,849932.4321746826,9849308.967590332,8068337.440490723,11998481.750488281,3538762.5694274902,4031289.577484131,-3495293.140411377,-1645143.2704925537,8682632.446289062,227784.35051441193,6814742.088317871,5325032.2341918945,3736621.856689453,4446094.989776611,5033435.821533203,2706944.465637207,-1548784.1367721558,1342483.401298523,-121826.06756687164,6506938.934326172,6803177.356719971,8275147.438049316,8829291.343688965,4882167.339324951,-1077470.1833724976,-1103850.8415222168,5026506.423950195,4578.931722790003,-1439531.5647125244,7827191.352844238,8014482.498168945,7775260.925292969,-8016348.838806152,-8408061.981201172,5238793.849945068,30854618.072509766,7695909.023284912,7317757.606506348,8147708.892822266,5601426.124572754,6086200.23727417,30563383.102416992,7698242.664337158,7147077.0835876465
0.445,-4559136.867523193,-15048346.519470215,23914108.276367188,2511338.233947754,16359945.297241211,-17851213.455200195,1561330.0800323486,1767143.4879302979,986142.0392990112,3770156.3835144043,8498724.937438965,10874227.523803711,10392386.436462402,9416535.377502441,4712431.907653809,-9638298.988342285,224503.3085346222,12616376.876831055,1071150.1836776733,9212710.3805542,7816042.423248291,12106417.655944824,3240762.233734131,3707283.4968566895,-2756417.989730835,-1659011.1255645752,7931426.048278809,264950.84166526794,6679838.65737915,4168990.135192871,3321666.955947876,4190238.4757995605,4618507.385253906,1025809.1688156128,-2784640.5506134033,1243948.6980438232,-211486.93561553955,5303787.2314453125,5410359.859466553,5922548.294067383,6691961.288452148,4398601.531982422,-2610994.815826416,-2456826.92527771,3561653.3756256104,-31091.878190636635,-1878227.1146774292,5637414.455413818,5918462.27645874,5684353.828430176,-8059414.863586426,-8453044.891357422,3648917.9134368896,29247098.922729492,5494883.5372924805,5170516.014099121,5865629.196166992,5733979.225158691,5990180.492401123,28954868.31665039,5435631.275177002,4849537.372589111
0.45,-6748269.557952881,-16390020.370483398,18157344.818115234,-1589103.9371490479,8786402.702331543,-17178716.6595459,-2389331.579208374,-2137785.1963043213,-3517664.670944214,-2066433.6681365967,1942502.3794174194,5921014.308929443,5114313.60244751,4512134.075164795,5753676.891326904,-9928212.16583252,-2139295.5780029297,8340929.03137207,-2763477.563858032,3999453.30619812,2701460.361480713,7654849.052429199,437488.8241291046,4648104.190826416,-2294126.9874572754,-1674635.7679367065,6520224.571228027,168260.06770133972,3126558.542251587,-797196.5670585632,-220267.44484901428,1412932.5151443481,5571722.984313965,1322018.027305603,-1236463.5467529297,1075047.6121902466,-208477.81002521515,3219077.8255462646,3254759.7885131836,5573797.225952148,6344909.66796875,5349602.699279785,-1186620.9506988525,-770789.3252372742,5337615.013122559,95163.57630491257,-585091.4716720581,5600897.312164307,5900017.738342285,5612118.721008301,-4864376.544952393,-5078996.658325195,5876018.047332764,30394271.850585938,5459036.350250244,5281471.252441406,5729612.350463867,8167823.791503906,8290397.644042969,30097753.524780273,5497366.428375244,4900084.018707275
0.455,-9461114.883422852,-20086065.2923584,13419275.283813477,-5600152.969360352,1143772.3636627197,-16618194.580078125,-4936776.638031006,-4476134.777069092,-7372140.884399414,-7516340.255737305,-4290931.224822998,1272345.1852798462,338944.2563056946,163729.42924499512,7424860.47744751,-10493591.30859375,-3937105.894088745,4159934.9975585938,-6349822.521209717,-695353.7464141846,-1974748.134613037,3758012.533187866,-1862781.7630767822,6283495.903015137,-2276587.2478485107,-1907363.1763458252,4954942.70324707,176291.51046276093,-289415.95554351807,-4764594.554901123,-2967334.270477295,-908761.4417076111,7185339.92767334,2621637.3443603516,538761.2581253052,1024342.5369262695,57086.93712949753,2266420.364379883,3006623.7449645996,8027732.849121094,8561174.392700195,7051255.226135254,796873.2118606567,1331137.5379562378,7171978.950500488,348671.4959144592,2319242.238998413,8135858.535766602,8322270.393371582,8068679.8095703125,-1706081.509590149,-1643916.9645309448,8617074.966430664,32161300.659179688,8065142.631530762,7936751.365661621,8222299.575805664,9765059.471130371,10019807.815551758,31846668.243408203,8184071.5408325195,7607913.017272949
0.46,-5671204.566955566,-17620372.772216797,17404659.271240234,-2161154.7470092773,2741935.968399048,-14314038.276672363,-2510494.2321777344,-1968384.1466903687,-4781828.880310059,-5580081.462860107,-2511442.8997039795,2643101.453781128,1941353.9171218872,1840948.7009048462,6934191.703796387,-9580758.094787598,-2697705.030441284,5366217.613220215,-5009366.989135742,119972.04273939133,-1383369.6842193604,3781526.565551758,-2186066.3890838623,5886057.8536987305,-2649261.236190796,-1993704.080581665,4396742.820739746,363893.3300971985,-155284.0620279312,-4654585.361480713,-2745992.1836853027,-1308735.6090545654,6714427.947998047,2432810.3065490723,-498451.828956604,1154415.8458709717,423517.76361465454,2459414.24369812,4380178.928375244,9968084.335327148,10272050.857543945,6664687.633514404,22827.63458788395,434206.2473297119,5845817.089080811,527184.3075752258,4145186.9010925293,9866220.474243164,9913923.263549805,9792700.76751709,-2861078.0239105225,-2570768.5947418213,7766078.472137451,31464286.80419922,9886661.529541016,9629917.14477539,9970978.736877441,7985494.613647461,8477949.142456055,31119976.043701172,9928866.386413574,9438899.993896484
0.465,1159944.8919296265,-10364965.438842773,25581232.07092285,6506835.460662842,11198888.778686523,-12567311.28692627,1643063.7836456299,2052778.720855713,1856816.1725997925,2065780.8780670166,5350574.493408203,7590629.577636719,7205336.093902588,6744701.862335205,3445019.006729126,-8417860.984802246,-110847.57000207901,10281976.699829102,-138589.009642601,4701598.167419434,2608959.197998047,5275215.625762939,-2667558.431625366,2559301.3763427734,-3271103.1436920166,-1818975.0909805298,4851110.458374023,467222.9588031769,2297748.804092407,-2715749.979019165,-2035684.585571289,-1938476.800918579,3346523.5233306885,230150.20787715912,-3568415.1649475098,1266167.7598953247,496969.87867355347,2132364.7499084473,4428979.873657227,8157865.524291992,8422320.365905762,3330147.2663879395,-3116621.255874634,-2878113.9850616455,2479103.5652160645,456334.82933044434,2965638.3991241455,7829329.490661621,7880093.097686768,7809030.055999756,-7647518.157958984,-7308461.1892700195,3680577.7549743652,27790620.803833008,7859853.267669678,7475344.657897949,7989171.981811523,3819688.320159912,4326895.713806152,27411931.99157715,7782470.226287842,7421397.686004639
0.47,4229579.448699951,-5285884.857177734,29109861.373901367,12279276.847839355,16492959.976196289,-13123457.908630371,2394346.237182617,2647236.8240356445,5443445.205688477,7141899.108886719,10548620.223999023,9629428.86352539,9287923.812866211,8459343.910217285,359751.46293640137,-8775829.315185547,539300.4417419434,12768266.677856445,2710949.182510376,7264757.6332092285,4706643.581390381,4848237.991333008,-4916257.858276367,-407537.2517108917,-3642378.807067871,-1908705.3537368774,4879535.19821167,327503.65138053894,3338448.2860565186,-2457152.6050567627,-3242592.5731658936,-4393844.127655029,416002.42257118225,-1493396.4014053345,-5057431.221008301,1235692.5010681152,234863.35575580597,995990.1571273804,2319237.470626831,4229814.052581787,4592817.783355713,378414.92891311646,-4945877.0751953125,-4687381.744384766,803179.3236732483,257370.79977989197,636714.5776748657,3887766.122817993,4112810.6117248535,3880283.5941314697,-10618885.040283203,-10471477.508544922,585351.6459465027,24022417.068481445,3806238.889694214,3522080.659866333,4090937.1376037598,791421.4134216309,1045873.761177063,23626056.671142578,3763671.636581421,3456037.998199463
0.475,1725062.4895095825,-6663673.400878906,25988929.748535156,10686484.336853027,13241930.00793457,-15015304.565429688,-892390.4895782471,-680118.5607910156,2573597.4311828613,4405735.969543457,7953472.137451172,6519126.892089844,5968774.795532227,5228067.398071289,1343348.503112793,-10240279.197692871,-1461828.8278579712,9990172.386169434,518202.7816772461,5126012.802124023,2696527.9579162598,2791095.018386841,-7020614.6240234375,574099.3022918701,-3312067.985534668,-2622950.315475464,3568655.7292938232,208078.10127735138,1811695.4565048218,-4055742.7406311035,-4791368.9613342285,-6621017.4560546875,1493513.7033462524,-159177.82485485077,-3034794.0921783447,1252055.4065704346,75722.89556264877,739413.5594367981,862210.214138031,3093378.3054351807,3572724.5807647705,1320038.4378433228,-3085528.612136841,-2645818.4719085693,2347311.496734619,243191.51043891907,628770.1725959778,2922648.4298706055,3320511.57951355,2849755.7640075684,-8122356.414794922,-8308403.968811035,1704790.5921936035,23970882.415771484,2670737.2665405273,2689421.4153289795,3122324.228286743,1818377.8524398804,1898461.8186950684,23590322.494506836,2801582.3364257812,2416665.0772094727
0.48,-4334685.802459717,-13796640.396118164,20708698.272705078,4224363.803863525,5367762.088775635,-17557392.120361328,-5128501.892089844,-4889319.41986084,-3883044.719696045,-3238176.5842437744,856454.610824585,1845409.631729126,1156692.9817199707,881623.2681274414,5261124.134063721,-11481347.08404541,-4270895.957946777,4875436.305999756,-4400571.823120117,906386.7926597595,-1101177.69241333,1397631.8836212158,-6276105.880737305,4387933.254241943,-2650742.0539855957,-3468929.2907714844,1714037.299156189,398346.09627723694,-16902.504488825798,-5188504.219055176,-3806000.4711151123,-5729879.379272461,5429651.737213135,3638003.11088562,728485.2862358093,1496370.1963424683,319028.5563468933,2200359.82131958,2381404.8767089844,6897526.741027832,7478324.890136719,5006390.571594238,891946.55418396,1427880.6447982788,5050614.833831787,506416.380405426,3469682.216644287,6909874.91607666,7292808.055877686,6772017.002105713,-2548171.281814575,-2952156.7821502686,6227143.287658691,28631731.033325195,6550055.027008057,6805171.489715576,7099975.5859375,6774789.333343506,7044161.796569824,28269107.818603516,6791159.629821777,6339389.801025391
0.485,-11072704.315185547,-22030626.29699707,17604238.510131836,-1382878.065109253,302116.87088012695,-21010103.225708008,-7840389.728546143,-7532914.638519287,-8638391.494750977,-8526773.452758789,-3623229.2652130127,179182.15692043304,-424822.21126556396,-388196.9451904297,7562477.588653564,-12306288.719177246,-6084291.934967041,1905408.6208343506,-7426323.413848877,-1175074.4581222534,-3056461.811065674,1627009.2725753784,-3009713.649749756,6565643.787384033,-2428023.338317871,-3596428.155899048,579982.8171730042,720273.4351158142,41773.33042025566,-4448730.46875,-397283.31565856934,-2103295.32623291,7711758.136749268,6689484.119415283,3173007.2498321533,1771485.447883606,683279.9315452576,3769411.80229187,5353440.284729004,12514092.445373535,13166355.13305664,7137801.170349121,3632961.2731933594,4065550.8041381836,6217996.597290039,780713.5581970215,6121505.260467529,12578086.853027344,12792852.401733398,12465883.255004883,1021039.1283035278,709141.3140296936,10601249.694824219,34594978.33251953,12243376.731872559,12472270.965576172,12828388.214111328,12386466.979980469,13042424.201965332,34211826.32446289,12431275.367736816,12096291.542053223
0.49,-14433334.350585938,-25171819.68688965,17948579.788208008,-1994445.9199905396,1341211.438179016,-23498706.817626953,-8224166.8701171875,-7722910.8810424805,-8426629.066467285,-7032825.946807861,-1785497.0693588257,2756070.852279663,2270378.828048706,2151401.0429382324,6486075.878143311,-12738963.12713623,-6016808.032989502,2938540.458679199,-5972013.9503479,759609.7588539124,-1320842.8621292114,3053719.2821502686,-35655.40537238121,5390357.01751709,-2483380.3176879883,-2615725.7556915283,633953.9885520935,776360.4521751404,1862072.9446411133,-2315477.132797241,2932408.571243286,1100870.8477020264,6583126.068115234,7014070.987701416,3286681.652069092,1757096.4097976685,735803.8425445557,3649474.3824005127,6730467.319488525,15320858.9553833,15945937.156677246,6155857.563018799,3830305.576324463,4095491.886138916,5356519.69909668,811468.7204360962,5892372.608184814,15270249.366760254,15384470.93963623,15249285.697937012,895326.2567520142,863981.4257621765,11971594.81048584,36990406.03637695,15039713.859558105,15068801.879882812,15633442.878723145,14903048.515319824,15741657.257080078,36597549.43847656,15111881.256103516,15009408.950805664
0.495,-11397101.402282715,-21013879.776000977,20739795.684814453,2256949.1863250732,5489578.723907471,-21882938.385009766,-6080120.086669922,-5317299.365997314,-4008452.4154663086,-862929.4633865356,3798631.9065093994,7083766.937255859,6553200.244903564,6079929.351806641,4833106.994628906,-11808980.941772461,-3769752.025604248,6702561.378479004,-1335433.7215423584,5282821.6552734375,3006995.916366577,4947547.912597656,508398.29444885254,3641077.0416259766,-1847897.4103927612,-856220.543384552,1851268.5298919678,562511.2056732178,4109117.031097412,-21250.205114483833,4467814.4454956055,1512908.3395004272,4842918.872833252,5861133.575439453,2413231.134414673,1498905.5395126343,501430.3922653198,2370970.4875946045,5942333.698272705,13968006.134033203,14433722.496032715,4692197.799682617,2919252.395629883,3106063.3659362793,3851843.83392334,694241.0469055176,3480283.9756011963,13735670.08972168,13920032.501220703,13736656.188964844,-482779.44326400757,-385197.84808158875,10322286.605834961,34454601.2878418,13552207.946777344,13433481.216430664,14125085.830688477,13455368.041992188,14141732.215881348,34165546.41723633,13552415.84777832,13545027.732849121
0.5,-5304843.425750732,-15155645.370483398,23068508.14819336,7070772.647857666,7085194.5877075195,-17392002.10571289,-2784399.2710113525,-1976642.370223999,365841.3589000702,3722345.5905914307,7274644.374847412,9302464.485168457,8652849.197387695,8063294.410705566,4874240.398406982,-9454260.82611084,-608028.9483070374,10200657.844543457,2559016.704559326,8958791.732788086,6497725.963592529,6022084.712982178,-1461527.1091461182,3607101.9172668457,-680068.31407547,626931.9653511047,3857205.867767334,443700.4029750824,5742989.540100098,1187465.1908874512,4157692.9092407227,-735772.1328735352,4822050.57144165,5255533.218383789,1878089.427947998,1323203.444480896,324622.36285209656,1814526.7963409424,4802655.220031738,10710665.702819824,10973390.579223633,4711975.09765625,2407531.73828125,2586051.7024993896,3012804.0313720703,679279.3273925781,1696397.5429534912,10401154.518127441,10667676.92565918,10265529.63256836,-1021333.5752487183,-1093103.051185608,7873253.345489502,30323051.45263672,10143099.784851074,10004776.000976562,10641962.051391602,10488048.553466797,10936099.0524292,30226778.030395508,10083551.406860352,9938395.500183105
