time,Fp1,Fpz,Fp2,AF3,AF4,F7,F5,F3,F1,Fz,F2,F4,F6,F8,FT7,FC5,FC3,FC1,FCz,FC2,FC4,FC6,FT8,T7,C5,C3,C1,Cz,C2,C4,C6,T8,TP7,CP5,CP3,CP1,CPz,CP2,CP4,CP6,TP8,P7,P5,P3,P1,Pz,P2,P4,P6,P8,PO7,PO5,PO3,POz,PO4,PO6,PO8,CB1,O1,Oz,O2,CB2
0.0,-5484064.102172852,-5042473.793029785,-5228765.01083374,45801.63583159447,-2692924.976348877,-5800799.84664917,-2249080.6579589844,-2352373.6000061035,-2337910.8905792236,-833450.3173828125,-835199.1772651672,-1391403.317451477,-1373170.6142425537,-3223890.781402588,-1972424.5071411133,-3352396.249771118,-1604053.3781051636,-1549050.3311157227,-309348.04677963257,-294850.6772518158,-1159140.1100158691,-932079.553604126,-775180.995464325,-360217.6010608673,-1410260.558128357,-126398.80180358887,-352036.2973213196,-70984.49021577835,-686588.6449813843,364056.16998672485,377802.0143508911,-750395.8940505981,-2422372.817993164,436736.6135120392,1803588.3903503418,-119796.46235704422,-43874.893337488174,-758369.6246147156,-75932.8156709671,-114678.7777543068,-726711.5712165833,-787691.3547515869,-1018314.8384094238,-810716.0329818726,-1128533.4825515747,-171002.73072719574,-767628.3717155457,-774968.147277832,-759878.4565925598,-749587.5358581543,-1338985.3239059448,-1350780.725479126,-336680.6209087372,-174280.95638751984,-778593.0633544922,-809614.9563789368,-771614.7899627686,-77298.48474264145,-1317943.811416626,739963.7699127197,-775542.3784255981,-722503.7217140198
0.005,-5196364.879608154,-3932633.876800537,-3557589.7693634033,3192977.4284362793,-810786.9625091553,-6888397.693634033,-1307105.6604385376,-2199271.6789245605,-2276259.183883667,-647883.4748268127,-314673.5727787018,-182820.1711177826,394415.1699542999,-7132940.769195557,-6131504.058837891,-5501944.065093994,-1541840.4340744019,-2228303.4324645996,455085.2179527283,220656.94630146027,-1550903.7971496582,-2960058.4506988525,-4910508.632659912,-11875322.341918945,-5060487.270355225,-1524722.5761413574,482987.4038696289,-500345.4089164734,-1449358.7017059326,-2213111.162185669,-1666806.8170547485,-4783209.800720215,-10265151.977539062,-975144.7439193726,-647332.5490951538,76325.70713758469,222093.90997886658,-3895091.772079468,-3448077.440261841,-3602728.3668518066,-4543300.151824951,-5226078.033447266,-2756810.9035491943,-4505527.019500732,-2046421.5278625488,-1121744.990348816,-3901201.4865875244,-4687335.49118042,-4558605.194091797,-4708031.177520752,-6791218.7576293945,-6788299.560546875,-3414468.52684021,-1590601.921081543,-4294121.742248535,-5106729.984283447,-4485280.990600586,-6345022.678375244,-7566077.23236084,-4866303.443908691,-4673851.96685791,-3983894.8249816895
0.01,-10195135.116577148,-9285305.976867676,-8373237.609863281,4622122.287750244,-3486378.4313201904,-11478078.842163086,-2684021.7113494873,-4115245.819091797,-3978337.526321411,-1857763.2904052734,-1296127.9153823853,-1940232.6345443726,-1214097.7382659912,-12745507.24029541,-9203428.268432617,-7942049.026489258,-2099516.8685913086,-3276236.5341186523,558611.8698120117,169236.73450946808,-2863136.053085327,-5191090.5838012695,-7369952.201843262,-16557638.168334961,-7184932.231903076,-2241530.8952331543,1144344.3298339844,-677837.610244751,-2147385.835647583,-3396395.206451416,-2564120.5310821533,-7030185.699462891,-13714794.158935547,-1125672.1019744873,-498181.67090415955,683203.2799720764,171451.44939422607,-5901236.534118652,-5300035.47668457,-5483469.9630737305,-6889098.644256592,-6431957.244873047,-4306550.979614258,-6287653.44619751,-3647371.0536956787,-1606991.5294647217,-6009325.981140137,-6987526.893615723,-6910676.4793396,-6921234.607696533,-9660444.259643555,-9601656.913757324,-5782640.45715332,-2316706.895828247,-6544525.623321533,-7681182.384490967,-6725289.821624756,-8699170.112609863,-11247956.275939941,-6839873.313903809,-6976846.694946289,-6000416.7556762695
0.015,-16238008.499145508,-16759067.53540039,-15292939.186096191,4401678.085327148,-7937073.707580566,-16519308.090209961,-4833703.994750977,-6343814.373016357,-5969884.872436523,-3246355.7720184326,-2622989.6545410156,-4941149.2347717285,-4396914.958953857,-17285762.786865234,-9907397.270202637,-9301840.782165527,-2574990.2725219727,-3987354.7554016113,355443.53723526,-126062.97433376312,-4221057.891845703,-6620578.765869141,-7913474.559783936,-14836071.968078613,-7045764.446258545,-1991872.0722198486,1582535.0284576416,-725658.1783294678,-2696520.5669403076,-3335112.8101348877,-2525798.559188843,-7413016.319274902,-12583387.37487793,-119995.07248401642,1525407.9103469849,1383718.2521820068,-153749.80866909027,-6475492.477416992,-5432936.191558838,-5564318.656921387,-7466498.374938965,-5046690.464019775,-5125549.31640625,-6118004.79888916,-5596842.288970947,-1733001.2321472168,-6761031.627655029,-7467390.537261963,-7539126.873016357,-7254017.8298950195,-9859306.335449219,-9760919.570922852,-6856896.40045166,-2431756.2580108643,-7252990.245819092,-8284028.053283691,-7224499.225616455,-7565139.7705078125,-12417498.588562012,-5890760.42175293,-7456477.642059326,-6580520.153045654
0.02,-15992175.102233887,-17735940.93322754,-15733323.097229004,3876043.0812835693,-8496088.027954102,-17286357.879638672,-4980741.500854492,-6165738.105773926,-5933546.543121338,-2887456.178665161,-2347035.6464385986,-5715513.706207275,-5287312.5076293945,-17246778.48815918,-8717350.959777832,-8886865.615844727,-2420065.6414031982,-3752527.952194214,525029.8380851746,-66967.36067533493,-4324831.008911133,-6457523.822784424,-7438784.599304199,-12988149.642944336,-5857333.660125732,-1632597.0888137817,1724793.0765151978,-898043.2748794556,-3092473.7453460693,-3286802.053451538,-2655414.342880249,-7028321.266174316,-10830952.644348145,539147.1982002258,2224584.8178863525,1543522.596359253,-419955.19399642944,-6009339.809417725,-4799713.134765625,-4845034.599304199,-6965249.538421631,-4450376.987457275,-5279828.5484313965,-5889994.6212768555,-7036849.021911621,-1845389.0085220337,-6446006.298065186,-6966090.202331543,-7108522.891998291,-6715943.813323975,-9433514.595031738,-9371142.387390137,-6814914.226531982,-2449005.603790283,-6921782.970428467,-7825514.793395996,-6712443.3517456055,-6313864.231109619,-12602712.631225586,-5108108.043670654,-6927348.613739014,-6249452.590942383
0.025,-10075134.27734375,-11785528.182983398,-9441841.125488281,3806869.2684173584,-4897842.884063721,-14629073.143005371,-3281102.418899536,-4175252.914428711,-4225606.918334961,-1084819.1976547241,-670851.2306213379,-4118579.387664795,-3569818.0198669434,-13758568.76373291,-8156356.8115234375,-8403197.288513184,-2391148.090362549,-3128368.616104126,1080286.8604660034,388323.1282234192,-3295610.4278564453,-5437154.769897461,-6537650.585174561,-15338688.850402832,-5920674.800872803,-2492519.6170806885,1619513.5116577148,-1117227.6735305786,-3249622.344970703,-3722817.6593780518,-3194422.0066070557,-6360703.945159912,-12147050.857543945,-456555.038690567,-168780.66956996918,1168166.8758392334,-372798.77066612244,-4913428.783416748,-4148104.190826416,-4106591.7015075684,-5938426.971435547,-6433241.844177246,-5845288.7535095215,-7290802.001953125,-7691159.725189209,-1935246.3483810425,-5415215.015411377,-6005506.0386657715,-6115966.320037842,-5845477.104187012,-10004612.922668457,-9992015.838623047,-6811534.881591797,-2515811.4433288574,-5934757.709503174,-6946244.716644287,-5751382.827758789,-6716099.739074707,-12321019.172668457,-5430737.495422363,-5960388.18359375,-5274693.965911865
0.03,-4445908.546447754,-5241446.018218994,-2822844.7437286377,3792072.057723999,-1026935.6966018677,-11853813.171386719,-1448390.9606933594,-2529803.0376434326,-2403530.3592681885,627363.2049560547,984549.9992370605,-2187953.7105560303,-1489103.1980514526,-10305547.714233398,-9138699.531555176,-8848028.182983398,-2686298.608779907,-2575909.8529815674,1733836.6508483887,1069212.4366760254,-1785074.1147994995,-4347033.500671387,-5013679.504394531,-19916593.551635742,-7473353.862762451,-4226047.515869141,1776778.221130371,-1068109.631538391,-2789618.0152893066,-3651963.233947754,-3040120.3632354736,-4936738.49105835,-15765321.731567383,-2546653.7475585938,-3988854.40826416,967671.7519760132,-81229.91025447845,-3429412.1265411377,-3318950.414657593,-3261823.6541748047,-4354832.172393799,-9269165.0390625,-7211539.268493652,-9641609.191894531,-7842835.903167725,-1790578.1269073486,-3884308.5765838623,-4459976.673126221,-4537937.641143799,-4362733.840942383,-11064724.922180176,-11015504.837036133,-7757598.876953125,-2402194.4999694824,-4338331.22253418,-5536775.588989258,-4278876.304626465,-7546889.781951904,-11196134.567260742,-5514919.757843018,-4524548.053741455,-3631275.8922576904
0.035,-610709.8460197449,-853699.5053291321,1597098.94657135,3399127.244949341,1877826.9290924072,-8275940.895080566,568193.256855011,-1069883.942604065,-308830.6188583374,2023328.7811279297,2421610.8322143555,-246953.50229740143,420073.002576828,-7632753.849029541,-9094383.239746094,-8165239.334106445,-1891856.4319610596,-1514260.0536346436,2459260.2252960205,1970317.7213668823,270886.9278430939,-2762508.6307525635,-3067041.8739318848,-22199472.427368164,-7970299.72076416,-4680729.866027832,2655649.9004364014,-736907.422542572,-1606984.1384887695,-2378456.8309783936,-1573912.262916565,-2885637.7601623535,-17554605.48400879,-3680305.7193756104,-6331621.6468811035,1400152.6832580566,155551.86569690704,-2062646.1505889893,-2170933.485031128,-2258555.1738739014,-2477151.393890381,-10099103.927612305,-7900779.724121094,-10653743.743896484,-7547378.5400390625,-1513691.3061141968,-2340402.603149414,-2634843.8262939453,-2713433.9809417725,-2481717.348098755,-10986845.970153809,-10849130.630493164,-8924388.885498047,-2103859.9014282227,-2566436.0523223877,-3774504.6615600586,-2492752.79045105,-7298496.246337891,-9659270.286560059,-5002633.571624756,-2890188.694000244,-1883238.1963729858
0.04,3672332.0484161377,3123456.0012817383,5862431.526184082,3013478.7559509277,5149409.770965576,-2400641.2029266357,3121007.6808929443,1166829.1091918945,2307049.9897003174,3486521.9593048096,3934994.2207336426,2179292.917251587,2703257.7991485596,-4946074.962615967,-6171465.3968811035,-5092357.158660889,210860.92293262482,-60386.41184568405,2942751.407623291,2625791.072845459,2459962.3680114746,-724307.7158927917,-2053366.1842346191,-21141151.428222656,-5977188.1103515625,-3044042.3488616943,3590596.1990356445,-533228.9934158325,-628079.7123908997,-1091470.3607559204,-135470.07739543915,-1719396.2335586548,-15428993.225097656,-2678438.186645508,-6418394.565582275,2072907.6862335205,93237.17653751373,-1616422.8916168213,-1528093.5764312744,-1853947.8778839111,-1481011.6291046143,-8214880.94329834,-6600553.035736084,-9523944.854736328,-6741095.542907715,-1440458.6553573608,-1664813.2801055908,-1752962.4700546265,-1811302.1850585938,-1524514.91355896,-9420042.037963867,-9271106.719970703,-8783368.110656738,-1946853.756904602,-1695399.6419906616,-2773813.9629364014,-1498695.0159072876,-6347611.904144287,-8768507.957458496,-5068467.617034912,-2059510.9462738037,-1252195.7159042358
0.045,6349384.307861328,5304332.256317139,8627413.749694824,3221154.21295166,7325335.502624512,1514848.8283157349,3925009.250640869,2254377.3651123047,3071835.2794647217,3919796.943664551,4319781.78024292,3256331.205368042,3702503.204345703,-4001097.2023010254,-3091163.396835327,-2882909.7747802734,850276.4105796814,-163469.21026706696,2372874.7367858887,2061095.2377319336,2996269.2260742188,-49219.88397836685,-3132245.5406188965,-19634229.66003418,-3926954.0309906006,-1583650.9466171265,3219239.4733428955,-748958.170413971,-1068944.9310302734,-1471994.7576522827,-465780.25817871094,-2713342.4282073975,-12181489.944458008,-666404.4260978699,-5915851.593017578,2331078.052520752,-239388.51058483124,-2430868.8640594482,-2312196.731567383,-2730011.7015838623,-2405066.2517547607,-5582645.893096924,-4672184.944152832,-8100964.546203613,-6070715.427398682,-1636736.9890213013,-2391796.112060547,-2695224.5235443115,-2707747.459411621,-2504410.5052948,-8113029.479980469,-8040813.446044922,-7459096.431732178,-2077224.0161895752,-2438534.2597961426,-3490450.382232666,-2315145.0157165527,-6033312.797546387,-8716007.232666016,-5914491.653442383,-2768656.4922332764,-2335647.1061706543
0.05,3078639.030456543,1772993.0877685547,5730515.956878662,3877062.0822906494,5244954.1091918945,-1695928.5736083984,962479.5913696289,-198560.6551170349,19606.100395321846,2177793.025970459,2432985.305786133,926288.7835502625,1362594.2468643188,-6882075.786590576,-3195875.406265259,-4845057.964324951,-1785656.9290161133,-2769706.4876556396,877070.7249641418,431808.6802959442,1156799.9124526978,-1827786.2071990967,-5421951.2939453125,-19765466.690063477,-4541201.114654541,-2416725.3971099854,1586815.4764175415,-1137855.2913665771,-2604619.026184082,-3089178.8005828857,-2086134.1953277588,-4998800.277709961,-11528326.034545898,575092.613697052,-6239854.335784912,2218406.4388275146,-557055.5925369263,-3789176.9409179688,-3947079.658508301,-4198636.054992676,-4576580.52444458,-4443919.1818237305,-4553652.763366699,-8120285.0341796875,-6526799.67880249,-1865089.2972946167,-3907437.324523926,-4619568.824768066,-4614590.167999268,-4551462.173461914,-8813601.49383545,-8755475.044250488,-7013905.5252075195,-2251547.8134155273,-4092516.8991088867,-5258697.032928467,-4337632.656097412,-6806256.294250488,-8848548.889160156,-6267618.179321289,-4370492.935180664,-4142108.917236328
0.055,-2983318.567276001,-5130854.12979126,-809983.2534790039,4273490.905761719,572170.2575683594,-7888846.397399902,-2648709.774017334,-3665646.553039551,-3664319.0383911133,-25502.121075987816,102986.32830381393,-2745111.7038726807,-2369909.0480804443,-10897355.079650879,-4372765.54107666,-7893027.782440186,-4538386.344909668,-5110126.01852417,270097.3153114319,-266317.9934024811,-710005.6409835815,-4022964.0007019043,-6685004.234313965,-19962062.83569336,-6008204.460144043,-3911368.3700561523,741870.4032897949,-1257911.6821289062,-3366312.026977539,-3854673.385620117,-2881718.635559082,-6382354.259490967,-12578025.817871094,1254041.5525436401,-6722745.418548584,2470082.2830200195,-595630.2881240845,-4531533.241271973,-4805080.890655518,-4851481.914520264,-6018509.387969971,-4704688.549041748,-5780533.790588379,-8454747.200012207,-7857617.378234863,-1994214.5347595215,-4893789.768218994,-5698457.717895508,-5704159.736633301,-5699285.984039307,-10543787.002563477,-10340929.03137207,-8402646.0647583,-2246184.825897217,-5124710.559844971,-6311191.558837891,-5682234.287261963,-7767856.121063232,-8776515.96069336,-5680842.876434326,-5357387.542724609,-5021978.378295898
0.06,-2723130.941390991,-7095407.009124756,-2943207.025527954,4050922.8706359863,-755573.3323097229,-7053295.612335205,-1414829.969406128,-2653102.159500122,-2466339.588165283,441732.0489883423,548595.3092575073,-3523344.9935913086,-3263837.5759124756,-10881853.103637695,-1549690.4850006104,-5836502.552032471,-2888838.291168213,-3674490.6902313232,1920090.913772583,1427361.011505127,-85031.04001283646,-4020296.573638916,-6089325.904846191,-17651103.973388672,-4128802.2994995117,-2819746.0174560547,2188261.2705230713,-1102691.411972046,-2461480.3791046143,-3201344.9668884277,-2339168.7870025635,-6046646.1181640625,-10865988.731384277,3333515.405654907,-5883903.980255127,3520947.9331970215,-414685.4281425476,-4343771.934509277,-4460010.528564453,-4532253.265380859,-5753965.377807617,-4051578.998565674,-5121907.2341918945,-6782292.366027832,-8419389.724731445,-2106212.854385376,-4787177.562713623,-5301819.324493408,-5304990.291595459,-5257090.5685424805,-10309686.660766602,-9915106.773376465,-9599381.446838379,-2178983.9267730713,-4930796.6232299805,-5927786.827087402,-5386658.668518066,-7730830.192565918,-8422032.356262207,-5339024.066925049,-5096754.550933838,-4536530.494689941
0.065,5404261.112213135,-1483706.8319320679,1905075.5500793457,3574267.1489715576,3092075.5863189697,1794378.399848938,4617932.7964782715,3306692.123413086,3593317.747116089,3728307.008743286,3891337.8715515137,-1076191.6637420654,-865223.0501174927,-6553086.757659912,5105350.017547607,1141560.9121322632,2246901.9889831543,552652.0609855652,4482998.371124268,4046829.7004699707,1848761.4393234253,-2427337.884902954,-5117604.732513428,-13078023.910522461,1170895.2188491821,680546.5817451477,4621419.906616211,-1097667.5748825073,-1380484.4617843628,-2834450.9601593018,-2162762.8803253174,-5294158.458709717,-4995297.908782959,7536668.300628662,-3621817.5888061523,4868979.930877686,-347864.5384311676,-4035171.9856262207,-4233942.50869751,-4487439.155578613,-4856907.844543457,-890454.7095298767,-1424192.190170288,-3409658.432006836,-7375374.317169189,-2231704.7119140625,-4352777.95791626,-4605937.0040893555,-4614543.437957764,-4472869.396209717,-7205462.93258667,-6759757.041931152,-8425955.772399902,-2285023.2124328613,-4399535.179138184,-5222654.342651367,-4480855.464935303,-6480437.278747559,-7522577.285766602,-5909601.68838501,-4475126.74331665,-3807449.8176574707
0.07,12019952.774047852,4596109.390258789,6914452.075958252,3453351.0208129883,7325622.55859375,8056758.880615234,9429497.718811035,8408596.992492676,8478984.832763672,6833778.858184814,7063248.634338379,962892.5919532776,1227825.8800506592,-2822418.451309204,9642043.113708496,5982802.867889404,5483821.392059326,3017425.775527954,5474837.303161621,4949431.419372559,2056781.0535430908,-1674277.5440216064,-5225241.184234619,-8820302.963256836,5229243.755340576,3055465.4598236084,5672461.50970459,-1451241.4932250977,-1799578.309059143,-3631191.9689178467,-3060955.52444458,-5355133.533477783,805319.3688392639,11911643.028259277,-1263096.6901779175,5710093.021392822,-576524.9729156494,-4382514.953613281,-4958629.131317139,-5248425.483703613,-4716604.232788086,3239988.8038635254,2097014.1887664795,-1317414.9990081787,-6126553.058624268,-2290384.531021118,-4525482.654571533,-4775275.707244873,-4840945.720672607,-4592885.494232178,-4471138.000488281,-4155841.35055542,-6272538.661956787,-2572346.6873168945,-4511290.550231934,-5409307.00302124,-4372733.116149902,-5173569.679260254,-6263472.557067871,-6413082.122802734,-4577584.743499756,-3922329.1873931885
0.075,10587568.283081055,5085130.214691162,6541100.025177002,3930285.692214966,8143805.503845215,5144296.646118164,9570249.557495117,8844123.840332031,8628679.275512695,8060204.50592041,8366492.27142334,996550.440788269,1298416.8529510498,-2402208.089828491,8972066.879272461,4923101.425170898,4749056.816101074,1996489.7632598877,4729535.5796813965,4020606.517791748,613589.4656181335,-1841586.4706039429,-5843196.868896484,-6339985.8474731445,5216314.792633057,2671194.076538086,5289361.476898193,-1806790.7094955444,-3002178.66897583,-3935390.9492492676,-3211522.340774536,-5715172.290802002,2236337.423324585,14090074.53918457,175064.48924541473,6002769.470214844,-861359.5366477966,-5116591.930389404,-5524515.628814697,-5654466.62902832,-5158576.965332031,5092026.233673096,2097382.068634033,-2054234.9815368652,-6418094.635009766,-2297289.8483276367,-5153884.8876953125,-5428167.343139648,-5543198.585510254,-5235929.489135742,-5688059.329986572,-5574901.103973389,-6579471.111297607,-2847004.175186157,-5056533.336639404,-6129997.730255127,-4963157.653808594,-5327529.9072265625,-5818354.12979126,-6102880.954742432,-5288819.313049316,-4638786.792755127
0.08,6203464.031219482,2703897.714614868,3796891.450881958,4690675.735473633,7502714.157104492,-391617.65575408936,8210149.765014648,7470632.076263428,7150210.380554199,8637369.155883789,9070231.437683105,1107121.467590332,1334963.321685791,-3000229.3586730957,6994662.284851074,2281490.5643463135,3489649.534225464,590370.8338737488,4322192.668914795,3549305.9158325195,412238.12103271484,-1083963.8710021973,-5746681.690216064,-4984910.96496582,3555549.8600006104,1811300.6353378296,5497793.197631836,-1709140.0623321533,-3051425.2185821533,-2407047.748565674,-1375753.7603378296,-5443127.632141113,342526.1974334717,13921014.785766602,863637.6261711121,6423646.450042725,-835533.5593223572,-5472488.4033203125,-4693707.466125488,-4762043.476104736,-5216504.5738220215,3533724.546432495,-352998.822927475,-3672627.9258728027,-7777988.433837891,-2339212.656021118,-5475587.844848633,-5598673.343658447,-5657595.157623291,-5399777.412414551,-9775289.535522461,-9845617.294311523,-9819505.69152832,-2942342.519760132,-5317177.295684814,-6334973.8121032715,-5259556.770324707,-7292580.127716064,-7053538.3224487305,-5929841.5184021,-5775986.671447754,-5107170.581817627
0.085,6053428.649902344,2260992.5270080566,3400904.655456543,5113757.610321045,8011343.955993652,-320574.6114253998,8762370.109558105,7902315.139770508,7601376.533508301,9340415.954589844,9918042.182922363,2166812.4198913574,2280943.6321258545,-2501493.453979492,7662676.811218262,2625622.7493286133,4149336.814880371,1332842.3500061035,5075866.222381592,4442167.75894165,2104020.595550537,330676.22780799866,-5315734.86328125,-4440729.61807251,3207689.5236968994,2483345.7469940186,6927284.717559814,-1234156.9662094116,-1848731.1601638794,-719520.2112197876,447201.75862312317,-5061720.371246338,-1195924.4012832642,12756273.26965332,1125194.3111419678,7188084.125518799,-495165.76528549194,-5403950.214385986,-3277013.7786865234,-3575108.051300049,-5015634.059906006,579669.0583229065,-1802755.1174163818,-3842346.9066619873,-8280157.089233398,-2349642.515182495,-5458828.449249268,-5452669.620513916,-5405589.1036987305,-5235772.609710693,-12225904.46472168,-12444271.087646484,-12631801.60522461,-2819756.7462921143,-5415446.758270264,-6140543.460845947,-5226626.396179199,-10116394.996643066,-9136095.04699707,-7121427.536010742,-5925913.8107299805,-5295676.231384277
0.09,8106691.360473633,2481661.796569824,3982225.4180908203,4785401.344299316,7949102.401733398,2075501.2035369873,9057731.628417969,8264453.887939453,7976531.505584717,8523812.294006348,9158698.081970215,1779629.3497085571,1864616.7516708374,-2315034.866333008,8328911.781311035,3355236.053466797,3966480.493545532,2082536.6973876953,5213575.36315918,4761376.38092041,2850492.7158355713,-78956.84987306595,-5861043.930053711,-6110314.846038818,2859280.1094055176,3112574.815750122,7608946.800231934,-899983.9425086975,-1238419.771194458,-1224447.0119476318,-264494.77672576904,-5732102.870941162,-2195485.1150512695,11061935.424804688,552034.9740982056,7447504.52041626,-213072.59798049927,-5585117.340087891,-3041791.9158935547,-3644130.9452056885,-5529839.992523193,-1657225.1319885254,-1661348.581314087,-3266344.7856903076,-7532760.6201171875,-2191617.965698242,-5800945.75881958,-5933965.682983398,-5901466.369628906,-5676715.850830078,-11323946.952819824,-11596044.540405273,-12560657.501220703,-2562258.48197937,-6033949.851989746,-6590052.604675293,-5738054.275512695,-12785483.360290527,-10665927.88696289,-9182879.447937012,-6399843.215942383,-5870840.549468994
0.095,5952544.212341309,-217116.53470993042,2047767.6391601562,3956199.884414673,4925490.856170654,-1847559.094429016,5454272.747039795,4768326.759338379,4530322.551727295,5046121.597290039,5590125.560760498,-1235624.5517730713,-1098562.7174377441,-3954836.368560791,4091321.4683532715,-447554.20088768005,-85166.11158847809,-407069.8916912079,3169881.1054229736,2777198.076248169,951646.1491584778,-2786801.0997772217,-7223930.835723877,-10929297.44720459,-329677.61158943176,1416764.1401290894,5924740.314483643,-995904.266834259,-2175726.1753082275,-3243040.5616760254,-2624322.8912353516,-7133397.579193115,-5606122.4937438965,8333133.697509766,-1180784.7023010254,6311141.9677734375,-254160.28499603271,-6199176.31149292,-4098304.7485351562,-4735713.958740234,-6676250.457763672,-3457002.639770508,-2422024.0116119385,-4167438.03024292,-7124549.388885498,-1950852.5133132935,-6579360.485076904,-6982605.457305908,-7099906.921386719,-6634255.886077881,-10232152.938842773,-10330517.768859863,-11080265.998840332,-2331856.4891815186,-6982735.633850098,-7718157.768249512,-6798575.401306152,-14666333.198547363,-11643767.356872559,-10265136.71875,-7234619.140625,-6809415.817260742
0.1,-690714.5977020264,-5142467.498779297,-1869785.7856750488,3419711.112976074,357680.23133277893,-12007547.378540039,-779146.9097137451,-1636476.1590957642,-1713591.6948318481,549818.0985450745,909274.7569084167,-4452504.1580200195,-4294972.4197387695,-6698319.435119629,-4156061.6493225098,-7609647.274017334,-5871091.365814209,-5319947.242736816,-76431.7736029625,-468274.2655277252,-1689614.2959594727,-5384186.744689941,-7784265.041351318,-17066432.95288086,-5502922.534942627,-1588901.8774032593,3056558.609008789,-1262279.1528701782,-3593216.896057129,-4216555.118560791,-3732134.8190307617,-7663117.408752441,-11581983.56628418,5103562.355041504,-3210414.6480560303,4195038.795471191,-478417.7839756012,-6447333.335876465,-4931328.296661377,-5302429.676055908,-7082987.7853393555,-5891969.203948975,-4991160.3927612305,-6458378.791809082,-7914540.2908325195,-1865836.3819122314,-6828837.871551514,-7310182.571411133,-7516059.875488281,-6848111.152648926,-11831741.333007812,-11510658.264160156,-10675969.123840332,-2250837.564468384,-7105973.720550537,-8149299.621582031,-7139067.17300415,-14784338.95111084,-12997304.916381836,-9089304.92401123,-7360398.292541504,-7057143.688201904
0.105,-7348668.098449707,-9900591.850280762,-6032347.679138184,3706650.733947754,-3350343.2273864746,-20416633.60595703,-5338421.821594238,-6557950.496673584,-6459657.669067383,-2851406.0974121094,-2668002.8438568115,-5968133.926391602,-5859181.4041137695,-10274896.621704102,-10433058.738708496,-12528044.700622559,-9118967.056274414,-9033414.840698242,-2478628.396987915,-2778270.0061798096,-3070921.1826324463,-6551901.817321777,-6775259.017944336,-21153348.922729492,-8928114.891052246,-2990553.379058838,1322398.7817764282,-1309166.669845581,-4340528.964996338,-3672692.5373077393,-3018143.1770324707,-6610878.944396973,-15812572.479248047,3324262.6190185547,-4084414.005279541,2563077.449798584,-586293.9357757568,-5555384.159088135,-4646626.949310303,-4727372.646331787,-5943735.122680664,-8095315.933227539,-6842866.42074585,-7653062.82043457,-8660149.574279785,-1953902.7214050293,-5789127.826690674,-6076928.13873291,-6193897.247314453,-5611052.0362854,-14217035.293579102,-13485512.733459473,-11214755.058288574,-2277204.751968384,-5781270.0271606445,-6905758.857727051,-5891310.214996338,-12271078.109741211,-14627717.018127441,-6034358.501434326,-5948238.849639893,-5820300.579071045
0.11,-11960894.584655762,-14307186.126708984,-10725550.651550293,4423346.519470215,-6097579.002380371,-23153022.76611328,-6661483.287811279,-8043315.887451172,-7915129.661560059,-4653599.739074707,-4574885.368347168,-6863032.817840576,-6754747.8675842285,-15182223.320007324,-11037664.413452148,-13109636.306762695,-9273837.089538574,-9910926.818847656,-3115970.8499908447,-3269066.572189331,-3671351.432800293,-7294950.008392334,-4946684.837341309,-21237892.150878906,-8947802.543640137,-2110811.471939087,1339640.9749984741,-1132394.790649414,-4432627.6779174805,-3098999.500274658,-2161733.1504821777,-4711126.804351807,-14918466.567993164,4204270.362854004,-3401020.5268859863,2296096.086502075,-508569.71740722656,-3747592.4491882324,-3537616.729736328,-3534495.5921173096,-3869323.253631592,-7979174.613952637,-5768967.628479004,-6504090.309143066,-8210784.912109375,-2009393.4535980225,-3867930.6507110596,-3796377.420425415,-3794377.565383911,-3541270.7328796387,-13725264.549255371,-12940090.17944336,-11278913.497924805,-2292822.83782959,-3646481.2755584717,-4563961.029052734,-3606105.089187622,-8324243.545532227,-15534304.61883545,-2852218.3895111084,-3557495.594024658,-3535026.3118743896
0.115,-13418051.719665527,-16022003.173828125,-13197614.669799805,4647393.703460693,-6697190.761566162,-23138456.344604492,-5758875.846862793,-7015033.721923828,-6998301.029205322,-4016065.5975341797,-3949616.1937713623,-7118577.95715332,-6853445.529937744,-18420894.622802734,-7470101.833343506,-12002355.575561523,-8644994.735717773,-8981119.155883789,-1850479.8412322998,-1979525.089263916,-3675082.206726074,-7212460.041046143,-3005606.174468994,-17852796.55456543,-7164855.95703125,-751019.3586349487,2157031.0592651367,-1049530.3869247437,-3832613.468170166,-2302018.404006958,-1201518.0587768555,-2701771.020889282,-10795983.31451416,6710654.258728027,-2162944.0784454346,2829831.600189209,-442700.7734775543,-2023318.5291290283,-1751108.8848114014,-1859583.3778381348,-1798646.092414856,-5386531.829833984,-3230633.25881958,-4779169.55947876,-7622797.966003418,-2022562.7422332764,-2134514.093399048,-1549706.4590454102,-1589214.80178833,-1602768.063545227,-10823816.299438477,-10401853.561401367,-11487771.987915039,-2335989.475250244,-1766108.1552505493,-2404148.578643799,-1413895.1301574707,-6256878.37600708,-15858671.188354492,-1686578.0353546143,-1595530.9867858887,-1422295.4511642456
0.12,-7380373.001098633,-8129715.919494629,-5745382.785797119,4021970.748901367,-682348.0129241943,-22444200.51574707,-2374538.1832122803,-3529623.7468719482,-3602672.1000671387,1269415.9746170044,1427595.2577590942,-3410015.106201172,-2920554.3994903564,-14354632.377624512,-2883124.589920044,-11053462.982177734,-7593214.03503418,-6930702.209472656,1556658.387184143,1307341.5756225586,-1013787.9848480225,-3621978.282928467,-1194989.4428253174,-13052428.245544434,-5266489.505767822,9398.484602570534,3282036.066055298,-1229653.239250183,-1816415.6675338745,683578.8488388062,1741576.910018921,-937123.715877533,-7973572.254180908,8794847.48840332,-1366580.605506897,3086180.9253692627,-571156.6209793091,-1407973.289489746,715317.3685073853,444409.3406200409,-359435.46891212463,-2879563.331604004,-2513396.739959717,-4803159.713745117,-8723761.558532715,-2259025.0968933105,-1504258.8710784912,-317850.5003452301,-504614.2339706421,-478027.22454071045,-9969432.830810547,-10006074.905395508,-13880756.378173828,-2594719.171524048,-950453.9966583252,-1411042.332649231,-223810.55355072021,-8119171.142578125,-17200037.002563477,-3606998.920440674,-1178394.079208374,-658701.5986442566
0.125,7753623.485565186,11019718.170166016,13411209.106445312,3191647.76802063,12899826.049804688,-20027732.849121094,3954175.2338409424,2703307.867050171,2682458.8775634766,10811696.05255127,11142513.275146484,5182181.358337402,5736471.176147461,-3277127.0275115967,560008.4662437439,-9554435.729980469,-4723782.539367676,-3561927.7954101562,6323387.622833252,5992866.039276123,4836134.910583496,3260091.543197632,-532981.6341400146,-9497920.036315918,-3646515.130996704,705322.802066803,4964879.035949707,-1482414.1263961792,1335495.5911636353,5324174.404144287,6193935.871124268,-434543.07317733765,-8513980.865478516,9258711.814880371,-1090295.672416687,2721896.6484069824,-845386.5647315979,-2471655.84564209,2580389.2612457275,2215966.7015075684,-431434.42273139954,-3237373.113632202,-4873364.448547363,-6719808.101654053,-11379586.219787598,-2776280.8799743652,-2525127.172470093,-1026691.198348999,-1258038.5208129883,-940036.5948677063,-13745260.238647461,-13978312.492370605,-18474201.202392578,-3087847.2328186035,-1866121.4113235474,-2242672.4433898926,-857102.9305458069,-12171376.22833252,-20384674.072265625,-7503571.9871521,-2676136.9705200195,-1932212.233543396
0.13,22961441.040039062,29550035.47668457,31893947.60131836,2979374.1703033447,25605356.216430664,-17505889.892578125,9833729.74395752,8510180.473327637,8653774.26147461,18735694.885253906,19227325.439453125,12676502.227783203,13058054.92401123,5653720.378875732,1056284.0700149536,-8078412.055969238,-1218692.0642852783,-189567.07417964935,9700190.544128418,9440089.225769043,9616324.424743652,7910675.525665283,-2301338.4342193604,-9588027.000427246,-3182974.338531494,1212304.5921325684,6754401.683807373,-1520436.7637634277,3428231.954574585,7575177.6695251465,8266120.910644531,-2305429.697036743,-11215286.254882812,7997462.749481201,-1273399.4722366333,2066366.43409729,-1040693.2830810547,-4851362.228393555,1918824.0766525269,1578670.2632904053,-2653109.073638916,-7137501.7166137695,-8830076.217651367,-9075207.710266113,-13637782.096862793,-3167546.510696411,-4992601.8714904785,-3801435.947418213,-3940225.839614868,-3343128.442764282,-19696653.366088867,-19827606.201171875,-22700704.57458496,-3494820.8332061768,-4524605.274200439,-4840339.660644531,-3520316.8392181396,-15138972.282409668,-24073024.74975586,-10821022.033691406,-5509146.690368652,-4839732.646942139
0.135,26247068.405151367,33249832.153320312,35316627.502441406,3411529.302597046,27390047.073364258,-19190668.1060791,10086772.918701172,8904774.66583252,9225859.642028809,18763826.370239258,19303270.33996582,12444517.135620117,12612380.981445312,4945160.865783691,-2272062.063217163,-9154125.213623047,-701798.7966537476,475860.20827293396,9209022.521972656,9056170.463562012,8703453.063964844,5891111.373901367,-5485287.189483643,-13603081.703186035,-5364946.365356445,100120.93186378479,7353306.293487549,-1285035.9678268433,2707472.801208496,5045908.451080322,5726012.706756592,-5441108.703613281,-14247672.080993652,5444192.409515381,-2450867.6528930664,1283302.4263381958,-975064.9929046631,-6936086.177825928,-1016518.7120437622,-1244166.8510437012,-5676990.032196045,-13165295.600891113,-12241448.402404785,-10899953.842163086,-14218783.378601074,-3024090.528488159,-7342562.675476074,-6765537.738800049,-6878137.588500977,-6208794.116973877,-23544414.520263672,-23499723.434448242,-24387889.862060547,-3443342.447280884,-7247667.7894592285,-7511381.62612915,-6557466.506958008,-16077514.6484375,-26101314.544677734,-11799430.847167969,-7932236.671447754,-7436323.165893555
0.14,17702630.9967041,23014783.85925293,24940509.796142578,3843445.5394744873,18932004.928588867,-25007745.74279785,4394584.178924561,3372162.103652954,3831773.042678833,11555529.594421387,12039169.311523438,5931941.032409668,6062905.311584473,-1768201.7087936401,-7532286.167144775,-13069184.303283691,-4225691.795349121,-2349370.7180023193,5591776.8478393555,5429907.79876709,3425402.4028778076,91405.98028898239,-6968592.643737793,-18831611.63330078,-9863468.170166016,-3031660.318374634,6244583.1298828125,-968380.9280395508,297999.38201904297,669817.2092437744,1499650.3591537476,-6852070.8084106445,-16837217.330932617,2558165.0733947754,-4735750.675201416,273725.83746910095,-682635.7245445251,-7016344.07043457,-3442208.0516815186,-3566759.8247528076,-6756175.994873047,-19140619.2779541,-13953518.867492676,-12157264.709472656,-13687213.897705078,-2464803.93409729,-7658164.501190186,-7301281.452178955,-7607579.231262207,-7032367.706298828,-23923002.243041992,-23786251.068115234,-23852287.29248047,-2932930.9463500977,-7717012.405395508,-7976870.536804199,-7386381.62612915,-16632696.151733398,-25811571.12121582,-10881569.862365723,-8161574.363708496,-7663496.494293213
0.145,8636837.95928955,12333962.440490723,14400446.891784668,3890363.6932373047,10088948.249816895,-29958297.729492188,-1965099.811553955,-3081998.109817505,-2530156.6123962402,3849265.5754089355,4292919.635772705,410016.86453819275,616062.8795623779,-5928375.244140625,-11566228.866577148,-16793920.516967773,-8603399.276733398,-6230605.125427246,2117390.8710479736,1847365.6177520752,-568618.11876297,-3183384.418487549,-5747771.739959717,-22046804.428100586,-14192452.430725098,-6388543.128967285,4528309.8220825195,-787518.0840492249,-1120633.602142334,-1099565.029144287,-183469.4892168045,-5666548.728942871,-19055360.794067383,581358.3731651306,-6706657.409667969,-678976.7742156982,-378309.2498779297,-5477001.190185547,-3587756.633758545,-3705081.7012786865,-5373458.385467529,-23564403.533935547,-14149645.805358887,-12898672.103881836,-13212925.910949707,-1965193.9868927002,-6164527.416229248,-5521795.272827148,-6114753.246307373,-5621129.512786865,-23104867.935180664,-22924301.147460938,-22970661.163330078,-2360338.4494781494,-6058562.278747559,-6412209.510803223,-5836773.872375488,-18376525.87890625,-24907546.997070312,-10008154.86907959,-6666405.200958252,-6031880.3787231445
0.15,5719147.205352783,8762516.975402832,10960714.340209961,3825273.036956787,6959489.822387695,-32352767.944335938,-4768364.906311035,-6108666.41998291,-5552239.418029785,695257.7233314514,1189231.8725585938,-609775.8412361145,-454258.7995529175,-6003951.072692871,-13797255.516052246,-18471485.137939453,-10701364.517211914,-8332542.419433594,1096749.0673065186,738416.0757064819,-560516.893863678,-2454381.7043304443,-4892505.168914795,-22937177.658081055,-16781192.779541016,-8166296.95892334,3718954.8015594482,-784015.1786804199,-549355.6261062622,121945.74624300003,881589.1742706299,-4891734.600067139,-21401277.542114258,-162907.06396102905,-6699906.826019287,-922460.2580070496,-243155.3155183792,-4927811.145782471,-2915013.551712036,-3111852.6458740234,-4613621.234893799,-26765224.45678711,-14232375.144958496,-13235806.465148926,-13317809.104919434,-1795943.1409835815,-5593739.986419678,-4864436.626434326,-5561481.952667236,-5062380.313873291,-24127277.374267578,-23896926.879882812,-23453563.690185547,-2131908.655166626,-5435839.653015137,-5970917.701721191,-5057222.366333008,-21726106.643676758,-26246482.849121094,-11022915.840148926,-6321797.847747803,-5682115.55480957
0.155,4825149.5361328125,7679864.406585693,9987579.345703125,4010568.618774414,6844269.275665283,-36118900.299072266,-4913805.4847717285,-6224151.611328125,-5805003.643035889,1359287.0235443115,1920091.986656189,95857.05399513245,66891.34240150452,-6825735.569000244,-16133211.135864258,-19733144.760131836,-10806035.995483398,-8202984.809875488,2065770.6260681152,1700805.902481079,1001969.0990447998,-1404863.4767532349,-7308453.08303833,-23782571.79260254,-18569229.125976562,-8601856.231689453,4191577.434539795,-828161.9548797607,701082.3488235474,1321023.8218307495,1819580.5549621582,-7315061.092376709,-24272207.260131836,-802388.9064788818,-5254506.587982178,-377824.5151042938,-265312.6120567322,-7091803.550720215,-3521014.69039917,-3809330.940246582,-7150875.091552734,-30464050.29296875,-15837765.69366455,-13852369.30847168,-13951168.060302734,-1856782.6747894287,-7821063.041687012,-7718773.365020752,-8230596.542358398,-7769906.044006348,-27880128.860473633,-27646221.160888672,-25962745.666503906,-2316329.002380371,-8100259.780883789,-8787855.14831543,-7530847.549438477,-26609384.536743164,-31159820.556640625,-14460766.792297363,-8989594.459533691,-8558094.97833252
0.16,1943016.8867111206,4781957.149505615,7596124.649047852,4305302.143096924,6068290.710449219,-42570564.27001953,-5054428.1005859375,-6001708.030700684,-5792647.361755371,2612281.322479248,3147491.693496704,-151321.94757461548,-212750.27096271515,-9508679.389953613,-18844093.322753906,-21994285.583496094,-10688848.495483398,-7250603.199005127,3113948.345184326,2830430.030822754,1376384.7351074219,-2166766.1666870117,-11252539.63470459,-25799682.6171875,-20607166.290283203,-8910217.28515625,5067378.044128418,-794446.2299346924,1252659.559249878,974315.9413337708,1406501.054763794,-11211935.043334961,-27016733.169555664,-2415456.771850586,-4908388.614654541,90899.31100606918,-323233.39581489563,-10300507.545471191,-4892870.903015137,-5243320.941925049,-11214937.210083008,-35345729.82788086,-19027973.175048828,-15395884.51385498,-14851071.35772705,-1980625.6294250488,-11085145.950317383,-11863955.4977417,-12066011.428833008,-11829751.968383789,-32461208.34350586,-32323558.807373047,-29640197.75390625,-2666752.815246582,-12047569.274902344,-12721793.174743652,-11435527.801513672,-32037544.25048828,-37427368.1640625,-19020647.048950195,-12757522.583007812,-12538491.249084473
0.165,570485.0554466248,3717700.0045776367,7320475.5783081055,4282454.967498779,5641901.016235352,-46409931.18286133,-5600486.755371094,-6211304.664611816,-6076472.282409668,2786530.9715270996,3239032.983779907,-352545.0825691223,-138747.30467796326,-9849148.750305176,-19531270.98083496,-23526931.762695312,-10678939.819335938,-6779736.518859863,2904905.319213867,2785738.706588745,1024302.9594421387,-2876816.987991333,-12752356.52923584,-27455263.137817383,-21905042.64831543,-9279540.061950684,5306985.855102539,-724207.4608802795,1098204.9703598022,368637.7704143524,974850.8334159851,-12682214.736938477,-28077217.10205078,-4357994.556427002,-6984896.183013916,-281949.81813430786,-376680.97019195557,-11540543.556213379,-5138074.3980407715,-5519212.72277832,-12906128.883361816,-39576702.11791992,-21897323.608398438,-17314369.201660156,-15558320.999145508,-2148497.8199005127,-12246124.267578125,-13357993.125915527,-13355652.809143066,-13439445.495605469,-35051464.08081055,-35058105.46875,-32492687.225341797,-2909566.1640167236,-13591640.47241211,-14107137.680053711,-13059946.060180664,-35466026.306152344,-40821758.27026367,-22296037.673950195,-14271429.061889648,-14073952.674865723
0.17,3960739.850997925,7327514.171600342,11005262.37487793,3819899.559020996,6921684.741973877,-43936866.760253906,-5707992.5537109375,-6329565.048217773,-6008559.226989746,1972644.2098617554,2425058.364868164,520909.6670150757,1055385.2319717407,-6787651.062011719,-17077133.178710938,-22388113.021850586,-10206217.765808105,-7195806.503295898,1526833.415031433,1575273.3945846558,1367830.8725357056,-2090842.0085906982,-11339574.813842773,-26855327.606201172,-21088905.334472656,-9072534.561157227,4719419.479370117,-774547.3980903625,753528.0585289001,567313.8499259949,1319631.576538086,-11245337.48626709,-26699869.15588379,-4889370.441436768,-9674635.887145996,-1066810.6079101562,-487533.47992897034,-10461207.389831543,-4280753.612518311,-4643193.244934082,-11631378.173828125,-40844341.27807617,-22648553.8482666,-18147928.23791504,-15741590.49987793,-2372560.2626800537,-11090777.397155762,-11919455.528259277,-11872817.993164062,-12104220.390319824,-34642452.239990234,-34740390.77758789,-33224742.889404297,-2965183.973312378,-12384854.316711426,-12775931.358337402,-11914000.511169434,-34749942.779541016,-39560058.59375,-22784717.559814453,-13178257.942199707,-12866261.48223877
0.175,8405046.463012695,11029386.520385742,13497921.94366455,3247927.665710449,7996361.255645752,-39275054.931640625,-5271431.922912598,-6141269.207000732,-5538128.852844238,1126876.4734268188,1680868.8640594482,1184276.7000198364,1730661.7498397827,-4805613.040924072,-13624633.7890625,-19680130.004882812,-9415076.25579834,-7969926.357269287,385442.46554374695,466849.05886650085,2176066.6370391846,-1268416.166305542,-10183345.794677734,-24233041.763305664,-18740636.825561523,-8236126.899719238,4081381.7977905273,-977126.955986023,296246.64783477783,856464.8628234863,1547970.4141616821,-10062111.854553223,-23820564.27001953,-3261618.6141967773,-10354759.216308594,-1140043.85471344,-666380.4650306702,-9505512.237548828,-4070983.409881592,-4358375.549316406,-10413463.592529297,-39477832.79418945,-21459142.684936523,-17180540.084838867,-15676399.230957031,-2565909.6240997314,-10247088.432312012,-10764252.662658691,-10731717.109680176,-10802189.826965332,-32803119.659423828,-32885086.059570312,-32608615.87524414,-2920806.646347046,-11380752.563476562,-11782334.327697754,-10854062.0803833,-30943664.55078125,-36288955.68847656,-21284376.14440918,-12133657.455444336,-11743728.637695312
0.18,9981779.098510742,10950518.608093262,11889146.80480957,2990670.919418335,7871317.8634643555,-37652999.87792969,-4099167.823791504,-5130389.69039917,-4440310.478210449,1973062.8728866577,2575088.7393951416,1250287.413597107,1531707.525253296,-5904445.171356201,-11222721.099853516,-17582149.505615234,-8620223.045349121,-7878340.244293213,1066091.4182662964,1046288.6095046997,2783742.1894073486,-1469309.5684051514,-10708422.660827637,-21131071.090698242,-16515697.479248047,-7334875.106811523,4267236.232757568,-1128319.8595046997,-303126.3053417206,646471.3215827942,1220902.8005599976,-10643882.751464844,-20635078.43017578,-364514.5893096924,-8919714.92767334,-158366.91856384277,-803092.9565429688,-10015019.416809082,-4863770.008087158,-5099919.79598999,-10839676.856994629,-37913066.86401367,-19591316.22314453,-15130476.951599121,-15841856.002807617,-2619568.347930908,-10901226.997375488,-11334329.605102539,-11314796.447753906,-11075490.951538086,-31408166.885375977,-31373523.712158203,-32044940.948486328,-2852950.5729675293,-11943659.782409668,-12376267.433166504,-11283599.853515625,-27198957.443237305,-34404304.50439453,-19521022.79663086,-12430725.09765625,-12046689.0335083
0.185,11484109.878540039,11164974.212646484,11706121.444702148,3213892.698287964,9337187.767028809,-37444873.80981445,-1461036.205291748,-2474056.2438964844,-1949809.9088668823,5501379.96673584,6009329.319000244,2891453.742980957,2956891.0598754883,-5788249.0158081055,-9143991.470336914,-16178636.55090332,-7433965.682983398,-6278739.452362061,3423395.872116089,3377730.60798645,3709576.8451690674,-1065527.6775360107,-10535039.901733398,-18303773.880004883,-14962592.124938965,-6609005.928039551,5166041.374206543,-1015422.7018356323,-741628.3488273621,720324.0990638733,1325299.5014190674,-10634821.891784668,-17330642.700195312,2472605.9436798096,-7512590.8851623535,1020000.9346008301,-782806.5752983093,-10336421.966552734,-4946837.425231934,-5269446.37298584,-10804121.971130371,-37265079.498291016,-17690103.53088379,-13098711.967468262,-16089445.114135742,-2522147.6554870605,-11077489.852905273,-11283906.936645508,-11321921.348571777,-10891821.86126709,-30325756.072998047,-30139741.897583008,-31301010.131835938,-2738409.5191955566,-11880868.911743164,-12239366.53137207,-11157670.021057129,-24832183.837890625,-33652675.62866211,-17705572.1282959,-12152019.500732422,-11774383.544921875
0.19,16233652.114868164,15934939.38446045,17250528.33557129,3736341.953277588,13797705.65032959,-34551551.818847656,1825859.6658706665,833965.6591415405,1149495.005607605,9709431.648254395,10127304.077148438,6899741.172790527,6936880.111694336,-1383144.9747085571,-6388749.599456787,-14666625.9765625,-5874559.40246582,-4452118.873596191,5187979.221343994,5320076.942443848,5321567.058563232,1210681.2000274658,-7822293.281555176,-15681024.551391602,-13788270.950317383,-6060090.5418396,5746805.191040039,-723722.9943275452,-818472.6238250732,1695155.382156372,2419436.21635437,-8040101.051330566,-14146941.184997559,4399662.017822266,-7468681.335449219,1470860.1236343384,-621965.5871391296,-8753059.387207031,-3386257.8868865967,-3908736.7057800293,-8403732.299804688,-36372261.04736328,-16250728.607177734,-11618433.952331543,-15969934.463500977,-2367382.287979126,-9082635.879516602,-8689725.875854492,-8829360.961914062,-8437749.862670898,-28428045.27282715,-28182357.788085938,-29274976.73034668,-2569474.697113037,-9358389.854431152,-9623145.10345459,-8752616.882324219,-22633747.100830078,-31482519.149780273,-14826834.678649902,-9671682.357788086,-9253563.88092041
0.195,20136356.353759766,20510166.16821289,22387109.756469727,4115530.014038086,17114599.227905273,-30912296.295166016,2931135.416030884,1857386.1122131348,2070055.0079345703,10952421.188354492,11457572.937011719,10061557.76977539,10088242.530822754,3106203.79447937,-4496815.204620361,-14042896.270751953,-5326574.325561523,-4542669.296264648,4442364.21585083,4754065.990447998,6373223.781585693,3444327.8312683105,-4722012.996673584,-13630543.70880127,-13460871.696472168,-6190719.127655029,5391945.838928223,-591513.9317512512,-873498.6186027527,2735836.2674713135,3481226.921081543,-4901826.858520508,-12480744.361877441,4901921.74911499,-8033239.364624023,1243774.8908996582,-466720.6108570099,-6497816.562652588,-1696942.4486160278,-2343664.6461486816,-5469227.7908325195,-34503314.97192383,-16764411.926269531,-10965104.103088379,-15823606.491088867,-2285872.459411621,-6521625.518798828,-5566855.907440186,-5742379.188537598,-5517809.867858887,-26189756.393432617,-26052530.28869629,-26611524.58190918,-2471465.3491973877,-6291820.526123047,-6603195.667266846,-5914887.428283691,-20201080.322265625,-27743247.985839844,-11278240.203857422,-6771332.263946533,-6318333.148956299
0.2,17046850.204467773,17309467.315673828,18566209.79309082,3949820.9953308105,14715905.18951416,-32037437.438964844,396295.6368923187,-747227.1919250488,-604839.3249511719,8241228.103637695,8916984.558105469,8982823.371887207,8917536.735534668,1904807.448387146,-5542775.630950928,-15853832.244873047,-6978723.526000977,-6883004.665374756,1937960.8631134033,2152398.8246917725,5450567.722320557,2934846.6396331787,-4502350.807189941,-12908177.375793457,-14775557.518005371,-7567905.426025391,4699242.115020752,-813889.3842697144,-1433402.8959274292,2674086.093902588,3319378.614425659,-4628591.537475586,-13415064.811706543,3881991.6248321533,-8112104.415893555,1022814.154624939,-468881.0408115387,-6157821.6552734375,-1803713.6793136597,-2351369.1425323486,-5167265.41519165,-32976623.53515625,-20353038.787841797,-11498063.087463379,-16517448.425292969,-2350705.146789551,-6186436.176300049,-5201437.473297119,-5311653.137207031,-5206462.860107422,-25523914.337158203,-25546443.939208984,-25465797.424316406,-2581141.710281372,-5882761.001586914,-6336102.00881958,-5662129.878997803,-19317289.352416992,-25137742.99621582,-9326134.68170166,-6399442.672729492,-5965198.516845703
0.205,8709766.387939453,7564674.377441406,7481901.6456604,3324260.950088501,7957113.265991211,-37926502.2277832,-3835200.786590576,-4930292.60635376,-4890622.138977051,4027342.7963256836,4693931.579589844,4318740.367889404,4258992.1951293945,-4357326.030731201,-8846873.28338623,-19204977.03552246,-10031102.180480957,-9654508.590698242,-284905.7614803314,-361999.86934661865,2854470.0145721436,-271725.95262527466,-7179737.091064453,-13474729.537963867,-17155626.29699707,-9670579.91027832,4461414.813995361,-1181264.2812728882,-2668674.945831299,1349989.5334243774,1885047.9125976562,-7397956.848144531,-15765716.552734375,2200400.1140594482,-7786582.946777344,1156716.4659500122,-638716.459274292,-8105572.700500488,-3612257.957458496,-3920753.240585327,-7699379.444122314,-33142024.993896484,-25401977.5390625,-13042307.85369873,-17886651.99279785,-2491251.230239868,-8280405.044555664,-7721220.49331665,-7822412.490844727,-7681601.524353027,-27019521.713256836,-27046409.606933594,-26392829.89501953,-2817714.9295806885,-8324282.646179199,-8815109.252929688,-8103422.164916992,-21021440.505981445,-25043754.57763672,-10225058.555603027,-8682783.126831055,-8290699.005126953
0.21,2347844.123840332,-620860.0997924805,-1848986.6256713867,2872592.4491882324,1650222.659111023,-42834564.208984375,-7365269.184112549,-8406491.27960205,-8361301.422119141,262778.6993980408,695739.8056983948,-813593.0299758911,-630402.0881652832,-10462484.359741211,-11958925.247192383,-21584300.994873047,-12674832.344055176,-11536268.23425293,-1855823.278427124,-2066310.6441497803,-55166.11412167549,-3974211.6928100586,-10061213.493347168,-14266551.971435547,-18958433.151245117,-11098514.556884766,4384778.022766113,-1303174.2572784424,-4244620.800018311,-671699.3451118469,-218901.54480934143,-10380057.334899902,-17221565.24658203,1271312.5944137573,-7545754.432678223,1445885.7774734497,-800027.6684761047,-10242250.442504883,-5454450.1304626465,-5617416.3818359375,-10452460.289001465,-34338249.20654297,-28568470.001220703,-14506123.542785645,-18569301.60522461,-2537623.167037964,-10517679.214477539,-10414272.30834961,-10692914.962768555,-10392449.378967285,-28995504.37927246,-28866687.774658203,-27552503.58581543,-2924985.885620117,-10964672.088623047,-11359155.654907227,-10683252.334594727,-23471771.240234375,-25753202.438354492,-12351047.51586914,-11104094.505310059,-10709526.062011719
0.215,609198.6298561096,-3321345.567703247,-5350819.110870361,3128073.6923217773,-1970177.6504516602,-43627010.345458984,-10089092.254638672,-11271585.464477539,-10940387.725830078,-3273529.052734375,-3023526.191711426,-4383522.987365723,-3938377.1419525146,-13504365.921020508,-13699190.139770508,-22110090.255737305,-14108717.918395996,-12977657.318115234,-3685024.9767303467,-3783562.421798706,-2322785.6159210205,-6459955.215454102,-11352403.64074707,-14132771.492004395,-19355075.83618164,-11000649.452209473,3766422.2717285156,-1053022.1462249756,-5399789.333343506,-2679085.0162506104,-2294585.943222046,-11523751.258850098,-17085380.55419922,1732833.743095398,-7103332.51953125,1747041.3446426392,-750114.3217086792,-10873328.20892334,-6027271.270751953,-6269181.728363037,-11497373.580932617,-34950504.302978516,-28576356.887817383,-14818388.938903809,-17936117.17224121,-2418747.663497925,-11251163.482666016,-11429935.455322266,-11917314.529418945,-11478401.184082031,-29748237.60986328,-29535825.729370117,-27709201.81274414,-2799048.900604248,-11873594.284057617,-12250999.450683594,-11590189.933776855,-24164581.298828125,-25560367.584228516,-13251739.501953125,-11900889.39666748,-11426453.590393066
0.22,587553.7395477295,-2925437.6888275146,-5825096.607208252,3840285.062789917,-3093548.7747192383,-42630439.75830078,-12167352.676391602,-13705966.94946289,-12859424.591064453,-5789158.344268799,-5439549.446105957,-5447547.912597656,-5070188.999176025,-13868842.124938965,-14160897.254943848,-21724552.154541016,-14437206.268310547,-14156934.73815918,-5047282.695770264,-5103976.726531982,-3241823.434829712,-7001311.779022217,-11211057.662963867,-12644933.700561523,-18651250.8392334,-9587718.963623047,3101903.4385681152,-702176.3324737549,-5294770.71762085,-3689596.176147461,-3297278.881072998,-11061553.001403809,-16361051.559448242,3004271.2688446045,-5922618.389129639,2324192.762374878,-509070.15800476074,-10253143.310546875,-5134238.243103027,-5580321.311950684,-11006217.002868652,-34425811.767578125,-27337118.14880371,-14003353.118896484,-17080221.17614746,-2261501.7890930176,-10787626.266479492,-11097332.000732422,-11560877.799987793,-11123978.614807129,-29313302.993774414,-29213241.577148438,-27966453.552246094,-2631111.8602752686,-11326719.284057617,-11900431.632995605,-11099555.969238281,-22860296.24938965,-24997541.427612305,-12491336.822509766,-11431315.422058105,-10820053.100585938
0.225,1499439.1202926636,-813388.7052536011,-4728820.323944092,4227668.762207031,-914412.8561019897,-41606174.46899414,-11709360.122680664,-13613919.258117676,-12266306.87713623,-4334624.767303467,-3729709.6252441406,-3127697.229385376,-3150769.9489593506,-11671137.809753418,-12918175.69732666,-20598131.17980957,-13400035.858154297,-13560452.461242676,-3656365.156173706,-3929190.3972625732,-2024954.080581665,-5298718.9292907715,-10208553.314208984,-10457036.018371582,-17057910.919189453,-7330997.943878174,3746033.4300994873,-588728.129863739,-3794510.3645324707,-3003221.9886779785,-2490603.9237976074,-9940911.293029785,-15584180.83190918,4148499.011993408,-4496512.413024902,3416757.345199585,-322276.35383605957,-9391958.236694336,-3349520.444869995,-3913722.276687622,-9839851.379394531,-33559814.453125,-26826534.271240234,-12882806.777954102,-17104482.650756836,-2197310.68611145,-10009551.048278809,-10240690.231323242,-10473759.651184082,-10129727.363586426,-28510354.99572754,-28531160.354614258,-29407489.776611328,-2611586.809158325,-10291499.137878418,-11114204.406738281,-10122981.071472168,-21323030.471801758,-24931636.810302734,-11596202.850341797,-10615278.244018555,-9885351.181030273
0.23,5948550.701141357,4440860.271453857,-262641.7279243469,3972976.4461517334,4739796.6384887695,-38576587.67700195,-7600811.958312988,-9628392.219543457,-8039932.2509765625,1492032.527923584,2199434.757232666,1576074.481010437,1204103.2314300537,-6966182.231903076,-9850371.360778809,-17962148.666381836,-10886199.951171875,-10278485.298156738,624435.7824325562,181836.67957782745,942581.057548523,-2376017.0936584473,-8879279.136657715,-9144512.176513672,-14740863.800048828,-4698908.805847168,5730731.48727417,-730348.6466407776,-1915134.7875595093,-1546813.8456344604,-943323.8506317139,-8851529.121398926,-14399376.86920166,4504723.54888916,-4220846.652984619,4654060.363769531,-342477.9176712036,-8824638.366699219,-1792225.0032424927,-2294826.7459869385,-8698855.40008545,-33672637.939453125,-26668306.350708008,-12056019.78302002,-17453758.239746094,-2160821.6762542725,-9371089.935302734,-9297557.830810547,-9385413.16986084,-9076034.545898438,-27639141.082763672,-27577661.514282227,-30864799.49951172,-2635676.145553589,-9374832.153320312,-10257881.164550781,-9261948.585510254,-21283140.182495117,-24792406.08215332,-12009469.985961914,-9893431.663513184,-9177379.608154297
0.235,12923387.52746582,11134501.457214355,6137738.227844238,3612444.1623687744,9981354.713439941,-32750915.52734375,-3083441.972732544,-4880125.522613525,-3438749.313354492,6686440.467834473,7258643.15032959,4896774.2919921875,4540725.231170654,-2391648.292541504,-7038684.844970703,-14675703.048706055,-8401879.31060791,-6476679.801940918,4484966.278076172,4282518.8636779785,3520616.054534912,-772568.2258605957,-8301237.106323242,-9869340.896606445,-12983684.539794922,-2821898.937225342,7153563.976287842,-839380.2046775818,-959139.2278671265,-1409369.5878982544,-886094.9277877808,-8586097.717285156,-13299203.872680664,3559334.5165252686,-5887630.939483643,5137105.941772461,-429091.27473831177,-8761372.566223145,-1575627.088546753,-1957449.3169784546,-8438570.022583008,-35779190.06347656,-25811977.38647461,-11709621.42944336,-17078632.354736328,-2034795.5226898193,-9240168.571472168,-8937063.217163086,-9072816.848754883,-8714015.007019043,-26845991.134643555,-26598386.764526367,-30702945.709228516,-2490588.426589966,-9162183.76159668,-9906627.655029297,-9106345.176696777,-23172147.750854492,-23991106.033325195,-13782089.233398438,-9692777.633666992,-9172449.111938477
0.24,16182615.280151367,13593643.188476562,8760800.3616333,3740483.9992523193,10161581.039428711,-28213071.823120117,-2930790.1859283447,-4254437.446594238,-3268729.9251556396,6326462.268829346,6748005.8670043945,4300905.704498291,4219110.012054443,-1188914.6566390991,-7202278.137207031,-13481081.008911133,-8289548.873901367,-5520242.214202881,5074895.858764648,5341028.213500977,4024857.521057129,-1759968.638420105,-9096809.387207031,-11722942.352294922,-13522319.793701172,-3153912.06741333,6473838.806152344,-712331.4142227173,-1134063.0054473877,-3096428.871154785,-2695099.8306274414,-9440912.246704102,-13792816.162109375,1190103.7693023682,-8659349.44152832,4269852.161407471,-385628.7896633148,-9206450.462341309,-2586728.572845459,-2976477.1461486816,-9386799.812316895,-39459396.36230469,-24943761.825561523,-12108719.825744629,-16432979.583740234,-1922096.2524414062,-9770178.79486084,-9608067.512512207,-9766162.872314453,-9412535.667419434,-26684583.66394043,-26401018.142700195,-29580766.677856445,-2253381.2522888184,-9868998.527526855,-10461080.551147461,-9820022.583007812,-25720232.009887695,-23210542.678833008,-15598763.465881348,-10240630.149841309,-9966147.422790527
0.245,12049276.351928711,9478761.672973633,5147077.0835876465,4145860.195159912,6294697.284698486,-29596143.72253418,-7312028.884887695,-8193207.740783691,-7661995.887756348,2160657.1674346924,2645275.354385376,2025668.8594818115,2124308.1092834473,-2769628.2863616943,-10221313.4765625,-15803929.328918457,-11017009.735107422,-7925107.479095459,3509118.5569763184,3932627.6779174805,3281967.878341675,-3339093.6851501465,-10080714.225769043,-12395998.95477295,-16223005.294799805,-5645466.8045043945,4581495.28503418,-477491.73641204834,-1544058.918952942,-4432575.225830078,-3949716.806411743,-10258633.613586426,-16352075.576782227,-1685898.3039855957,-10613121.98638916,2591749.1912841797,-250889.6291255951,-9616792.678833008,-3336809.3967437744,-3871006.965637207,-10360155.10559082,-42535427.09350586,-25632640.838623047,-13488896.369934082,-16869804.38232422,-2028049.7074127197,-10299300.193786621,-10408834.457397461,-10423341.751098633,-10208787.91809082,-27591175.079345703,-27450614.92919922,-29638380.05065918,-2238606.2145233154,-10583862.3046875,-11108658.790588379,-10443902.015686035,-26790126.80053711,-23139743.80493164,-15820907.592773438,-10793436.050415039,-10590048.789978027
0.25,4407574.17678833,3242507.4577331543,-490709.2750072479,4132986.545562744,3790608.1676483154,-36120403.28979492,-11447173.118591309,-12139533.996582031,-11762166.023254395,-4386.833403259516,714833.2595825195,1636206.1500549316,1639479.637145996,-3928650.6175994873,-13206744.194030762,-19824464.797973633,-14262022.018432617,-10833969.116210938,2742218.494415283,2854847.9080200195,3004688.9781951904,-3094029.188156128,-9825961.112976074,-11202047.348022461,-18774141.311645508,-8004468.91784668,3638227.939605713,-376131.92200660706,-1614537.4774932861,-3512014.389038086,-2794670.581817627,-9837425.231933594,-19604093.551635742,-3615794.6586608887,-10330141.067504883,1607160.9258651733,-159801.185131073,-9496077.537536621,-2900121.9272613525,-3514752.3880004883,-10082327.842712402,-43413421.630859375,-27895540.237426758,-15365963.93585205,-18326471.32873535,-2265844.5835113525,-10148204.803466797,-10185400.009155273,-10100704.193115234,-10029856.68182373,-29515022.27783203,-29505363.46435547,-31541120.529174805,-2510926.2466430664,-10391025.54321289,-10871278.762817383,-10116078.37677002,-26085613.250732422,-23595895.767211914,-14437622.0703125,-10579315.185546875,-10224979.400634766
0.255,-284603.5361289978,299313.5154247284,-3342367.172241211,3560117.483139038,4815450.668334961,-42093910.217285156,-11508532.524108887,-12240434.646606445,-11766896.24786377,1689626.0976791382,2572498.083114624,2461959.3620300293,2229789.4954681396,-4265117.645263672,-14010782.241821289,-22484539.031982422,-15167327.880859375,-11498436.92779541,3393146.514892578,3139735.698699951,2987208.843231201,-2079622.745513916,-9386222.839355469,-10065520.286560059,-19265211.10534668,-7766553.87878418,4414518.356323242,-408252.92468070984,-1798452.7349472046,-1727096.9152450562,-947782.576084137,-9300750.732421875,-22038286.209106445,-4121169.5671081543,-8102742.1951293945,2452657.2227478027,-69242.50721931458,-9534794.807434082,-2452275.9914398193,-2945145.1301574707,-9589038.848876953,-43536945.34301758,-30041528.701782227,-16541507.720947266,-19157787.322998047,-2282493.1144714355,-10085053.443908691,-9843249.320983887,-9926098.823547363,-9832194.328308105,-32247226.71508789,-32265228.271484375,-33854263.30566406,-2734022.378921509,-10247591.018676758,-10685358.047485352,-9920104.026794434,-26485479.3548584,-24692037.58239746,-13853377.342224121,-10554057.121276855,-10049981.117248535
0.26,321704.1790485382,1432472.1097946167,-3252546.0720062256,3076171.875,6345373.630523682,-42397579.193115234,-8241307.258605957,-9035943.984985352,-8522703.170776367,3889059.30519104,4720089.912414551,1178584.337234497,806511.8193626404,-6399895.668029785,-12774820.327758789,-22248178.482055664,-12941868.782043457,-9835604.667663574,3885228.6338806152,3573493.719100952,1890786.6477966309,-3189766.4070129395,-11185030.937194824,-10383406.639099121,-17914476.39465332,-4849752.902984619,5821891.307830811,-379917.4427986145,-2510834.6939086914,-1983639.2402648926,-1441507.9355239868,-11007275.581359863,-23155321.12121582,-3951485.8722686768,-5559803.485870361,4678541.18347168,94696.96879386902,-10950588.22631836,-3678547.3823547363,-3985011.339187622,-11212247.848510742,-45338031.76879883,-30623107.91015625,-16152879.71496582,-18488765.716552734,-1994835.615158081,-11548001.289367676,-11527639.389038086,-11881490.707397461,-11617425.918579102,-35157993.31665039,-35177528.381347656,-35011650.08544922,-2652846.097946167,-11967641.830444336,-12482749.938964844,-11752992.630004883,-30345960.61706543,-26903419.494628906,-16192464.828491211,-12426013.946533203,-11991504.669189453
0.265,4258467.674255371,4430943.965911865,-2201515.6745910645,3218110.0845336914,6304168.701171875,-36683586.12060547,-4428463.935852051,-5192538.738250732,-4781694.8890686035,4496296.8826293945,5172474.8611450195,-1837322.2351074219,-2177778.482437134,-10396251.678466797,-10286253.929138184,-19610059.73815918,-9131992.34008789,-7367838.382720947,3963450.6702423096,3755576.3721466064,372814.8937225342,-6050397.872924805,-14890419.960021973,-10458097.457885742,-15909055.709838867,-1373514.175415039,6832390.308380127,-262510.2400779724,-3035287.618637085,-4278804.779052734,-4004654.4075012207,-14676567.077636719,-22709983.825683594,-3694864.9883270264,-3965181.1122894287,6669599.0562438965,132612.25819587708,-13341829.299926758,-5937927.722930908,-6220902.919769287,-14747195.24383545,-47885810.85205078,-29648866.653442383,-14623099.327087402,-17474720.001220703,-1816195.3687667847,-14129547.119140625,-15001426.696777344,-15405440.330505371,-14991279.602050781,-36774551.39160156,-36784473.41918945,-34788078.30810547,-2501258.611679077,-15072224.617004395,-15831595.420837402,-15086843.490600586,-35057426.45263672,-29251573.56262207,-19866819.381713867,-15603443.145751953,-15380539.894104004
0.27,8771432.876586914,7899008.274078369,-272979.4979095459,3681126.594543457,7066815.376281738,-29075769.424438477,-1409481.406211853,-2101796.865463257,-1716083.04977417,5813877.582550049,6433335.304260254,-2092179.0599822998,-2330164.1941070557,-11961276.054382324,-6971039.295196533,-16134408.950805664,-5955325.126647949,-5087626.934051514,5374825.954437256,5136773.109436035,977204.3228149414,-6698764.324188232,-16853603.36303711,-8101034.164428711,-13882744.789123535,770122.5280761719,7618990.421295166,-259750.54502487183,-2289563.6558532715,-5322899.81842041,-5064532.279968262,-16803245.544433594,-20518680.572509766,-3189798.11668396,-3162292.003631592,7365169.525146484,-189596.10164165497,-14536407.470703125,-6585446.834564209,-6983145.236968994,-16786994.93408203,-47736385.345458984,-28135143.280029297,-13365076.065063477,-17557661.056518555,-2097232.8186035156,-15413666.725158691,-16998172.760009766,-17234680.17578125,-16785659.790039062,-36132480.62133789,-36040382.385253906,-34038139.34326172,-2662691.593170166,-16616321.563720703,-17584625.244140625,-16801734.924316406,-35768970.48950195,-29733299.255371094,-21097753.524780273,-17095125.198364258,-16983058.92944336
0.275,11895575.523376465,11149977.684020996,3070905.6854248047,3766103.0292510986,10751070.976257324,-24421525.955200195,753580.629825592,139864.56394195557,616347.4321365356,9676109.313964844,10339366.912841797,2221012.592315674,2045490.5033111572,-8251491.546630859,-3699757.8144073486,-13604280.471801758,-4629463.672637939,-3230978.488922119,8572152.137756348,8233224.868774414,4243662.357330322,-3181427.9556274414,-14827090.2633667,-4480607.986450195,-12226306.915283203,1406048.6555099487,8537329.67376709,-452845.7522392273,-513530.433177948,-3100226.879119873,-2652540.2069091797,-15095834.732055664,-17614887.237548828,-2542942.762374878,-2313026.6666412354,7205565.452575684,-624397.4566459656,-13349411.010742188,-4476815.700531006,-4884789.943695068,-15063505.172729492,-44591003.41796875,-27123914.71862793,-13389435.768127441,-18440439.224243164,-2572902.9178619385,-14099302.291870117,-15403500.5569458,-15542994.499206543,-15135237.693786621,-34554710.388183594,-34314598.083496094,-33759399.4140625,-3062727.451324463,-15028129.577636719,-15919532.775878906,-15150101.661682129,-32535720.825195312,-28572452.545166016,-19153369.903564453,-15401385.307312012,-15235496.520996094
0.28,12716830.253601074,12952544.212341309,6304967.403411865,3315291.6431427,14711619.37713623,-23856491.088867188,1809763.5507583618,1328786.015510559,1707688.9276504517,13221566.200256348,13822690.963745117,6825255.393981934,6667650.22277832,-2585975.170135498,-1475249.171257019,-12897566.795349121,-4714100.8377075195,-2180755.138397217,10991467.475891113,10738605.499267578,7022552.967071533,1190678.0004501343,-11253310.203552246,-2628731.0123443604,-11495242.11883545,1456798.6726760864,9140607.833862305,-602997.0049858093,606222.8083610535,112456.88050985336,737753.4508705139,-11707779.884338379,-15864886.283874512,-2456231.117248535,-1154447.7939605713,7229321.479797363,-612086.1172676086,-11356106.758117676,-1781743.5264587402,-2022988.5578155518,-11705743.789672852,-42373458.86230469,-26752014.16015625,-14085744.857788086,-18590131.759643555,-2688710.2127075195,-11934785.842895508,-12318472.862243652,-12535600.662231445,-12183156.01348877,-34181438.44604492,-33926975.25024414,-34089691.162109375,-3223385.810852051,-12402498.245239258,-12983060.836791992,-12248739.242553711,-30375644.68383789,-28322311.401367188,-17242000.579833984,-12753998.756408691,-12513282.775878906
0.285,12076958.656311035,12807394.027709961,7308918.9529418945,2841968.536376953,14870896.339416504,-23925857.543945312,1641232.2521209717,1250240.8027648926,1289043.90335083,12485844.612121582,12830628.395080566,6871550.0831604,6750669.956207275,-581937.4322891235,99382.14719295502,-13071376.80053711,-4800067.42477417,-2421230.5545806885,10072206.497192383,10053407.669067383,6176440.715789795,1936296.820640564,-10034983.63494873,-2773185.2531433105,-11524477.005004883,1728822.946548462,8883260.726928711,-461593.6875343323,-176654.24942970276,652686.2382888794,1365186.6912841797,-10330235.481262207,-15436833.381652832,-3059370.279312134,-81343.08457374573,7691686.630249023,-76269.31369304657,-10783488.273620605,-1340855.0024032593,-1471093.5354232788,-10401494.979858398,-43052146.911621094,-25890184.40246582,-13691552.16217041,-17250007.62939453,-2334299.087524414,-11348576.545715332,-11207838.05847168,-11481139.183044434,-11170409.202575684,-34470626.83105469,-34354057.31201172,-33799083.7097168,-2904750.5855560303,-11591458.320617676,-11964948.654174805,-11220925.331115723,-31095474.243164062,-29285713.19580078,-17131771.087646484,-12019112.586975098,-11754393.577575684
0.29,11456402.778625488,11738681.79321289,6030000.686645508,2801772.8328704834,11354860.305786133,-21519308.09020996,768620.491027832,140010.20789146423,135232.03134536743,8090141.296386719,8221147.537231445,3107634.0675354004,3074170.5894470215,-3227073.4310150146,1771192.193031311,-12707101.821899414,-4238950.729370117,-3787673.234939575,6779706.954956055,6855952.262878418,2686121.940612793,-1051774.6210098267,-11515820.503234863,-2522732.734680176,-11392731.666564941,2329319.0002441406,8057007.789611816,-122733.9506149292,-2099286.3178253174,-1801805.019378662,-1050436.1391067505,-11446388.244628906,-14621842.384338379,-3786783.218383789,549403.0714035034,7995737.075805664,379267.156124115,-11571702.003479004,-3152813.196182251,-3401587.0094299316,-11612048.149108887,-43505084.99145508,-23537313.46130371,-11461175.918579102,-15279731.750488281,-1908114.5524978638,-12245181.0836792,-12343792.915344238,-12525686.264038086,-12221514.701843262,-32718147.27783203,-32685142.517089844,-31622079.849243164,-2396948.81439209,-12469848.6328125,-12948434.829711914,-12187075.6149292,-30270317.07763672,-28150434.494018555,-16281930.923461914,-12880343.437194824,-12554147.720336914
0.295,10427125.930786133,10425496.101379395,3817717.3137664795,3079518.5565948486,7869875.907897949,-18875173.568725586,-575742.6619529724,-1828570.4851150513,-1167869.3294525146,4375877.857208252,4601331.71081543,96862.87492513657,160499.11081790924,-6401783.466339111,2000931.5013885498,-12399007.797241211,-4071459.2933654785,-5485071.659088135,4508347.034454346,4493303.7757873535,355935.36496162415,-4045868.8735961914,-12833169.937133789,-1641754.388809204,-11146769.523620605,2697557.6877593994,7248706.340789795,113196.58905267715,-3181475.6393432617,-4098684.310913086,-3358103.5137176514,-12530611.991882324,-13180455.207824707,-4901008.605957031,594651.2818336487,7713071.823120117,288377.88105010986,-11914902.687072754,-4716393.47076416,-5143220.901489258,-12706104.278564453,-41334102.630615234,-20952659.606933594,-9090245.246887207,-14199280.738830566,-1713901.2813568115,-12644262.313842773,-13181069.374084473,-13260554.313659668,-12930926.322937012,-28958211.89880371,-28853296.279907227,-28688579.559326172,-2099003.791809082,-12841393.47076416,-13573734.283447266,-12858350.75378418,-25213727.951049805,-23650814.056396484,-12712965.965270996,-12984794.616699219,-12549509.048461914
0.3,7114751.815795898,8167529.106140137,1320774.1975784302,3275342.9412841797,6583046.913146973,-21006864.547729492,-2906525.135040283,-4706440.9255981445,-3181187.391281128,3702339.1723632812,4196054.935455322,47065.865248441696,144010.4991197586,-6731854.438781738,-1713053.1072616577,-14342185.974121094,-5648622.989654541,-7009080.410003662,4788766.860961914,4756070.137023926,933772.6831436157,-4514636.039733887,-12398980.140686035,-2759648.323059082,-12236652.374267578,2135267.496109009,6296912.19329834,104933.74615907669,-2517575.979232788,-3784302.4730682373,-3119063.61579895,-12150226.593017578,-13555472.373962402,-7437053.680419922,34168.66436600685,7133720.397949219,-82031.16804361343,-11134992.599487305,-4380518.436431885,-4793891.906738281,-12174065.589904785,-39624095.91674805,-20960813.522338867,-9044366.836547852,-14816356.658935547,-1685105.9198379517,-11834074.974060059,-12472890.853881836,-12571874.618530273,-12258665.084838867,-27326074.600219727,-27160314.559936523,-28163747.787475586,-2079089.879989624,-12034953.117370605,-12902433.395385742,-12246734.619140625,-20850582.122802734,-20287946.701049805,-9474167.823791504,-11824027.061462402,-11399146.08001709
0.305,1912193.0599212646,4829085.350036621,-1426901.2212753296,3239529.1328430176,6211135.387420654,-28081886.291503906,-6075017.45223999,-7805114.269256592,-6145827.293395996,4182257.1754455566,4709216.117858887,974500.834941864,1002330.4224014282,-5443905.830383301,-8109984.397888184,-18746381.759643555,-8448018.074035645,-8573825.83618164,5560085.773468018,5685152.530670166,2214951.276779175,-3592204.5707702637,-11615108.489990234,-6343924.999237061,-15094798.08807373,751423.2993125916,4588951.110839844,-74277.27431058884,-1308243.751525879,-1843440.4134750366,-1242573.1420516968,-11544561.386108398,-16935277.938842773,-10801733.97064209,-649001.5983581543,6769149.7802734375,-250449.12099838257,-10419531.82220459,-3033461.809158325,-3301976.9191741943,-11369838.71459961,-41788822.174072266,-24193151.473999023,-11410765.647888184,-16589076.99584961,-1717822.1940994263,-11156438.827514648,-11668633.460998535,-11820901.870727539,-11638785.362243652,-30399969.10095215,-30307479.858398438,-31176521.30126953,-2180346.0121154785,-11509949.684143066,-12389101.9821167,-11703702.926635742,-22876277.923583984,-22572027.2064209,-10553571.701049805,-11206689.834594727,-10980907.440185547
0.31,-1780013.5612487793,1988172.6503372192,-3803602.2186279297,3154991.388320923,4960599.422454834,-33792388.916015625,-8464711.18927002,-9590853.691101074,-8652844.429016113,3191787.7197265625,3434032.678604126,414500.35572052,305279.61254119873,-5687193.393707275,-12039072.99041748,-22487209.32006836,-10266064.643859863,-10338022.232055664,4285802.841186523,4483788.013458252,1387748.122215271,-3648204.3266296387,-12073198.318481445,-8945182.800292969,-17717380.52368164,-313738.614320755,2209979.772567749,-318557.7690601349,-1271889.567375183,-942555.7255744934,-323396.86155319214,-12071279.525756836,-20329767.22717285,-12471220.016479492,-631072.1039772034,6732841.968536377,-239438.0122423172,-10739979.74395752,-2418262.9585266113,-2671873.5694885254,-11855881.690979004,-45172473.9074707,-27568710.327148438,-13655021.667480469,-18029651.641845703,-1860401.1535644531,-11679466.247558594,-12168276.7868042,-12270849.227905273,-12288668.632507324,-34822734.83276367,-34781826.01928711,-34605075.83618164,-2318522.6917266846,-12173510.551452637,-13132419.58618164,-12352967.262268066,-28771099.090576172,-27912475.5859375,-14543060.302734375,-12137148.8571167,-12082918.167114258
0.315,-1694339.7521972656,1035483.5987091064,-4782757.759094238,3201364.9940490723,3306133.985519409,-32838485.717773438,-8611240.38696289,-9230004.31060791,-9043407.440185547,1153896.0933685303,1201908.2307815552,-1278702.3782730103,-1495477.9148101807,-7720357.894897461,-10819283.485412598,-22753408.432006836,-9778689.38446045,-11509456.634521484,1762588.9778137207,1750409.3647003174,-1113320.8274841309,-5072817.325592041,-13270867.347717285,-8609761.238098145,-18186672.21069336,-141730.05521297455,54838.22152018547,-543984.1747283936,-2363085.985183716,-2057975.2922058105,-1403566.9565200806,-13206152.91595459,-20363458.63342285,-11527943.61114502,13585.359789431095,6769147.3960876465,-350092.0236110687,-11565130.233764648,-2964158.535003662,-3369471.0731506348,-13127425.193786621,-45052196.50268555,-28068506.240844727,-13985478.401184082,-17995386.123657227,-2059836.8644714355,-12725278.854370117,-13359375.953674316,-13330707.550048828,-13491040.229797363,-35728000.64086914,-35562255.859375,-34927158.35571289,-2483136.4154815674,-13155484.199523926,-14287343.978881836,-13473052.978515625,-31547189.712524414,-29939485.549926758,-16741395.950317383,-13465916.633605957,-13325942.993164062
0.32,343062.49022483826,1328663.8259887695,-4233781.337738037,3324787.139892578,2971155.6434631348,-27492490.768432617,-7075233.936309814,-7652668.476104736,-7610951.900482178,709395.2298164368,962972.4621772766,-1905828.1183242798,-2111255.645751953,-8750651.359558105,-7868208.885192871,-20813579.559326172,-8063147.54486084,-10993104.934692383,1355686.4261627197,1058591.4850234985,-2368092.7753448486,-6215964.794158936,-13970953.941345215,-8309723.854064941,-17414491.653442383,706948.0419158936,-1333496.2129592896,-651492.9533004761,-2842632.77053833,-3646098.852157593,-3044879.674911499,-13880307.1975708,-18264728.546142578,-10492563.247680664,65154.559910297394,6647701.740264893,-526666.1643981934,-12084228.515625,-3821541.7861938477,-4314396.381378174,-13921224.594116211,-42513153.076171875,-26601472.854614258,-13544185.638427734,-16876829.147338867,-2099535.7036590576,-13233592.987060547,-14121944.427490234,-13972948.07434082,-14169295.310974121,-33585563.65966797,-33285797.119140625,-32965873.71826172,-2608217.716217041,-13608620.643615723,-14803551.67388916,-14038929.93927002,-30031513.214111328,-27545944.213867188,-16202957.153320312,-14059885.97869873,-13669676.780700684
0.325,1107526.8983840942,1331634.759902954,-3243926.0482788086,3366615.7722473145,4237973.690032959,-24282550.811767578,-5761074.066162109,-6478809.356689453,-6241418.838500977,2981169.9390411377,3574893.4745788574,-461308.18128585815,-542450.2491950989,-7235521.31652832,-7489768.505096436,-20258579.25415039,-7040925.025939941,-9108669.28100586,4391071.796417236,4043431.7588806152,-1056693.0770874023,-5715595.245361328,-14082307.815551758,-10798578.262329102,-17439298.629760742,948604.4645309448,-2386432.409286499,-631252.5272369385,-1739929.7952651978,-3764456.272125244,-3274644.136428833,-14103003.50189209,-17727205.276489258,-11547206.87866211,-818135.9171867371,6406064.510345459,-476860.374212265,-12375664.710998535,-4205524.921417236,-4618422.031402588,-14129364.967346191,-42131175.99487305,-25952663.42163086,-14102350.234985352,-16174268.72253418,-1979463.1004333496,-13249157.905578613,-14474862.098693848,-14234852.79083252,-14422379.493713379,-32669433.59375,-32480842.59033203,-32140254.974365234,-2645947.9331970215,-13887538.90991211,-14934929.847717285,-14208108.901977539,-28821233.74938965,-25336187.3626709,-15861345.291137695,-14293100.357055664,-13775064.468383789
0.33,-160916.62645339966,422797.5904941559,-3186880.8269500732,3305347.681045532,5287661.552429199,-25975896.83532715,-5825123.7869262695,-6466588.973999023,-6227390.289306641,5824774.265289307,6445609.092712402,1560555.6964874268,1614963.6507034302,-5283950.328826904,-8769215.58380127,-22226078.033447266,-7220332.145690918,-7904652.118682861,7826167.583465576,7617398.738861084,706556.499004364,-4158862.1139526367,-13988959.312438965,-13294445.991516113,-18006940.841674805,438206.3150405884,-3765556.0970306396,-616088.2115364075,-406366.37806892395,-2333887.1002197266,-1892634.8686218262,-14160175.323486328,-18716854.095458984,-12795614.242553711,-852054.8343658447,6317809.581756592,-258230.5371761322,-12620205.879211426,-4017921.9245910645,-4376591.682434082,-14142305.374145508,-43169136.04736328,-26047292.709350586,-14912918.090820312,-16641115.188598633,-2008442.8787231445,-13202116.966247559,-14634064.674377441,-14339811.325073242,-14519778.25164795,-33623420.71533203,-33699699.40185547,-32761066.436767578,-2656857.72895813,-14175249.099731445,-15041760.444641113,-14303202.629089355,-28933389.66369629,-25219076.15661621,-16050849.914550781,-14513787.269592285,-14073936.462402344
0.335,-1784444.808959961,-876540.9588813782,-4165329.4563293457,3259561.30027771,4572753.90625,-29411306.381225586,-6860054.969787598,-7287111.759185791,-7210895.538330078,6268575.191497803,6643548.488616943,1941120.2669143677,2043091.2971496582,-5419457.43560791,-8089208.602905273,-24375888.82446289,-7684863.567352295,-8894637.107849121,7825680.255889893,7653428.077697754,262313.93218040466,-3388325.9296417236,-13294775.96282959,-11678496.360778809,-17295143.127441406,277637.779712677,-5474974.632263184,-659926.8913269043,-834210.216999054,-1137976.6464233398,-658923.6855506897,-13508404.731750488,-17556076.049804688,-11285279.273986816,1305282.5927734375,6654888.62991333,-208412.84096240997,-12246199.607849121,-3607346.0578918457,-4095821.3806152344,-13512578.964233398,-40291343.688964844,-24327756.881713867,-13899852.752685547,-17365137.100219727,-2280845.880508423,-12763409.614562988,-13907607.078552246,-13659309.387207031,-13798316.955566406,-32372344.970703125,-32526966.094970703,-31642677.307128906,-2665049.3144989014,-13546632.766723633,-14396615.028381348,-13666656.494140625,-25929656.982421875,-23505088.806152344,-13461692.810058594,-13823109.62677002,-13486064.910888672
0.34,-1448221.3258743286,-701488.2564544678,-3632003.3073425293,3274670.6008911133,3645404.100418091,-30155914.306640625,-7467027.187347412,-7869431.972503662,-7742828.369140625,4437830.448150635,4718276.023864746,749013.6623382568,800952.7325630188,-6311539.173126221,-5555439.472198486,-24413387.298583984,-7553159.713745117,-10763523.10180664,4895548.8204956055,4585072.040557861,-1882040.8582687378,-4267077.922821045,-11772363.662719727,-7743543.1480407715,-15489409.446716309,1052989.2444610596,-6935927.391052246,-580937.922000885,-2913367.0330047607,-1730955.1239013672,-1221015.0957107544,-11921228.408813477,-13494140.625,-8319334.030151367,3667678.5945892334,7390050.411224365,-335239.08257484436,-10990478.515625,-3566698.7895965576,-4208116.054534912,-11912870.407104492,-33595645.904541016,-20684000.01525879,-11379105.567932129,-17178352.35595703,-2405302.2861480713,-11637333.869934082,-12078374.862670898,-11964235.305786133,-12011043.548583984,-27371423.721313477,-27318393.70727539,-27897583.0078125,-2557545.9003448486,-11709892.272949219,-12648495.6741333,-11954841.613769531,-18933847.427368164,-18391628.26538086,-7960381.984710693,-11855812.072753906,-11518374.4430542
0.345,3395641.803741455,4346890.926361084,2455806.016921997,3217981.3385009766,6425739.765167236,-26620597.83935547,-6039961.814880371,-6599658.012390137,-6216569.900512695,3988744.4972991943,4446883.678436279,831382.5130462646,789123.2371330261,-4539151.668548584,-4400031.089782715,-22653264.99938965,-6496485.710144043,-10537664.413452148,3472327.23236084,3093117.2370910645,-2683455.467224121,-5556859.016418457,-10956237.79296875,-6869038.5818481445,-14810211.181640625,2122652.769088745,-7576975.345611572,-256845.8914756775,-4505059.719085693,-3685689.926147461,-3215664.6251678467,-11058014.869689941,-10901491.165161133,-7852097.034454346,3268379.9266815186,8185982.704162598,-306919.30651664734,-10222195.625305176,-4563931.465148926,-5127960.205078125,-10904140.47241211,-30475255.966186523,-18621952.056884766,-10157872.200012207,-16408163.070678711,-2090359.9262237549,-10998362.54119873,-11062341.690063477,-11010935.78338623,-10990183.83026123,-23436462.40234375,-23139719.009399414,-25394922.256469727,-2320458.41217041,-10650559.425354004,-11615771.293640137,-10872004.508972168,-14758195.877075195,-14971084.594726562,-5188705.4443359375,-10632156.372070312,-10289045.333862305
0.35,14659555.435180664,16576532.363891602,15121583.938598633,3001005.6495666504,14580243.110656738,-19494058.60900879,-1650121.9272613525,-2217619.6575164795,-1816517.8298950195,7863701.343536377,8427166.938781738,4347210.40725708,4206267.356872559,-706378.9963722229,-4302075.386047363,-20416189.193725586,-4151793.4799194336,-7238956.928253174,6132963.180541992,5942089.557647705,-802832.305431366,-5564136.505126953,-13065606.117248535,-8981041.90826416,-15484871.864318848,3114326.9538879395,-7133890.628814697,51858.46984386444,-4324105.739593506,-5260129.451751709,-4872982.501983643,-13213898.658752441,-12886132.24029541,-9765028.953552246,1321974.3967056274,8813437.461853027,-99849.77543354034,-11867602.348327637,-6770927.906036377,-7065240.859985352,-12905852.317810059,-34480392.45605469,-20250936.50817871,-11422517.776489258,-16330120.086669922,-1715601.3250350952,-12727609.634399414,-13342234.61151123,-13190148.35357666,-13196988.105773926,-25472581.86340332,-25089267.73071289,-27332292.556762695,-2239123.3444213867,-12845916.748046875,-13810017.585754395,-12895986.557006836,-19102359.771728516,-18590343.475341797,-9098891.258239746,-12754275.32196045,-12514728.546142578
0.355,30701448.440551758,32984493.255615234,29234455.108642578,2803034.782409668,24374675.750732422,-9652276.992797852,4963067.531585693,4655354.976654053,4582149.028778076,14351679.801940918,14738674.16381836,9286680.221557617,9072456.359863281,-460678.8754463196,-143355.05664348602,-17526384.353637695,-162488.35623264313,-3169230.6995391846,10271451.950073242,10394315.719604492,1429620.862007141,-4653543.472290039,-18048461.9140625,-7494699.001312256,-14472702.980041504,4994832.992553711,-5720191.955566406,-14177.125878632069,-3564158.4396362305,-5673291.6831970215,-5368689.060211182,-18291074.752807617,-16126136.779785156,-9087451.934814453,2776427.745819092,9488929.748535156,-116874.8214840889,-15891301.155090332,-9422027.587890625,-9549368.858337402,-17984216.690063477,-38808441.162109375,-22840887.06970215,-12722849.84588623,-17140390.396118164,-1872404.8137664795,-16925558.09020996,-18633241.653442383,-18376554.489135742,-18442832.946777344,-31286361.694335938,-30883111.95373535,-31203508.377075195,-2580087.184906006,-17956222.534179688,-19069980.62133789,-18031949.996948242,-28163145.065307617,-26455951.690673828,-15694060.325622559,-17919948.57788086,-17819627.76184082
0.36,45360549.92675781,45723300.93383789,37112403.869628906,2870015.3827667236,29764772.415161133,1875563.0254745483,11470961.570739746,11414525.032043457,10658135.414123535,18741016.387939453,18945646.286010742,11173877.716064453,10975001.335144043,-7392799.377441406,10757220.268249512,-12859805.1071167,4878544.330596924,-1006354.4511795044,11734704.971313477,12013607.9788208,1111717.939376831,-4995529.1748046875,-22843694.68688965,1117125.6303787231,-9682151.794433594,8625711.441040039,-3928299.1886138916,-357244.90880966187,-4043859.0049743652,-5957509.0408325195,-5721138.477325439,-23142753.60107422,-15102022.171020508,-3356765.5086517334,9385448.455810547,10557497.024536133,-485077.50034332275,-19736833.572387695,-11253376.007080078,-11476341.247558594,-22893938.064575195,-35677074.43237305,-22426517.486572266,-11359523.77319336,-17577136.993408203,-2483501.434326172,-21072256.088256836,-23427635.192871094,-23274721.145629883,-23289405.822753906,-34162452.697753906,-33688522.33886719,-32196331.024169922,-3126611.9480133057,-22560071.94519043,-23955038.07067871,-22998498.916625977,-33433929.443359375,-30636192.321777344,-18149930.953979492,-22642240.524291992,-22584539.41345215
0.365,51723777.770996094,48233390.80810547,35286876.6784668,3111940.1454925537,28116340.63720703,12340132.713317871,15283010.482788086,15213434.219360352,14062127.113342285,18350439.071655273,18666912.078857422,8183592.796325684,8129512.786865234,-17775991.439819336,23295906.06689453,-7089895.725250244,9019386.291503906,-996178.6270141602,9933423.99597168,10094490.051269531,-1622614.1452789307,-7707962.0361328125,-24412223.81591797,11269188.88092041,-3652245.283126831,12792726.516723633,-2702416.6584014893,-498658.53786468506,-5757198.333740234,-7306068.420410156,-7107673.645019531,-24678850.173950195,-9596766.471862793,2890419.7216033936,16158739.08996582,11823763.847351074,-725417.6139831543,-20829616.54663086,-11569930.076599121,-11983987.808227539,-24316043.853759766,-27540813.446044922,-19162839.889526367,-8272017.478942871,-16776884.078979492,-2844760.1795196533,-22400745.391845703,-24574287.41455078,-24679698.944091797,-24505165.100097656,-31454185.485839844,-30939487.45727539,-29961612.701416016,-3328373.908996582,-23677721.02355957,-25226179.122924805,-24464765.548706055,-32240787.506103516,-28282957.077026367,-15793089.866638184,-23902128.219604492,-23812322.61657715
0.37,47042175.29296875,40077091.217041016,26137632.369995117,3178754.3296813965,21268583.297729492,17366062.16430664,14699311.256408691,14456539.154052734,13418130.874633789,14180752.754211426,14743460.655212402,2636162.042617798,2764211.1778259277,-25385572.43347168,29083473.205566406,-3504790.782928467,9945902.824401855,-2083465.576171875,7292492.866516113,7203436.851501465,-4565298.557281494,-11543230.056762695,-23004756.927490234,14665622.71118164,-1197450.5186080933,14799400.329589844,-2881659.984588623,-227526.84354782104,-7317713.260650635,-9446024.894714355,-9239776.611328125,-23144969.940185547,-4744100.093841553,3485879.421234131,17044258.11767578,12454393.38684082,-425445.6162452698,-19233873.36730957,-10846101.760864258,-11293127.059936523,-22511579.513549805,-23353368.759155273,-16779598.236083984,-6816428.661346436,-15473752.975463867,-2531865.8351898193,-20796644.21081543,-22614265.44189453,-22871902.465820312,-22537906.646728516,-27227333.068847656,-26803194.046020508,-28515743.255615234,-2940048.6946105957,-21827829.360961914,-23281635.284423828,-22606243.133544922,-29272132.873535156,-24323589.324951172,-13797757.148742676,-22214866.638183594,-22137386.322021484
0.375,33695838.928222656,25318353.6529541,13281844.139099121,3005670.0706481934,11563269.61517334,13957243.919372559,9209286.6897583,8903607.368469238,8269493.103027344,7840879.440307617,8441382.40814209,-3077461.2426757812,-2909575.939178467,-29786949.157714844,25042774.200439453,-5218663.692474365,6635569.095611572,-4525091.171264648,4790617.4659729,4557888.031005859,-7104726.791381836,-15121382.713317871,-21769042.96875,9855926.513671875,-4120037.55569458,13170629.501342773,-4767630.577087402,155559.36098098755,-8286371.231079102,-11455341.339111328,-11220504.760742188,-21742645.263671875,-4403414.726257324,-1823715.5675888062,12321840.286254883,11747736.930847168,132911.69703006744,-17414382.934570312,-10374026.29852295,-10665453.910827637,-20910949.70703125,-26230548.858642578,-17448413.848876953,-8299779.891967773,-14755612.37335205,-1846348.6433029175,-18811811.447143555,-20942768.096923828,-21145059.58557129,-20854572.296142578,-26183429.718017578,-25893199.920654297,-29771373.748779297,-2269992.3515319824,-20141633.987426758,-21498992.919921875,-20772718.42956543,-28952201.84326172,-23673461.9140625,-15077846.52709961,-20641807.556152344,-20619771.95739746
0.38,17177375.79345703,8858955.383300781,-1193179.4881820679,2985367.2981262207,65830.51383495331,4121869.0872192383,216540.3962135315,46356.767416000366,-330457.5979709625,-216611.92178726196,223827.18324661255,-9325233.459472656,-9302205.085754395,-35598003.38745117,15798222.541809082,-11559514.045715332,504761.9938850403,-9222235.679626465,1079916.7156219482,922384.2024803162,-10626488.68560791,-18884943.00842285,-23170440.673828125,2545172.691345215,-9616118.431091309,9241756.439208984,-7906513.690948486,307334.5422744751,-9619103.43170166,-13375884.056091309,-13133211.135864258,-23045375.82397461,-7340434.0744018555,-7862119.674682617,7681187.152862549,9974823.951721191,379530.6384563446,-17508300.78125,-11220621.109008789,-11347980.499267578,-22132246.017456055,-30612535.47668457,-19425779.342651367,-10472293.853759766,-14446821.212768555,-1320595.0260162354,-18819896.697998047,-21965364.456176758,-22085433.959960938,-21976095.19958496,-27904680.252075195,-27663780.212402344,-30770147.3236084,-1764078.8555145264,-20845239.639282227,-22394895.553588867,-21693735.122680664,-30405342.10205078,-24946165.084838867,-16841119.76623535,-21314395.904541016,-21248666.763305664
0.385,4036340.7135009766,-4296150.684356689,-14191910.743713379,3372007.369995117,-10578145.980834961,-5346268.653869629,-8206460.952758789,-8165887.832641602,-8691287.04071045,-8242057.800292969,-7873446.464538574,-16207096.099853516,-16326147.079467773,-43863422.39379883,8471868.515014648,-17894035.33935547,-4988926.410675049,-14765081.405639648,-3728419.780731201,-3698134.660720825,-15059364.318847656,-23259708.404541016,-26316852.569580078,-1643652.319908142,-13446713.4475708,5955312.252044678,-11020915.031433105,230543.70284080505,-11632760.047912598,-15613717.079162598,-15380831.718444824,-26223236.083984375,-9938905.715942383,-10543157.577514648,7082476.615905762,8291584.014892578,230700.22463798523,-19208518.981933594,-13154048.919677734,-13241888.046264648,-25147630.69152832,-30993873.596191406,-19899848.93798828,-10611423.49243164,-13662012.100219727,-1159587.9793167114,-20589494.705200195,-24688385.009765625,-24874246.59729004,-24823915.481567383,-28582149.505615234,-28359518.05114746,-28534606.93359375,-1595384.5977783203,-23122058.868408203,-25044830.322265625,-24589157.104492188,-30257589.34020996,-23932958.602905273,-15664022.445678711,-23459754.943847656,-23182750.701904297
0.39,-705306.7088127136,-9408813.4765625,-20358228.68347168,3796817.7795410156,-15201185.22644043,-8197935.104370117,-11247349.739074707,-11058943.748474121,-11946470.260620117,-11956324.577331543,-11517465.591430664,-20248367.309570312,-20311538.696289062,-48888217.92602539,6666752.338409424,-19730678.55834961,-6693686.962127686,-17558038.71154785,-6422837.734222412,-6288961.410522461,-17399158.477783203,-26085138.32092285,-28015062.33215332,-1843192.458152771,-13640356.063842773,5275732.040405273,-12469573.974609375,75767.59904623032,-12871793.746948242,-17101772.30834961,-16868261.337280273,-28006311.416625977,-10247581.481933594,-10243203.163146973,9300918.579101562,7645989.418029785,72202.43662595749,-20391017.91381836,-14513676.643371582,-14641713.14239502,-26665485.382080078,-28337541.580200195,-18438613.891601562,-8786164.283752441,-12488022.804260254,-1292674.8991012573,-21842409.133911133,-26107616.424560547,-26408832.550048828,-26192079.544067383,-26648742.67578125,-26527505.87463379,-24828083.038330078,-1722635.3883743286,-24332639.694213867,-26391706.466674805,-26253643.035888672,-27451086.044311523,-20383886.337280273,-12409380.912780762,-24609617.233276367,-24097021.102905273
0.395,2707330.7037353516,-5712159.633636475,-17088560.104370117,3722276.449203491,-11338524.81842041,-4371968.746185303,-7937200.546264648,-7717541.217803955,-8738800.048828125,-8939497.947692871,-8537296.295166016,-17734485.626220703,-17609611.51123047,-45723587.03613281,8986124.038696289,-17022727.966308594,-4588479.518890381,-16006017.684936523,-4692067.1463012695,-4612783.432006836,-15288795.471191406,-24442920.684814453,-26166669.845581055,-379416.25714302063,-11430880.546569824,6669739.723205566,-11589858.055114746,-137762.1740102768,-11904643.058776855,-15883007.049560547,-15643425.941467285,-26180873.87084961,-8601055.145263672,-9383991.241455078,11243060.111999512,7723642.349243164,117202.17019319534,-19506864.547729492,-13612664.222717285,-13776329.99420166,-24782785.415649414,-26748437.881469727,-16843336.10534668,-7348134.994506836,-12001445.770263672,-1625862.717628479,-20872838.973999023,-24451517.10510254,-24686704.635620117,-24323907.85217285,-24390001.29699707,-24394472.122192383,-23671703.338623047,-2081498.146057129,-22859394.073486328,-24618352.89001465,-24606672.286987305,-23886940.002441406,-18029945.373535156,-10283005.714416504,-23227220.53527832,-22661005.0201416
0.4,8045263.290405273,1021490.6930923462,-9205508.2321167,3228549.7188568115,-3731340.4083251953,435129.0762424469,-3014539.2417907715,-2878512.6209259033,-3662930.488586426,-3000789.4039154053,-2851820.945739746,-10608081.817626953,-10418945.3125,-37336750.03051758,11742626.190185547,-13845413.208007812,-1983016.7293548584,-13013877.868652344,-919095.8738327026,-963027.834892273,-10644317.626953125,-19006477.35595703,-21787361.14501953,544890.284538269,-9580799.102783203,7894620.895385742,-9711458.206176758,-409606.09912872314,-9488020.896911621,-11977767.944335938,-11737566.947937012,-21792419.43359375,-6248033.52355957,-9328433.0368042,11843241.691589355,7228906.154632568,167371.31774425507,-17060237.884521484,-10576714.515686035,-10805506.706237793,-20742349.62463379,-27573843.002319336,-16580030.44128418,-7864509.582519531,-12627597.80883789,-2023567.4381256104,-18210468.292236328,-20742111.206054688,-20700429.916381836,-20497543.334960938,-24257417.678833008,-24262317.657470703,-25638652.801513672,-2542385.5781555176,-19544729.232788086,-20832895.278930664,-20693992.614746094,-21664562.225341797,-18834434.509277344,-10223684.310913086,-20026218.41430664,-19619747.161865234
0.405,8538048.74420166,3042369.604110718,-5116692.543029785,2933997.631072998,-218900.6805419922,989537.239074707,-2317337.75138855,-2336936.2354278564,-2877056.837081909,-810634.0169906616,-904262.3043060303,-5476752.758026123,-5443514.347076416,-31244171.142578125,12524839.401245117,-13750842.094421387,-2136062.8604888916,-12754972.457885742,394193.1128501892,252848.0887413025,-7742599.010467529,-14196516.990661621,-17808485.03112793,297901.1535644531,-9810547.828674316,7329797.744750977,-9051845.55053711,-605516.6721343994,-7854698.657989502,-8137228.965759277,-7860568.046569824,-17900909.423828125,-4632272.720336914,-9976059.913635254,11874660.49194336,5439883.232116699,-9647.954255342484,-14846106.52923584,-7491810.321807861,-7875095.844268799,-17336856.842041016,-28881044.387817383,-17389966.96472168,-9488209.72442627,-13547060.9664917,-2284832.000732422,-15803018.569946289,-17478334.426879883,-17182664.87121582,-17334955.2154541,-25649375.915527344,-25536010.7421875,-27385044.09790039,-2883549.451828003,-16638446.807861328,-17656967.163085938,-17314731.59790039,-20973737.716674805,-20462455.74951172,-10430077.55279541,-17074476.24206543,-16865139.00756836
0.41,3142067.9092407227,-1837367.7730560303,-8447221.755981445,3137298.107147217,-3414960.1459503174,-2822681.188583374,-6520040.988922119,-6708373.069763184,-7361772.060394287,-4146957.3974609375,-4245455.741882324,-6147154.808044434,-6278453.826904297,-31099870.681762695,11599797.248840332,-16309165.954589844,-4866312.503814697,-15725418.090820312,-1741754.7702789307,-1957243.0849075317,-8276785.850524902,-13274394.989013672,-16430332.18383789,-310512.12549209595,-11400642.395019531,5572696.685791016,-10199116.706848145,-637158.6918830872,-8112274.169921875,-6865852.832794189,-6477454.662322998,-16676860.809326172,-4805458.068847656,-10575642.585754395,12052899.360656738,3318997.1446990967,-363688.200712204,-14230709.075927734,-6472713.470458984,-6989400.386810303,-16355155.944824219,-28827291.48864746,-18260633.46862793,-10385958.671569824,-14043751.71661377,-2361425.1613616943,-15129162.788391113,-16413394.927978516,-16094842.910766602,-16395240.783691406,-26380018.23425293,-26169635.772705078,-26690601.348876953,-3014957.6663970947,-15821952.819824219,-16814159.393310547,-16370050.430297852,-20710102.081298828,-20246477.127075195,-9636531.829833984,-16047472.00012207,-15886169.43359375
0.415,-3796339.750289917,-9193043.70880127,-15704793.930053711,3439695.358276367,-9031394.004821777,-7511037.826538086,-10972673.416137695,-11330382.347106934,-12273645.401000977,-8278366.0888671875,-8209401.1306762695,-9969081.87866211,-10028312.683105469,-34702228.54614258,10534235.000610352,-18513708.114624023,-7170802.116394043,-18502248.764038086,-3988548.517227173,-4262726.783752441,-10159681.32019043,-15190135.955810547,-17762723.922729492,110681.57851696014,-12260660.171508789,4648400.30670166,-11345351.219177246,-623489.499092102,-9313985.824584961,-7793112.277984619,-7295620.441436768,-18005001.068115234,-6225876.808166504,-10171144.485473633,12731609.344482422,2621277.8091430664,-668719.3512916565,-15306629.180908203,-7786051.7501831055,-8203085.899353027,-17688009.26208496,-27574216.842651367,-18818553.924560547,-9972034.454345703,-14457105.63659668,-2437051.773071289,-16275787.353515625,-17634288.787841797,-17452890.396118164,-17559566.497802734,-25974607.467651367,-25728441.23840332,-25264200.21057129,-3095653.533935547,-17198806.762695312,-18206180.572509766,-17760072.708129883,-20385686.87438965,-19076087.951660156,-8765266.418457031,-17236768.72253418,-16961534.50012207
0.42,-8487187.385559082,-14296111.106872559,-21850198.74572754,3335376.262664795,-12305867.195129395,-10454386.711120605,-11761886.596679688,-12300979.614257812,-13222797.393798828,-8654574.394226074,-8442877.769470215,-12525492.668151855,-12330151.557922363,-38891704.55932617,10020834.922790527,-18593391.41845703,-7011086.463928223,-18297386.169433594,-3577266.216278076,-3818578.004837036,-11075865.745544434,-17174695.96862793,-20248250.96130371,2147912.2638702393,-11464594.841003418,5620852.947235107,-10661463.737487793,-694421.5893745422,-10109376.907348633,-8887658.11920166,-8437509.536743164,-20225706.100463867,-6667682.647705078,-8226144.790649414,14255439.758300781,3840073.1086730957,-764467.8354263306,-17097702.026367188,-9918841.361999512,-10012157.440185547,-19930250.16784668,-26275566.10107422,-19203088.760375977,-9107867.240905762,-15165964.126586914,-2616025.924682617,-18179039.001464844,-19894195.556640625,-19779577.255249023,-19679302.215576172,-25702564.239501953,-25406650.54321289,-25431898.11706543,-3261689.1860961914,-19444702.1484375,-20457437.51525879,-19991744.995117188,-20408601.760864258,-19302705.764770508,-8874201.774597168,-19499511.71875,-19085330.963134766
0.425,-10978360.176086426,-16661897.659301758,-25209991.455078125,2858880.7582855225,-12913382.530212402,-11394333.839416504,-9830755.233764648,-10490299.224853516,-10999635.696411133,-6239016.532897949,-5976678.848266602,-12945214.27154541,-12603511.810302734,-42524410.247802734,9788581.848144531,-17192670.822143555,-5287124.156951904,-16092985.153198242,-1720282.6738357544,-1785030.0073623657,-11048893.928527832,-18290376.663208008,-21745746.612548828,5129784.107208252,-10030030.250549316,7514616.012573242,-8706834.79309082,-788291.6331291199,-10256575.584411621,-9116568.565368652,-8889549.255371094,-21432317.73376465,-4271768.569946289,-5200368.881225586,16400468.826293945,5540875.9117126465,-669021.8448638916,-18105880.737304688,-11077066.421508789,-10938547.134399414,-21191429.138183594,-25212560.653686523,-18940727.23388672,-8358423.233032227,-15418140.411376953,-2714038.133621216,-19245153.427124023,-21271417.61779785,-21080772.399902344,-21064588.54675293,-25688642.501831055,-25342292.78564453,-26103666.305541992,-3380402.8034210205,-20567184.448242188,-21719083.786010742,-21154457.092285156,-20274559.020996094,-20271646.49963379,-8929701.805114746,-20821006.774902344,-20356422.424316406
0.43,-12295495.986938477,-17543272.018432617,-26050573.348999023,2455011.3677978516,-12564706.802368164,-10253989.219665527,-8214313.507080078,-8805608.749389648,-8977387.428283691,-4595355.987548828,-4339938.163757324,-12606349.94506836,-12383877.754211426,-44307506.5612793,10320775.032043457,-15213262.557983398,-3779228.687286377,-14543537.139892578,-1065745.7113265991,-911910.355091095,-10795090.675354004,-18730257.034301758,-20668848.037719727,8316846.84753418,-8914382.934570312,8911559.104919434,-7459271.9078063965,-818209.707736969,-10073328.018188477,-8663929.93927002,-8641823.768615723,-20336187.3626709,551400.0654220581,-2045058.7272644043,18003534.3170166,6073678.016662598,-590638.9355659485,-17137834.548950195,-10445900.917053223,-10410545.349121094,-19991552.352905273,-23462080.001831055,-16981660.842895508,-7045257.091522217,-14153417.587280273,-2561019.1822052,-18229280.471801758,-20170011.520385742,-19911504.7454834,-20117008.209228516,-24154054.641723633,-23865444.18334961,-24232374.19128418,-3278924.2267608643,-19170309.06677246,-20557374.954223633,-19878120.42236328,-18078870.77331543,-18755210.876464844,-7056611.53793335,-19584741.592407227,-19135654.44946289
0.435,-11677744.86541748,-16581182.479858398,-24007900.23803711,2396833.4197998047,-11318244.934082031,-6079062.938690186,-7435667.037963867,-7802627.5634765625,-8079087.257385254,-4449464.797973633,-4250704.288482666,-11437664.985656738,-11431339.263916016,-41913131.71386719,13016425.132751465,-12313041.687011719,-2555864.8109436035,-14191056.251525879,-1661936.9983673096,-1412215.8288955688,-9769749.641418457,-17703216.552734375,-17169805.5267334,11839003.562927246,-7376636.028289795,9866833.686828613,-7460256.099700928,-860338.9263153076,-9464778.900146484,-7595609.188079834,-7565850.257873535,-17049066.5435791,5849400.520324707,818892.4789428711,18157464.9810791,5433169.364929199,-770162.1055603027,-14452189.445495605,-8598023.414611816,-8824490.547180176,-16512052.536010742,-20504734.03930664,-13329632.759094238,-4522243.499755859,-11678492.546081543,-2341559.886932373,-15382306.098937988,-16755548.477172852,-16543432.235717773,-16768892.288208008,-20321462.631225586,-20181339.263916016,-19442602.157592773,-3077727.0793914795,-15809427.261352539,-17175472.259521484,-16470500.946044922,-13263684.272766113,-13814296.72241211,-3573138.71383667,-16129566.192626953,-15670727.729797363
0.44,-8646327.018737793,-13537417.4118042,-19564685.821533203,2523067.2359466553,-8851879.119873047,744374.692440033,-5797289.3714904785,-6035671.234130859,-6654567.241668701,-3931955.575942993,-3812889.575958252,-8659934.997558594,-8690752.983093262,-35488971.71020508,17937122.344970703,-8260758.399963379,-560523.1523513794,-13342744.827270508,-1431947.5889205933,-1244076.7288208008,-7491364.479064941,-14673996.925354004,-13255956.649780273,15909551.620483398,-4338066.101074219,11449085.235595703,-7345980.167388916,-966217.5178527832,-8366170.883178711,-5922773.361206055,-5725730.419158936,-13261822.700500488,10375427.24609375,3591958.0459594727,17545824.05090332,4870642.185211182,-1154137.9690170288,-11856979.370117188,-6976859.569549561,-7251268.38684082,-12780585.289001465,-17439802.169799805,-9655787.467956543,-1540034.4133377075,-9463477.13470459,-2355940.103530884,-12524394.035339355,-13150075.912475586,-13000712.394714355,-13019711.4944458,-16121168.13659668,-16050714.492797852,-14715347.290039062,-3017090.320587158,-12723883.628845215,-13596544.26574707,-12973387.718200684,-8455457.68737793,-8523920.059204102,-1025652.6470184326,-12691957.473754883,-12176996.231079102
0.445,-5984129.905700684,-11312569.618225098,-16219568.252563477,2451214.075088501,-7298625.946044922,6489866.733551025,-3342225.7900238037,-3727276.32522583,-4493639.4691467285,-2837869.644165039,-2716289.520263672,-5845974.922180176,-5689189.434051514,-29597867.965698242,22345485.68725586,-4708707.809448242,1846291.184425354,-11404155.731201172,58715.369552373886,147284.76107120514,-5462035.655975342,-11769351.0055542,-10879174.23248291,19697326.66015625,-796903.3122062683,13662900.924682617,-6361312.389373779,-956193.0298805237,-7516177.177429199,-4505416.393280029,-4222064.49508667,-10776465.41595459,14177004.81414795,6335704.803466797,17701217.651367188,5019850.254058838,-1316374.659538269,-10776474.952697754,-6487692.832946777,-6539389.610290527,-10629415.512084961,-15555309.295654297,-7443939.685821533,509901.16596221924,-8293466.567993164,-2534016.8476104736,-11131061.553955078,-11203154.563903809,-11053404.808044434,-10867297.172546387,-13509244.918823242,-13374378.204345703,-12255651.473999023,-3026885.747909546,-11382600.784301758,-11629748.344421387,-11089647.29309082,-6167547.225952148,-5708577.1560668945,-528270.1849937439,-10949406.623840332,-10403309.82208252
0.45,-7891394.138336182,-13907175.064086914,-18049192.428588867,1962263.9417648315,-9539430.618286133,6300895.214080811,-2818900.8235931396,-3483406.5437316895,-4116644.3824768066,-3375883.3408355713,-3123222.827911377,-5913633.346557617,-5571321.487426758,-29045686.721801758,22781909.942626953,-4283055.305480957,2495265.245437622,-10459597.58758545,566365.0035858154,632944.8819160461,-5794294.357299805,-12175481.796264648,-9942881.58416748,21861625.67138672,556573.5101699829,14946936.60736084,-5760543.346405029,-660606.8015098572,-7763013.3628845215,-4361515.522003174,-4200011.730194092,-9685656.547546387,17194545.74584961,8726308.822631836,19022682.189941406,5206303.596496582,-930821.418762207,-10469421.38671875,-6449916.362762451,-6327115.058898926,-9695767.402648926,-13989793.77746582,-6190612.79296875,1315534.7108840942,-7584267.616271973,-2502552.9861450195,-10589507.102966309,-10369432.44934082,-10316984.176635742,-9985854.148864746,-11625283.241271973,-11456138.610839844,-10962224.006652832,-2806086.778640747,-10762747.764587402,-10842284.202575684,-10270634.651184082,-4721298.2177734375,-4289987.087249756,218136.57879829407,-10096170.425415039,-9584943.771362305
0.455,-14786177.635192871,-21178010.940551758,-24835433.959960938,1258039.2360687256,-14879768.371582031,-599068.820476532,-5763781.547546387,-6570481.300354004,-7041079.998016357,-6343282.222747803,-5970831.871032715,-9046944.618225098,-8738387.107849121,-33675220.48950195,18658201.217651367,-7685007.095336914,107683.86721611023,-12425976.753234863,-1504159.3313217163,-1401180.8633804321,-8333115.577697754,-16058763.50402832,-9149542.808532715,22011808.395385742,-1603551.983833313,14131432.53326416,-6746629.71496582,-267441.92838668823,-8812613.487243652,-5253067.0166015625,-5295344.352722168,-8894949.913024902,18536924.362182617,10447231.29272461,20266023.635864258,4674271.106719971,-274938.28535079956,-9337521.55303955,-5699201.1070251465,-5675858.497619629,-8590299.606323242,-10667447.090148926,-4564328.670501709,1669842.9584503174,-6682349.681854248,-2151378.870010376,-9440888.404846191,-9064772.605895996,-9382679.93927002,-8826835.632324219,-8601296.424865723,-8547141.075134277,-9030843.734741211,-2353979.3491363525,-9228646.278381348,-9731252.670288086,-9036609.649658203,-645585.5965614319,-1746282.3390960693,3606202.3639678955,-8542358.3984375,-8061726.5701293945
0.46,-22209632.873535156,-28427770.614624023,-32088211.059570312,842755.8541297913,-19278068.54248047,-9361372.947692871,-9722035.40802002,-10507385.25390625,-10929747.581481934,-9203507.423400879,-8900568.008422852,-12355736.73248291,-12257027.626037598,-39459541.32080078,12879912.376403809,-12728232.383728027,-3735913.7535095215,-15858066.55883789,-4459062.576293945,-4378340.721130371,-10877520.561218262,-20393848.419189453,-8695388.793945312,20937397.003173828,-5685435.2951049805,11971692.085266113,-8234916.687011719,-158594.7722196579,-9595636.367797852,-6224659.9197387695,-6364278.793334961,-8514499.66430664,17565540.313720703,11280686.378479004,20218448.638916016,3714234.1136932373,11665.42898863554,-7906178.4744262695,-4832637.310028076,-5014426.231384277,-7800542.35458374,-5970745.56350708,-2965794.086456299,1872928.9770126343,-5962299.346923828,-1843487.7395629883,-8206500.053405762,-7881140.232086182,-8650300.979614258,-7815544.128417969,-5426577.568054199,-5501900.196075439,-7263197.422027588,-2096738.576889038,-7704276.084899902,-8740687.370300293,-7981128.215789795,4876856.327056885,1189871.6688156128,7905800.342559814,-7095297.336578369,-6557312.01171875
0.465,-25286409.378051758,-31304975.509643555,-35624996.185302734,1012946.367263794,-19887256.622314453,-14008310.317993164,-10847718.238830566,-11641841.888427734,-12016696.92993164,-8964528.08380127,-8906676.292419434,-13630409.240722656,-13688772.201538086,-43358543.395996094,8906072.616577148,-16405818.939208984,-6063372.1351623535,-17111467.361450195,-5182391.64352417,-5248729.705810547,-11900472.640991211,-22859907.150268555,-10310253.143310547,19589008.331298828,-8976309.776306152,10208561.897277832,-8062145.233154297,-414471.3580608368,-9686843.872070312,-7178824.424743652,-7282406.330108643,-10069464.683532715,14838039.39819336,10990014.07623291,19165637.969970703,3175307.7507019043,-295471.9364643097,-8627872.467041016,-5925302.982330322,-6129640.579223633,-9408447.265625,-3540396.6903686523,-3382620.8114624023,1189022.7794647217,-6077673.91204834,-1926358.938217163,-9161020.278930664,-9281127.9296875,-10159904.479980469,-9218025.207519531,-5418489.456176758,-5445132.732391357,-7967848.777770996,-2320686.101913452,-8907754.898071289,-10080209.732055664,-9415501.594543457,5989903.450012207,969702.3034095764,8786429.405212402,-8336856.842041016,-7704161.643981934
0.47,-23220384.59777832,-29309484.481811523,-34375389.099121094,1471585.988998413,-17313150.40588379,-13234375.953674316,-8530546.188354492,-9411541.938781738,-9654608.726501465,-5613391.399383545,-5783970.355987549,-13067432.403564453,-13108938.217163086,-44538459.77783203,7722801.685333252,-17472961.42578125,-5662121.772766113,-14730032.920837402,-2955463.409423828,-3203536.033630371,-11540184.97467041,-23545309.06677246,-13788514.137268066,18439655.303955078,-10230853.080749512,9667321.20513916,-6060451.030731201,-737716.1383628845,-9480064.392089844,-8373415.946960449,-8390075.68359375,-13383988.380432129,11623068.809509277,9777971.267700195,18276092.529296875,3288271.188735962,-757127.4638175964,-11921476.364135742,-9138915.061950684,-9167150.497436523,-13177660.942077637,-5812747.955322266,-6378613.471984863,-769835.7701301575,-6802623.748779297,-2273237.2283935547,-12546372.413635254,-13273134.231567383,-13833373.069763184,-13004954.33807373,-9512077.331542969,-9350077.629089355,-11385223.388671875,-2757761.7168426514,-12849575.996398926,-13735406.875610352,-13262617.111206055,186974.1678237915,-3705410.957336426,5160929.6798706055,-12236078.262329102,-11617913.246154785
0.475,-19321018.21899414,-24701473.236083984,-29360755.920410156,1671517.9681777954,-13528296.47064209,-11130714.416503906,-6058121.204376221,-6917266.368865967,-7061064.720153809,-1935297.131538391,-2159216.88079834,-11266097.068786621,-11229183.197021484,-42052497.86376953,7476690.292358398,-16960208.892822266,-4205883.979797363,-11419704.43725586,-270601.3321876526,-564959.2876434326,-10245966.911315918,-22674369.81201172,-15447960.85357666,17533060.07385254,-10154988.288879395,9832695.007324219,-4523760.795593262,-879197.7763175964,-9094712.257385254,-8731301.307678223,-8617053.031921387,-15023624.420166016,9095494.270324707,8687838.554382324,17944240.57006836,3416906.1183929443,-882609.3077659607,-14311401.3671875,-11214842.796325684,-11089112.281799316,-15105018.615722656,-10202189.445495605,-9618824.95880127,-2996945.61958313,-7296013.832092285,-2488497.495651245,-14854570.388793945,-15665163.040161133,-15880710.60180664,-15165355.682373047,-14165275.573730469,-13877414.70336914,-14966261.863708496,-2948007.106781006,-15312738.418579102,-15805428.504943848,-15480764.389038086,-6852653.026580811,-9236461.639404297,1308143.0196762085,-14625973.70147705,-14177516.93725586
0.48,-18099966.049194336,-20586219.787597656,-22958389.282226562,1525083.6610794067,-10077801.704406738,-12914517.402648926,-6880528.450012207,-7530662.536621094,-7724940.299987793,-778860.4497909546,-877957.9401016235,-8285233.497619629,-8263337.135314941,-35314632.415771484,5306900.0244140625,-16957351.684570312,-4340624.809265137,-11046905.517578125,108951.40469074249,-68542.97965765,-8311470.031738281,-19568391.799926758,-12186257.362365723,16449466.705322266,-10198189.735412598,9772499.084472656,-5306129.455566406,-901071.2504386902,-8209410.667419434,-6671843.528747559,-6323382.85446167,-11990311.622619629,8006760.597229004,8761820.793151855,17564603.805541992,2826684.7133636475,-717193.3650970459,-12431973.457336426,-9201807.975769043,-9085395.812988281,-11953523.635864258,-11870368.957519531,-10409555.435180664,-4091647.148132324,-7246708.393096924,-2436892.27104187,-12768327.713012695,-12816691.398620605,-13010919.570922852,-12293962.478637695,-15209803.581237793,-14939623.832702637,-16229383.46862793,-2827289.581298828,-12700402.25982666,-12936259.269714355,-12649425.506591797,-7589537.143707275,-10641818.046569824,1990785.3603363037,-11981417.655944824,-11719414.710998535
0.485,-22119749.069213867,-20033720.016479492,-19052585.60180664,1470808.982849121,-8544814.109802246,-20285562.51525879,-11095591.54510498,-11567787.170410156,-11877614.02130127,-2800258.6364746094,-2715082.883834839,-5342410.564422607,-5391935.348510742,-27382461.547851562,-230877.69746780396,-18956535.33935547,-6881047.72567749,-14277018.547058105,-1951177.716255188,-2034802.9136657715,-6827321.0525512695,-15120874.404907227,-6224873.5427856445,14413372.039794922,-11329626.083374023,8914975.1663208,-7486131.66809082,-950210.8097076416,-7140085.220336914,-3009875.774383545,-2386683.940887451,-6300485.134124756,8147363.662719727,9749865.531921387,16953208.923339844,1497398.9725112915,-622977.1375656128,-7831392.288208008,-4828590.869903564,-4820991.516113281,-6107053.756713867,-9650744.438171387,-8849189.758300781,-3822473.5260009766,-7094225.4066467285,-2332220.7927703857,-7878084.182739258,-6924151.420593262,-7275553.226470947,-6609380.722045898,-12573599.815368652,-12362401.008605957,-15125445.365905762,-2684751.9874572754,-7113629.8179626465,-7285496.711730957,-6961196.422576904,-1982853.4126281738,-6979690.074920654,6817016.6015625,-6442969.799041748,-6218275.07019043
0.49,-29794687.271118164,-23939323.42529297,-20304841.995239258,1767011.8808746338,-9886706.352233887,-30236881.256103516,-15720445.63293457,-16253206.253051758,-16571079.25415039,-5902876.377105713,-5742022.514343262,-4626813.4117126465,-4636570.453643799,-23867435.455322266,-7813245.2964782715,-22689868.927001953,-10035162.925720215,-17993082.04650879,-4151442.527770996,-4321247.100830078,-7088281.631469727,-12591103.553771973,-3219374.179840088,11118857.383728027,-13529051.780700684,7232944.488525391,-8607960.70098877,-981247.8423118591,-6897538.185119629,-930578.0529975891,-188727.66196727753,-3372625.8277893066,7915266.990661621,10250668.5256958,16949815.75012207,262551.1586666107,-695560.8129501343,-5368191.719055176,-2776460.886001587,-2857857.2273254395,-3302765.6078338623,-7041749.477386475,-7488042.831420898,-3224488.2583618164,-7282412.052154541,-2341375.5893707275,-5153995.513916016,-3864992.380142212,-4206085.205078125,-3754604.5780181885,-9825897.216796875,-9615441.32232666,-13470397.94921875,-2662621.259689331,-4156333.9233398438,-4441430.09185791,-4058444.9768066406,3113559.2460632324,-2204155.921936035,11070199.966430664,-3602976.5605926514,-3253296.8521118164
0.495,-35686279.296875,-28560234.06982422,-23926443.099975586,2086609.125137329,-12139193.534851074,-37276744.8425293,-17730865.478515625,-18437707.901000977,-18618326.18713379,-6722603.797912598,-6705566.883087158,-6050499.91607666,-5876595.020294189,-26407018.661499023,-14376904.487609863,-26137647.62878418,-11384913.444519043,-18858619.689941406,-4288250.44631958,-4618477.821350098,-8441437.721252441,-13793226.24206543,-5517197.608947754,7289086.818695068,-15915690.422058105,5291948.7953186035,-7680540.084838867,-852705.5978775024,-7674079.895019531,-2129014.9688720703,-1503799.7961044312,-5587992.191314697,5614194.393157959,9228487.014770508,17848587.036132812,98225.10927915573,-690383.1362724304,-7054445.743560791,-4734062.194824219,-4840713.5009765625,-5683221.817016602,-7331469.535827637,-8176558.494567871,-3399756.43157959,-7808787.822723389,-2357730.3886413574,-6822166.919708252,-6026068.210601807,-6162349.700927734,-5910489.559173584,-9641909.5993042,-9389354.705810547,-12976449.012756348,-2620645.28465271,-6096389.7705078125,-6575032.711029053,-6148697.853088379,3061886.0721588135,-698655.366897583,11308898.92578125,-5676102.638244629,-5160144.805908203
