time,Fp1,Fpz,Fp2,AF3,AF4,F7,F5,F3,F1,Fz,F2,F4,F6,F8,FT7,FC5,FC3,FC1,FCz,FC2,FC4,FC6,FT8,T7,C5,C3,C1,Cz,C2,C4,C6,T8,TP7,CP5,CP3,CP1,CPz,CP2,CP4,CP6,TP8,P7,P5,P3,P1,Pz,P2,P4,P6,P8,PO7,PO5,PO3,POz,PO4,PO6,PO8,CB1,O1,Oz,O2,CB2
0.0,-5479337.215423584,-6167336.940765381,-5534338.474273682,-3468347.0726013184,-3609371.1853027344,-983888.8049125671,-1471955.7762145996,-1364640.3551101685,-2293566.2269592285,-3004229.5455932617,-2801497.220993042,-2721706.3903808594,-2677929.639816284,-2760699.987411499,-993223.9651679993,-656432.569026947,-968971.0736274719,-1160475.6116867065,-1902720.57056427,-1959610.7006072998,-1722145.5574035645,-1900932.0735931396,-1874262.0944976807,212369.57609653473,161893.50187778473,-227108.07621479034,-612221.0621833801,-1175336.7185592651,-802706.8972587585,-1022550.7020950317,-1009766.8170928955,-1333333.0154418945,1101240.7541275024,675539.8511886597,647036.1351966858,74493.19958686829,16626.127064228058,-475744.42625045776,-583076.2386322021,-309949.8748779297,-33909.04888510704,1027891.8743133545,969264.8649215698,640838.9210700989,439157.6647758484,82140.4680609703,-278579.5032978058,261490.40460586548,262488.454580307,423909.60454940796,711638.1525993347,767102.1223068237,720655.1432609558,58067.23237037659,231553.65884304047,653993.3681488037,527334.5112800598,731164.5150184631,771598.9947319031,678526.759147644,979119.8372840881,1011342.7639007568
0.005,-24981313.705444336,-24129339.21813965,-8007671.356201172,-17182603.83605957,-11653389.930725098,6512428.760528564,-2340158.462524414,-1343171.238899231,-5545335.76965332,-11139474.868774414,-11545215.606689453,-17190681.45751953,-16043552.39868164,-3502559.6618652344,6247091.770172119,6263775.34866333,-4024560.9283447266,-2314563.512802124,-6275336.742401123,-7573862.075805664,-6575661.182403564,-5047690.868377686,-212540.10498523712,13010084.15222168,8566121.101379395,6674790.382385254,402032.4647426605,-6527441.501617432,-2935210.4663848877,-4294232.368469238,-2941802.978515625,-7629919.052124023,10427877.426147461,11709499.35913086,11351030.349731445,4912977.695465088,-246629.7596693039,-5133759.021759033,-857698.6193656921,-2008829.3552398682,-410781.50272369385,9693139.07623291,8353610.038757324,10968389.511108398,7411325.454711914,1121041.4171218872,-2428380.012512207,1835520.3866958618,1179642.5580978394,1603155.255317688,622303.6646842957,3264189.2433166504,2860050.916671753,-82064.82976675034,-257644.6831226349,654065.9070014954,991431.2362670898,3296296.8349456787,3834209.203720093,2969467.1630859375,3754862.7853393555,3030179.500579834
0.01,-56349079.13208008,-56023357.39135742,-32526004.791259766,-35178771.97265625,-28495550.15563965,4343620.777130127,-9593925.476074219,-7682027.339935303,-13573668.479919434,-21036119.46105957,-22578115.463256836,-31293924.33166504,-29798276.901245117,-11533231.735229492,4059518.337249756,5286939.1441345215,-9528759.956359863,-7242214.202880859,-12003791.809082031,-13392950.057983398,-12213133.811950684,-10773713.111877441,-3402160.882949829,17775455.474853516,10503067.016601562,6917924.404144287,-597670.1974868774,-9961517.333984375,-7123940.467834473,-8353084.564208984,-6348201.751708984,-13424858.093261719,14883373.260498047,15676679.611206055,15440317.153930664,6254078.388214111,-479609.6682548523,-8288012.504577637,-4213849.5445251465,-5411551.952362061,-1739051.5804290771,14458824.157714844,12444408.416748047,15150056.838989258,10629904.747009277,1560302.6151657104,-4876340.866088867,-489245.83196640015,-1455500.602722168,663918.3759689331,2833885.1928710938,6228580.474853516,5311360.3591918945,-89757.42757320404,-1568363.3089065552,9213.280864059925,683129.7874450684,6101837.158203125,6822245.121002197,5934910.297393799,5377477.645874023,4867299.556732178
0.015,-94938613.89160156,-97278518.67675781,-73732330.32226562,-54689300.537109375,-50714981.07910156,-6035303.592681885,-21693738.93737793,-18163650.512695312,-23914098.739624023,-30314624.786376953,-33690406.799316406,-43475044.25048828,-42232955.93261719,-26163269.04296875,-6128015.041351318,-1753583.4312438965,-15908321.380615234,-14240459.442138672,-17839347.83935547,-18416992.1875,-17898431.7779541,-18114921.56982422,-10886179.92401123,15638997.077941895,7472404.956817627,2448515.4151916504,-2735995.054244995,-11323157.31048584,-12502964.973449707,-12438581.466674805,-10627656.936645508,-18223062.51525879,15869177.81829834,14438662.5289917,14117710.11352539,5003380.298614502,-568565.7262802124,-10018333.435058594,-9189095.497131348,-9140348.434448242,-3486434.9365234375,16936174.392700195,14846985.816955566,15138045.310974121,10851315.49835205,1459839.940071106,-7589634.895324707,-4891869.54498291,-5794214.725494385,-1628477.931022644,7943640.70892334,10732988.357543945,8599637.985229492,68746.82754278183,-2804951.6677856445,-340947.7174282074,522406.8760871887,9597663.879394531,10221896.171569824,9890320.777893066,6855045.795440674,7169560.90927124
0.02,-124391845.703125,-129566360.47363281,-106861457.82470703,-68457237.24365234,-67167015.0756836,-15674534.797668457,-31663442.611694336,-25432073.59313965,-30165372.848510742,-35036991.119384766,-40411880.49316406,-51706596.37451172,-50632621.76513672,-39629665.37475586,-15615569.114685059,-7241644.382476807,-19324420.928955078,-18250461.57836914,-20852378.845214844,-21094133.377075195,-21948812.48474121,-23701435.089111328,-17702302.932739258,13161021.23260498,5272988.319396973,-299.29482843726873,-3471805.5725097656,-11509322.166442871,-15968320.846557617,-14906396.865844727,-13742532.730102539,-21105184.55505371,17320838.928222656,14296757.698059082,13069654.46472168,4721601.486206055,-417846.143245697,-11103829.383850098,-11871513.366699219,-10510646.82006836,-4227564.334869385,20225608.825683594,18208225.25024414,16417158.126831055,11251226.425170898,1352004.5280456543,-9688904.762268066,-6788200.855255127,-7495426.654815674,-2856301.784515381,13456574.440002441,16000497.817993164,11984746.932983398,268317.25239753723,-2656465.2919769287,421465.4862880707,1421908.6170196533,13044862.747192383,13573513.984680176,13668673.515319824,9117547.988891602,9676446.914672852
0.025,-134723632.8125,-140831802.36816406,-117123367.30957031,-72562622.0703125,-72196861.26708984,-19618295.669555664,-35361614.22729492,-26369113.92211914,-30199590.6829834,-34766689.30053711,-41302288.05541992,-54968322.75390625,-53737380.98144531,-45125156.40258789,-19617092.13256836,-8206897.735595703,-18421651.84020996,-17205942.153930664,-19678188.32397461,-20948997.497558594,-23393222.80883789,-25554317.474365234,-20087356.567382812,12750972.747802734,5414233.207702637,1461470.2463150024,-2114184.856414795,-10874851.22680664,-15619355.201721191,-15135238.647460938,-14619557.38067627,-21140222.549438477,18752815.24658203,16034933.090209961,13935013.771057129,6538161.277770996,-131527.52816677094,-11454477.310180664,-11204832.077026367,-9420828.819274902,-3637336.015701294,22582145.69091797,20510269.165039062,18767881.393432617,12335591.316223145,1497112.3933792114,-9732832.908630371,-5596441.745758057,-6179665.088653564,-2400609.254837036,15324254.035949707,18336648.94104004,13067198.753356934,300878.7930011749,-1613504.8866271973,997053.9212226868,2153336.763381958,14138713.836669922,14701591.491699219,14854899.406433105,10381637.573242188,10322128.295898438
0.03,-131714965.8203125,-136722213.7451172,-112647285.46142578,-70223876.953125,-70341522.21679688,-20375709.533691406,-34744922.63793945,-24576650.619506836,-27994178.771972656,-32970588.68408203,-39404094.69604492,-54413127.89916992,-53038021.087646484,-43345310.21118164,-20534667.96875,-8089519.500732422,-15839820.861816406,-14279963.493347168,-16439506.530761719,-19360309.600830078,-22882720.947265625,-24870824.813842773,-19097377.77709961,11783458.709716797,4735826.015472412,2652452.7072906494,-791156.2919616699,-9604146.957397461,-13045467.376708984,-14294976.234436035,-14328653.335571289,-19236146.926879883,16858867.645263672,15274025.917053223,13613402.366638184,8060277.938842773,9701.545350253582,-10669613.8381958,-9836303.7109375,-8413846.969604492,-3129933.8340759277,20316270.82824707,18173105.239868164,17582536.697387695,11865669.250488281,1609864.4733428955,-7334408.283233643,-4814124.10736084,-5353793.144226074,-1988329.529762268,12502338.409423828,15545990.943908691,10734564.781188965,94962.13495731354,-1336486.3395690918,-181235.80515384674,1082953.5722732544,11838907.241821289,12412224.769592285,12619730.949401855,8640777.587890625,8175786.018371582
0.035,-130508132.93457031,-134093658.44726562,-111593795.77636719,-69643768.31054688,-70746421.81396484,-22108346.939086914,-34617931.3659668,-25450868.606567383,-29083467.483520508,-33941043.853759766,-39862907.40966797,-54136634.826660156,-52836784.36279297,-41556259.15527344,-22302936.553955078,-10036774.635314941,-15730628.01361084,-14533733.367919922,-15780603.408813477,-19229604.721069336,-22781597.137451172,-24832832.33642578,-18938766.479492188,9300703.048706055,1965926.6471862793,412546.7836856842,-1954135.8947753906,-9316720.962524414,-12205048.561096191,-14496425.62866211,-14902004.24194336,-18616178.512573242,12577668.190002441,11370191.57409668,11050307.273864746,7237467.288970947,-146717.57817268372,-9636668.20526123,-10186188.697814941,-8927771.56829834,-3854132.652282715,15533909.797668457,13423517.227172852,13101140.975952148,9553341.86553955,1412756.323814392,-4237267.49420166,-5735151.290893555,-6247040.748596191,-2495986.223220825,9102152.824401855,11281940.460205078,7813897.132873535,-131260.36524772644,-1843936.800956726,-1656135.4398727417,-401533.8122844696,8958562.850952148,9371906.280517578,9882488.250732422,6101467.132568359,6167978.286743164
0.04,-141581863.4033203,-145010772.70507812,-123456932.0678711,-77884643.5546875,-79605201.7211914,-26004783.630371094,-38376750.94604492,-31652832.03125,-36358222.96142578,-40418884.27734375,-46514492.03491211,-59147399.90234375,-57927776.33666992,-46052188.873291016,-26071012.496948242,-13453674.31640625,-20541585.92224121,-20510732.650756836,-21339912.41455078,-23284189.224243164,-25956315.994262695,-28007492.065429688,-22329540.252685547,7838522.911071777,-459188.0440711975,-3819272.756576538,-5967077.255249023,-12364328.384399414,-15842295.64666748,-17222368.240356445,-17260158.53881836,-21566995.62072754,11072367.668151855,9412124.633789062,9556040.76385498,5002575.397491455,-408438.89117240906,-10104002.952575684,-11933063.507080078,-9542275.428771973,-4703713.417053223,15001857.75756836,12924153.327941895,11664994.239807129,8604212.760925293,1146153.0923843384,-2864959.239959717,-5172074.317932129,-5667177.677154541,-2026081.8004608154,10054160.118103027,11584753.99017334,8618120.193481445,-34575.868397951126,-968823.6117362976,-18785.936757922173,1264479.9947738647,9801857.948303223,10005648.612976074,10848927.49786377,7683598.518371582,8299958.229064941
0.045,-160972732.5439453,-165290222.16796875,-142306533.81347656,-93686225.89111328,-95061408.99658203,-30908695.220947266,-45636131.286621094,-41665416.7175293,-48184989.92919922,-51689353.942871094,-58346961.975097656,-69748580.93261719,-68460289.00146484,-55206134.79614258,-30873277.66418457,-16784971.237182617,-28945363.998413086,-30151460.647583008,-31800321.578979492,-31206453.323364258,-32824367.52319336,-33885829.92553711,-27612005.23376465,8386805.534362793,-1111487.3886108398,-7519341.468811035,-11100384.712219238,-18628528.594970703,-22645069.122314453,-21935249.32861328,-20354333.877563477,-26102073.669433594,14227048.873901367,12244614.601135254,11283157.348632812,3324358.2248687744,-446609.6758842468,-12510578.155517578,-13652175.903320312,-8693944.931030273,-3594034.433364868,20702457.427978516,18572803.497314453,16407707.214355469,11322853.088378906,1262920.7372665405,-3693349.599838257,-909720.8976745605,-1420431.137084961,1408710.241317749,15285717.964172363,17350345.611572266,13845554.35180664,479275.4352092743,2668498.0392456055,5324664.115905762,6933216.094970703,15104401.588439941,15283137.321472168,16235048.294067383,14459198.951721191,14535191.535949707
0.05,-171956985.4736328,-176708053.5888672,-152206298.828125,-105128128.05175781,-105984687.80517578,-34380176.54418945,-51602630.615234375,-49567680.35888672,-57737922.66845703,-61620792.388916016,-67767440.79589844,-78032676.69677734,-76729927.06298828,-60329193.115234375,-34415287.017822266,-19151357.650756836,-35668384.55200195,-37536716.46118164,-40296524.04785156,-38116386.41357422,-39068969.7265625,-38198810.57739258,-30191188.81225586,8480010.032653809,-1549545.407295227,-9897763.2522583,-14880345.344543457,-24198024.74975586,-27777393.341064453,-25727066.040039062,-22022115.70739746,-27607767.10510254,17709470.748901367,15825204.849243164,13515815.734863281,2532956.838607788,-210516.42298698425,-15176969.528198242,-14731710.433959961,-7299876.2130737305,-630531.1322212219,26416460.037231445,24303987.503051758,22044242.85888672,15406883.239746094,1733273.7445831299,-4781994.342803955,3873338.6993408203,3341173.1719970703,6274488.925933838,19943923.950195312,23075403.213500977,19469837.188720703,1081275.1054763794,7224085.807800293,10494676.58996582,12606435.775756836,20800359.72595215,21157745.361328125,22053361.892700195,21191991.806030273,20401058.197021484
0.055,-160744262.6953125,-164677581.78710938,-141266494.75097656,-99727310.18066406,-100366264.34326172,-33459381.103515625,-50598499.2980957,-48572563.17138672,-57133319.85473633,-61887187.95776367,-66003646.85058594,-74468856.81152344,-73379478.45458984,-55033660.888671875,-33635471.34399414,-19069841.384887695,-35235157.01293945,-37222061.15722656,-40021793.365478516,-38134647.369384766,-38682880.40161133,-36380916.595458984,-27281055.450439453,6730080.604553223,-2636922.3594665527,-10386693.000793457,-15458989.143371582,-24839153.289794922,-27056243.896484375,-25354337.692260742,-20877447.1282959,-24299192.428588867,17141677.856445312,15281549.453735352,12890466.690063477,1977316.2603378296,33604.84540462494,-15997365.951538086,-14912984.848022461,-7200124.740600586,1467959.5232009888,25890420.91369629,24017240.524291992,22080511.09313965,16788290.02380371,2028581.6192626953,-4208613.395690918,4425305.366516113,3906742.0959472656,8549347.877502441,20237131.118774414,23651639.938354492,21150640.4876709,1327700.0188827515,9262145.042419434,11366056.442260742,13560404.777526855,22415412.90283203,22944326.400756836,23691183.09020996,22063503.26538086,21735664.36767578
0.06,-133362838.74511719,-135853485.10742188,-114975967.40722656,-79534332.27539062,-79354286.19384766,-27693599.700927734,-42507423.400878906,-38412620.544433594,-45960166.931152344,-50793266.29638672,-52925506.591796875,-59380725.8605957,-58539901.73339844,-42814262.39013672,-27885660.17150879,-15435482.9788208,-27772321.701049805,-29767076.49230957,-31411155.700683594,-30696842.193603516,-30702308.654785156,-28661947.25036621,-20826623.916625977,5477768.421173096,-2622205.4958343506,-8044761.657714844,-12871698.379516602,-20531564.712524414,-21029441.833496094,-20484413.146972656,-17412637.71057129,-19157878.875732422,13676159.858703613,11751151.084899902,10481901.168823242,1969964.623451233,108498.40939044952,-14330053.329467773,-13518601.417541504,-7942876.33895874,928086.8768692017,20620817.184448242,19054073.333740234,17428129.196166992,14913652.420043945,1853100.8958816528,-2295033.6933135986,1005295.991897583,536082.8638076782,6602778.911590576,17150268.5546875,19831106.185913086,18536489.486694336,1139055.609703064,7531244.277954102,8222444.534301758,9707339.2868042,19578622.817993164,20123456.954956055,20529617.309570312,17266706.466674805,18418048.858642578
0.065,-112869377.13623047,-114187072.75390625,-94069084.16748047,-61933349.609375,-59737495.42236328,-21449659.34753418,-34392189.025878906,-27910989.76135254,-34135089.87426758,-37447334.28955078,-39323341.369628906,-44523265.83862305,-43709342.95654297,-33426162.719726562,-21518051.147460938,-10565265.655517578,-20034727.096557617,-22298501.96838379,-22449569.702148438,-22142911.911010742,-21471302.032470703,-20587921.142578125,-15214560.508728027,6962587.833404541,-507666.58782958984,-4135192.87109375,-9525929.45098877,-15558591.842651367,-14714696.884155273,-14611981.391906738,-13382918.357849121,-15853697.776794434,11405314.445495605,9927113.53302002,9828823.08959961,3143867.4926757812,161841.42231941223,-11250438.690185547,-10548709.869384766,-7143363.952636719,-423872.3814487457,16850994.110107422,15367568.969726562,14157686.233520508,12935347.557067871,1552881.7176818848,-911526.2031555176,-1446669.340133667,-1840563.5356903076,3344407.796859741,14303743.362426758,16143011.093139648,14884264.945983887,866955.2803039551,4265668.869018555,5043776.035308838,5534589.2906188965,15737121.58203125,16217163.0859375,16182498.931884766,12271884.91821289,13657852.172851562
0.07,-115323028.56445312,-115808967.59033203,-93971809.38720703,-61147846.22192383,-57038414.001464844,-20026617.0501709,-33092391.967773438,-26225696.563720703,-32091777.801513672,-33086105.346679688,-36096717.834472656,-40749347.68676758,-39813522.33886719,-32211582.18383789,-20004890.44189453,-8768900.871276855,-18492118.83544922,-21474386.21520996,-20493333.81652832,-19406148.91052246,-18286342.62084961,-17433452.606201172,-12747557.640075684,9627307.891845703,1667315.7215118408,-2223819.2558288574,-8395215.034484863,-13992879.867553711,-12845479.011535645,-11847946.166992188,-10380140.30456543,-14704064.36920166,11752950.668334961,11217761.039733887,11627861.976623535,4565421.581268311,351656.82435035706,-8602329.25415039,-7751296.9970703125,-4173202.5146484375,330410.74872016907,17412332.53479004,15772034.645080566,14990959.167480469,13076407.432556152,1590419.2924499512,-1151178.8368225098,-25641.756132245064,-324468.5232639313,2421652.07862854,13797317.504882812,15444552.421569824,13345624.923706055,838361.0248565674,2542270.8988189697,4745038.5093688965,4843229.293823242,14191571.235656738,14665402.41241455,14490430.83190918,11262343.406677246,10749970.436096191
0.075,-131928192.13867188,-131729583.74023438,-108090789.79492188,-72348915.10009766,-68415451.04980469,-23294170.379638672,-37405902.86254883,-32234336.853027344,-38942924.49951172,-38682239.5324707,-42601634.97924805,-46744899.74975586,-45765769.958496094,-35789558.41064453,-23318437.576293945,-10800663.948059082,-22155982.971191406,-26266180.03845215,-24817358.016967773,-22804515.838623047,-21653890.60974121,-19177543.64013672,-12626056.671142578,10373441.696166992,1821549.654006958,-3692437.8871917725,-9916656.494140625,-15786957.740783691,-15436443.328857422,-12846658.706665039,-9080204.010009766,-14079442.977905273,12715210.914611816,12737373.352050781,13251989.364624023,4476552.486419678,499565.988779068,-7676110.26763916,-7093015.670776367,-1590487.5993728638,2872466.564178467,19496206.283569336,17730529.78515625,16902362.823486328,14009932.518005371,1870989.7994995117,-2341461.658477783,2727524.757385254,2484461.784362793,3622424.364089966,14640563.011169434,16716402.053833008,14017598.152160645,954301.4168739319,3009381.7710876465,6346609.115600586,6745488.64364624,14913754.4631958,15456262.588500977,15546058.654785156,12940215.110778809,10207805.633544922
0.08,-139668731.68945312,-139315841.6748047,-115981307.98339844,-78610176.08642578,-77191154.47998047,-25941755.294799805,-40172130.5847168,-36353363.037109375,-44239612.5793457,-44589626.31225586,-48580066.6809082,-52363269.8059082,-51415813.44604492,-37960002.89916992,-26037567.138671875,-12666408.53881836,-24436801.91040039,-29659236.907958984,-28511711.12060547,-26542713.165283203,-25646625.518798828,-21801912.307739258,-13430455.207824707,8773332.595825195,913014.7695541382,-5498673.915863037,-11470612.525939941,-17608909.606933594,-18323472.97668457,-14628786.087036133,-9304483.413696289,-13673281.6696167,12236496.925354004,12052065.8493042,12846954.345703125,2936228.7521362305,331753.4029483795,-8153393.745422363,-8259988.784790039,-1843508.8396072388,4016362.190246582,19325111.389160156,17644014.358520508,16424911.499023438,13426455.4977417,1905006.4086914062,-3093068.3612823486,3024177.312850952,2719811.201095581,3827434.301376343,14247734.069824219,16996107.10144043,14309140.2053833,877236.4854812622,3841415.8821105957,6910140.514373779,7449553.0128479,15102001.190185547,15719868.659973145,15939821.243286133,13077292.442321777,9457247.734069824
0.085,-125442298.88916016,-125797363.28125,-104843215.94238281,-69987098.69384766,-71354591.3696289,-24103485.107421875,-36760658.264160156,-32180213.928222656,-40583377.838134766,-42060348.51074219,-45781627.6550293,-49826049.8046875,-48838943.48144531,-35489269.2565918,-24130851.74560547,-11189340.591430664,-21372852.325439453,-26972665.786743164,-26383863.44909668,-25499879.837036133,-24914377.212524414,-21637069.702148438,-13999424.934387207,6838290.691375732,902951.0617256165,-4596452.713012695,-10812875.747680664,-16850254.05883789,-17560804.36706543,-14100103.378295898,-9928728.103637695,-13750078.201293945,10033514.022827148,9646875.381469727,11121970.176696777,1897877.0971298218,-32718.215137720108,-8367090.225219727,-8702744.483947754,-3817627.6683807373,2379610.776901245,16022340.774536133,14554106.712341309,13586355.209350586,11286368.370056152,1517538.5475158691,-2676440.0005340576,961740.9110069275,543457.1504592896,1787245.3927993774,10918405.532836914,14253507.614135742,11951889.038085938,528877.5563240051,3502062.0822906494,5123864.650726318,5120248.794555664,12515943.52722168,13168577.194213867,12894243.240356445,9783207.893371582,5937839.984893799
0.09,-95651176.45263672,-96803909.30175781,-78876968.38378906,-51136760.71166992,-53069152.83203125,-19155853.271484375,-28954582.21435547,-22697839.736938477,-30714647.29309082,-32008312.225341797,-34996879.57763672,-39073787.689208984,-38038810.72998047,-27716552.734375,-18982707.977294922,-8081406.593322754,-15559307.098388672,-20497592.92602539,-19577239.990234375,-20054046.630859375,-19529397.96447754,-17446590.423583984,-12320177.07824707,5755600.452423096,1350924.8495101929,-2490218.162536621,-9178521.156311035,-14335759.162902832,-13019131.660461426,-10977343.559265137,-9184987.06817627,-12691940.307617188,6887509.822845459,6877464.294433594,9130733.489990234,2240576.982498169,-171288.47539424896,-7271610.736846924,-6621004.581451416,-4347651.00479126,366456.62784576416,11174653.053283691,9919288.635253906,10176269.53125,9286621.09375,1059769.3920135498,-1371701.955795288,-453638.4344100952,-851272.5234031677,-263860.5833053589,5707756.519317627,9174777.98461914,7794079.303741455,201936.31947040558,2627995.014190674,2408242.702484131,1869099.2593765259,8213627.815246582,8824403.762817383,7769377.2315979,5423223.01864624,1126925.3492355347
0.095,-65513679.50439453,-66352180.48095703,-50748165.130615234,-32489753.72314453,-32266780.853271484,-14508050.918579102,-21234193.801879883,-14611635.208129883,-21848684.310913086,-21720823.287963867,-22759500.50354004,-24839689.254760742,-23974903.106689453,-15289865.493774414,-14191329.956054688,-6635529.9949646,-11641893.38684082,-15567802.429199219,-12960155.487060547,-14302477.836608887,-13171479.225158691,-10166163.444519043,-6715948.581695557,4957132.339477539,494133.5320472717,-2562981.605529785,-9441437.721252441,-12944805.145263672,-7838607.311248779,-7158574.104309082,-6134006.023406982,-8381051.063537598,3983077.5260925293,4264956.951141357,6844523.906707764,2494810.104370117,20530.126988887787,-5848526.0009765625,-3090692.2817230225,-2495822.4296569824,658322.2150802612,6962945.938110352,5898511.4097595215,7187942.5048828125,8202048.301696777,873296.7972755432,-64923.18958044052,149333.58132839203,-69617.24162101746,-37604.40647602081,2014377.3555755615,4879348.7548828125,5169482.707977295,135987.19239234924,2811845.541000366,975785.9110832214,886247.3964691162,5607549.19052124,6050963.401794434,4599799.633026123,3650943.0408477783,-162383.10933113098
0.1,-45628192.90161133,-45125286.10229492,-30582941.05529785,-20205236.434936523,-17193119.049072266,-11616770.74432373,-16426897.048950195,-10617053.031921387,-17291107.177734375,-16175668.716430664,-14679521.560668945,-12597907.066345215,-12121221.542358398,-2077198.9822387695,-11377606.391906738,-6884402.275085449,-10619563.102722168,-14281411.170959473,-9737930.297851562,-11184990.882873535,-8711327.55279541,-2622473.71673584,853331.5658569336,3876152.515411377,-1366169.6910858154,-4473335.266113281,-11734926.223754883,-13882651.329040527,-4879830.837249756,-4187234.878540039,-1986948.3709335327,-1938891.6492462158,2535554.1706085205,2310229.539871216,4562387.466430664,1356463.4323120117,143203.2734155655,-5560244.560241699,-537785.9473228455,-313742.63763427734,2738651.990890503,5068721.771240234,4152398.5862731934,5224509.716033936,7315855.026245117,852078.914642334,383949.1903781891,1422842.6218032837,1279094.8152542114,1832748.293876648,2376816.511154175,4180201.0536193848,6069924.831390381,196576.62510871887,4282330.03616333,1572996.6163635254,2691201.4484405518,6582359.790802002,6750267.028808594,5265840.05355835,5393127.44140625,4039669.0368652344
0.105,-37436195.373535156,-35890506.744384766,-21720750.80871582,-14658908.84399414,-10822103.500366211,-10453326.225280762,-15048039.436340332,-8985743.522644043,-15496633.529663086,-14619643.211364746,-12143383.979797363,-6200220.584869385,-6039576.530456543,5645053.863525391,-10474725.723266602,-6575665.473937988,-10050014.49584961,-14416831.016540527,-9035969.734191895,-10195023.536682129,-6357786.655426025,1751563.4298324585,5528097.629547119,2613532.781600952,-2194828.510284424,-4711349.010467529,-13031476.974487305,-15037437.438964844,-4064357.7575683594,-2073409.080505371,954724.7290611267,2685223.5794067383,2487393.617630005,1643429.7561645508,3492382.764816284,-181835.17456054688,-102683.32809209824,-5722639.560699463,412829.3991088867,751283.8244438171,4401984.691619873,5569926.738739014,4695608.615875244,5057204.723358154,6090414.524078369,694187.2239112854,-71435.3546500206,2362252.950668335,2005188.7035369873,3389487.2665405273,5371189.594268799,6436043.739318848,8589054.107666016,126721.12882137299,5867383.95690918,3278546.3333129883,5111998.081207275,9154393.196105957,9063628.196716309,7418848.991394043,8210018.157958984,9210655.212402344
0.11,-36542583.46557617,-34992504.11987305,-21632268.90563965,-14066161.155700684,-11744822.50213623,-11518304.824829102,-16355287.551879883,-8190820.693969727,-14773510.932922363,-14311120.986938477,-13283592.224121094,-6338101.387023926,-6218957.901000977,5044618.129730225,-11771990.776062012,-5530577.182769775,-8497451.782226562,-13603869.438171387,-8224619.8654174805,-9464431.762695312,-5250443.458557129,1572360.873222351,4828445.911407471,879861.8912696838,-1745301.1274337769,-2465258.5983276367,-11565695.762634277,-13827948.570251465,-3550780.773162842,-528397.9177474976,1547933.6977005005,3165588.617324829,1989974.6179580688,1580158.7104797363,3837136.5070343018,-507609.0693473816,-426342.1297073364,-4218722.820281982,1169756.293296814,1799391.1504745483,4940294.7425842285,6469480.514526367,5567825.794219971,6245194.435119629,5127419.948577881,402739.34602737427,-506581.54487609863,3695163.4883880615,3063918.8289642334,4065496.4447021484,6840457.439422607,7993412.494659424,9183326.721191406,-32621.04094028473,6818325.996398926,4794369.220733643,6231414.794921875,9790874.481201172,9574552.536010742,7807388.782501221,9258714.67590332,9413648.60534668
0.115,-40095340.728759766,-38922637.939453125,-26860074.996948242,-17955057.14416504,-17645122.528076172,-15259265.899658203,-19225368.49975586,-9367441.177368164,-16213985.443115234,-15236104.965209961,-16409893.035888672,-11458552.360534668,-11198181.15234375,-937623.0835914612,-15535932.540893555,-6082092.761993408,-7763051.986694336,-12889416.694641113,-7048072.814941406,-9131631.851196289,-5816292.285919189,-1909064.6505355835,713102.3406982422,-1759385.4665756226,-2145956.27784729,-1258275.7472991943,-9540656.089782715,-11136169.43359375,-3152396.9173431396,-509859.26389694214,59509.44498181343,435972.9588031769,-164737.2990846634,522186.16008758545,4099463.46282959,96800.0516295433,-349661.58866882324,-1188852.9062271118,2080656.0516357422,3704574.3465423584,4882011.890411377,5834066.390991211,4962295.055389404,6895310.878753662,5333253.383636475,314644.4261074066,-246842.47374534607,5469743.728637695,4853607.654571533,4203302.383422852,4914248.466491699,6655097.007751465,7184051.990509033,4892.029333859682,7377387.046813965,5409055.233001709,6097352.981567383,7788905.143737793,7571256.160736084,6502616.405487061,8277609.825134277,4999425.888061523
0.12,-51471992.49267578,-50400157.9284668,-38497005.462646484,-27863813.400268555,-28740770.33996582,-20284374.237060547,-22992277.145385742,-14265137.672424316,-21807619.094848633,-19697055.81665039,-22219913.482666016,-20610193.252563477,-20181598.663330078,-8865536.6897583,-20396072.387695312,-9134285.926818848,-10313604.354858398,-15325601.577758789,-8365189.552307129,-11403923.988342285,-9596441.268920898,-7261719.703674316,-4415603.160858154,-4000513.5536193848,-4265344.619750977,-3518678.665161133,-9910585.403442383,-10651823.997497559,-5076054.573059082,-3416684.38911438,-3168884.515762329,-4178899.7650146484,-1858453.9890289307,-1149150.3715515137,3635254.8599243164,265513.42010498047,89993.00748109818,129514.6644115448,1030640.2444839478,4720389.366149902,3956628.0841827393,4847332.954406738,4032133.5792541504,6382874.965667725,6887375.354766846,657269.5970535278,-115249.32086467743,5742868.900299072,5363691.806793213,3351142.168045044,2744510.8890533447,4852083.206176758,5741719.722747803,340632.1704387665,7473485.469818115,5125259.876251221,5701060.2951049805,6244985.580444336,6085443.97354126,6534575.939178467,7472330.570220947,2150351.7627716064
0.125,-74488891.6015625,-73605995.17822266,-59429393.76831055,-43901107.78808594,-45830780.029296875,-23974958.419799805,-27580459.594726562,-21970825.1953125,-30710624.69482422,-27550838.470458984,-31493890.7623291,-33243541.717529297,-32622043.60961914,-18510213.85192871,-23928050.994873047,-12280035.972595215,-15598092.079162598,-21481687.545776367,-13885883.331298828,-16857034.68322754,-16350698.471069336,-14019140.243530273,-10391286.849975586,-3192950.72555542,-5800137.519836426,-6625874.5193481445,-12054790.496826172,-13833282.470703125,-10459171.295166016,-8601039.88647461,-7606781.959533691,-10297593.116760254,367431.04457855225,-641206.2048912048,4247364.044189453,-300.22283317521214,392277.0023345947,-2326209.306716919,-3395192.6231384277,3144541.025161743,1914254.4269561768,6881172.180175781,5930167.675018311,6743171.691894531,9094027.519226074,1236863.136291504,-1530145.287513733,3491021.3947296143,3178354.501724243,1281932.2347640991,4792524.337768555,6748732.089996338,7795966.625213623,736182.7492713928,6360303.4019470215,4639839.649200439,5696298.122406006,8199359.893798828,8153695.106506348,9785841.941833496,8893966.674804688,4799882.411956787
0.13,-102034843.44482422,-101814216.61376953,-84045372.00927734,-60377964.01977539,-63863567.35229492,-25085502.62451172,-32293712.615966797,-28533487.31994629,-38442443.84765625,-33976768.493652344,-40986026.763916016,-45355384.826660156,-44506351.470947266,-28586149.215698242,-25043010.711669922,-12912040.710449219,-20077573.776245117,-27750255.584716797,-20437408.447265625,-22142229.080200195,-22359201.431274414,-20438310.623168945,-16274250.030517578,1084040.4033660889,-4543503.284454346,-6692710.876464844,-12888045.310974121,-17491592.407226562,-16576587.677001953,-12870764.73236084,-11205770.492553711,-16170957.565307617,6188676.834106445,3218960.0467681885,7390051.84173584,363869.48823928833,293109.267950058,-5992024.898529053,-8657295.227050781,931709.4087600708,631762.6237869263,12611333.847045898,11269238.471984863,9544952.392578125,10718406.677246094,1637667.5367355347,-4172791.4810180664,1204176.1875152588,696780.5624008179,-117891.41595363617,10976060.86730957,12593032.836914062,12300788.879394531,945224.1063117981,4353477.954864502,5115928.173065186,6494388.103485107,12782015.800476074,12928737.64038086,14692352.294921875,12329414.367675781,10152142.524719238
0.135,-119072891.23535156,-119430465.69824219,-99181114.19677734,-69401603.69873047,-73777954.1015625,-24922384.26208496,-35663265.228271484,-30852998.733520508,-41342140.197753906,-34763309.478759766,-45616180.419921875,-50982120.513916016,-50001682.28149414,-34422916.412353516,-25007425.30822754,-11669137.954711914,-21290437.698364258,-30452863.693237305,-23318326.950073242,-23644193.649291992,-23938852.310180664,-23481266.021728516,-18930950.164794922,5347095.966339111,-1813155.4126739502,-4160482.406616211,-11533276.557922363,-18011768.341064453,-19724857.330322266,-13809961.318969727,-11741556.167602539,-18800647.735595703,10922440.528869629,7551341.533660889,11266352.653503418,1221748.4712600708,75963.63872289658,-6758135.3187561035,-10702905.654907227,1548192.7394866943,2393929.7199249268,18264179.229736328,16540880.20324707,13053059.577941895,10825243.949890137,1694032.4306488037,-5806541.442871094,2131542.921066284,1520109.5342636108,1361361.5036010742,16503654.479980469,18048591.61376953,15604504.585266113,1030802.845954895,3492232.322692871,7143259.048461914,8365095.138549805,16298534.393310547,16666225.43334961,18292308.807373047,15722215.65246582,13262680.053710938
0.14,-122856315.61279297,-123130256.65283203,-102194984.43603516,-71727409.36279297,-75374610.9008789,-25905143.73779297,-37891056.060791016,-31009735.107421875,-41887371.06323242,-33155879.974365234,-46323013.30566406,-51009338.37890625,-50080314.63623047,-35228801.72729492,-26073011.39831543,-11546610.832214355,-21093317.03186035,-30958866.119384766,-23266267.776489258,-22906478.881835938,-22793035.50720215,-23562131.881713867,-18084177.017211914,6172985.553741455,-598708.6296081543,-2822502.613067627,-10412881.851196289,-16484155.654907227,-20395656.58569336,-13035926.818847656,-10341732.9788208,-18385215.759277344,11594486.236572266,9261800.765991211,13076689.720153809,1347374.677658081,127898.52917194366,-4587113.857269287,-9437294.006347656,4571129.322052002,5946471.691131592,20639396.66748047,18775735.85510254,14911417.961120605,10069531.440734863,1697459.5785140991,-5156864.643096924,5697691.917419434,5263480.663299561,4702368.259429932,18073249.81689453,19904106.14013672,16127626.419067383,1240244.5077896118,5104299.068450928,9876814.842224121,10818539.6194458,16926153.1829834,17461940.76538086,19634302.139282227,17531063.079833984,13341811.180114746
0.145,-129829788.20800781,-129843368.53027344,-108356979.37011719,-77929840.08789062,-80874610.9008789,-28985017.776489258,-41571678.161621094,-34326419.830322266,-46466163.635253906,-36872718.811035156,-50576347.35107422,-54682605.7434082,-53823608.3984375,-38226516.72363281,-29095722.198486328,-14004299.16381836,-23332696.91467285,-34132369.99511719,-26089097.97668457,-25070602.416992188,-24642953.872680664,-25757566.452026367,-18773290.634155273,4887470.722198486,-1279886.00730896,-4269014.835357666,-11469635.963439941,-17100496.292114258,-22654748.916625977,-14211550.71258545,-10926419.258117676,-19221248.626708984,11194606.78100586,9533884.048461914,13157785.415649414,747639.7156715393,449726.4325618744,-3352191.686630249,-8841933.250427246,5842748.165130615,7378975.391387939,21733324.05090332,19821594.23828125,16097141.26586914,10574738.502502441,2038539.171218872,-3757885.217666626,8199060.440063477,7909708.499908447,6581935.405731201,18006357.192993164,20193046.56982422,16122941.970825195,1639423.4895706177,7632593.631744385,11959001.541137695,12835782.051086426,16862764.358520508,17501596.450805664,20431621.551513672,18445079.803466797,13454161.643981934
0.15,-151391921.9970703,-151603424.07226562,-128439773.55957031,-92860908.50830078,-97351081.84814453,-32580963.134765625,-47634685.51635742,-41751323.69995117,-56056468.96362305,-46705070.49560547,-61137031.55517578,-66443115.234375,-65457313.537597656,-48169845.58105469,-32557460.78491211,-17175601.959228516,-28241468.42956543,-41034713.74511719,-33723083.49609375,-31093225.479125977,-31116092.681884766,-32520256.04248047,-24147739.41040039,5676386.833190918,-1514623.4035491943,-6152595.043182373,-13455289.840698242,-20981832.50427246,-27819152.83203125,-17824586.868286133,-14656894.68383789,-23345861.434936523,14073431.015014648,11510361.671447754,14251864.433288574,884443.3426856995,741569.6978569031,-5133047.580718994,-11067089.080810547,3518099.546432495,5553445.339202881,25303499.221801758,23167318.34411621,19008592.60559082,13385703.086853027,2651666.4028167725,-3795174.5986938477,7751969.814300537,7268431.663513184,5940397.7394104,20360622.40600586,22663774.490356445,18253170.013427734,1996777.2960662842,8331452.369689941,13055285.453796387,13985261.917114258,19013353.34777832,19720756.53076172,22503190.994262695,20245763.778686523,15466452.598571777
0.155,-170853057.86132812,-171073318.4814453,-146206192.01660156,-104217437.74414062,-111348289.4897461,-34224098.205566406,-52042537.689208984,-46676803.58886719,-62330631.256103516,-52718837.73803711,-68760604.85839844,-75698150.63476562,-74468971.2524414,-56263786.31591797,-34116390.228271484,-18165739.059448242,-31002798.080444336,-45929054.260253906,-39537403.10668945,-34979770.66040039,-36025409.69848633,-37806549.072265625,-28640617.37060547,9093495.36895752,-189744.09997463226,-5961260.795593262,-13913235.664367676,-24440990.447998047,-31630529.403686523,-20018972.396850586,-17326671.600341797,-26071531.295776367,18593095.779418945,14478273.391723633,16820680.618286133,2147540.56930542,787779.3908119202,-7476961.612701416,-13221581.45904541,795949.8763084412,3743766.0694122314,29906288.146972656,27449766.159057617,22283773.42224121,16343400.955200195,2975055.21774292,-5035984.516143799,6051534.175872803,5269717.216491699,4987695.693969727,24269920.349121094,26473587.036132812,21522953.033447266,2027306.079864502,6649064.540863037,13557093.620300293,14407713.890075684,22512248.992919922,23226814.27001953,25087194.442749023,22835218.42956543,17669691.08581543
0.16,-163062103.27148438,-161899948.1201172,-137047470.09277344,-97240478.515625,-104382957.4584961,-33735721.588134766,-50539043.42651367,-43107826.232910156,-57739688.873291016,-46632907.86743164,-63328842.16308594,-69152557.37304688,-67856704.71191406,-49687313.079833984,-33651210.78491211,-16716886.520385742,-27796445.846557617,-43466152.19116211,-36717586.517333984,-31649728.775024414,-33126182.556152344,-34075122.83325195,-24507532.119750977,10482739.448547363,718392.4317359924,-4302722.930908203,-12561952.590942383,-24165311.813354492,-29966054.916381836,-17801673.889160156,-14894144.058227539,-22059103.01208496,18445783.615112305,14175745.964050293,17904121.39892578,2879130.8403015137,622132.3013305664,-7437319.755554199,-11935349.464416504,975301.2657165527,4492797.8515625,29739231.10961914,27201135.635375977,21538200.37841797,16129116.05834961,2616095.542907715,-5541991.710662842,4901337.623596191,4144591.3314819336,5008591.651916504,24540962.21923828,26717542.64831543,22260265.350341797,1693032.5031280518,4429264.068603516,13102789.878845215,13666792.869567871,23444026.947021484,24055139.541625977,25471609.115600586,23578826.904296875,17553703.30810547
0.165,-133795318.60351562,-130040481.56738281,-106553756.71386719,-78148895.26367188,-81443748.4741211,-34071582.79418945,-46032375.33569336,-35261222.83935547,-47369644.16503906,-34542255.40161133,-49644096.37451172,-51143959.045410156,-50035041.80908203,-31123802.185058594,-34085102.08129883,-15964224.815368652,-21985931.396484375,-36969650.26855469,-28633535.385131836,-24737918.853759766,-25294200.897216797,-23734365.463256836,-13660338.401794434,6329708.576202393,-1095783.7104797363,-3859854.4597625732,-11678788.185119629,-21668102.264404297,-25084995.26977539,-13437906.265258789,-9596666.33605957,-13708689.68963623,11653297.424316406,9216254.234313965,15314249.038696289,1687530.517578125,411665.4694080353,-5939105.033874512,-8610247.611999512,2718746.9005584717,5905919.551849365,23172645.568847656,20860420.22705078,15986401.557922363,12611449.241638184,1907062.6497268677,-4858848.571777344,3865575.5519866943,3394013.6432647705,4348697.185516357,19262948.989868164,21577564.239501953,19107494.354248047,1245771.050453186,3222996.711730957,11078291.893005371,11262554.168701172,20200344.08569336,20645259.857177734,22590171.813964844,20787178.03955078,15343172.073364258
0.17,-117689704.89501953,-111807044.98291016,-88902618.40820312,-69848030.09033203,-68550613.40332031,-37982055.6640625,-46446849.82299805,-33742420.1965332,-44382041.931152344,-30546625.1373291,-43354381.5612793,-40613323.21166992,-39690731.048583984,-17945806.5032959,-38098937.98828125,-19067710.876464844,-21161931.99157715,-35361259.46044922,-25370904.92248535,-22294584.274291992,-21300624.84741211,-17202527.99987793,-6150113.105773926,-782757.8783035278,-5372519.016265869,-6458369.255065918,-13536882.400512695,-20808132.17163086,-22973436.35559082,-11533937.454223633,-7075733.184814453,-8498709.678649902,4013447.7615356445,3486109.733581543,10587516.784667969,-693933.367729187,282875.7166862488,-5975808.143615723,-7212610.721588135,2870348.6919403076,5388896.465301514,16138414.38293457,14054354.667663574,10507244.110107422,9329340.934753418,1534601.8075942993,-4494023.79989624,2562815.1893615723,2189212.0838165283,2157729.8641204834,13370521.545410156,15645943.641662598,15151111.602783203,982170.4626083374,3050611.972808838,8702913.284301758,8650849.342346191,16025426.864624023,16364135.7421875,19040205.001831055,16886234.283447266,13723928.451538086
0.175,-131223617.55371094,-124954032.89794922,-100843963.62304688,-81377738.95263672,-78161445.61767578,-43830505.37109375,-53582332.611083984,-41260635.37597656,-52672542.572021484,-38086074.82910156,-50151596.06933594,-45943656.92138672,-44999404.90722656,-19422801.971435547,-43997138.97705078,-24899280.548095703,-27316276.55029297,-41398502.349853516,-30120342.254638672,-25795364.379882812,-23992898.94104004,-18936454.77294922,-6428323.745727539,-5543559.551239014,-9797531.127929688,-11277617.454528809,-17730829.2388916,-22384624.481201172,-25344860.076904297,-12943933.486938477,-8454268.455505371,-8784593.58215332,1672538.6381149292,896640.3603553772,6830630.302429199,-2588905.5728912354,221037.89448738098,-7950206.756591797,-8391495.704650879,1759895.5631256104,4355950.832366943,14610422.134399414,12529946.327209473,9365164.756774902,8970954.895019531,1676570.7731246948,-5275485.038757324,2530272.2454071045,1953012.228012085,1057859.182357788,12404862.403869629,14192123.413085938,14003873.825073242,958033.561706543,3594433.546066284,8494037.628173828,8589671.13494873,14860920.906066895,15198719.024658203,18202909.469604492,15997478.485107422,14381911.277770996
0.18,-150435134.8876953,-145101028.4423828,-119437271.11816406,-95316146.85058594,-92915550.2319336,-46635398.864746094,-59337375.64086914,-48170673.37036133,-61165355.68237305,-45437934.87548828,-58414432.525634766,-54532096.86279297,-53474952.697753906,-25745855.3314209,-46768894.19555664,-28276700.973510742,-33449344.635009766,-47665782.9284668,-35139652.252197266,-28602100.372314453,-27146005.630493164,-22265502.9296875,-8305559.158325195,-6212469.100952148,-12221016.883850098,-15164406.776428223,-21030399.322509766,-23632886.88659668,-28013174.057006836,-14366082.191467285,-9381764.41192627,-9647191.047668457,3805242.5384521484,1045714.0207290649,5564877.986907959,-3276875.2574920654,111557.9679608345,-9426292.419433594,-9238332.748413086,2318722.0096588135,5943577.766418457,17320154.190063477,15147292.137145996,11222111.701965332,10252428.05480957,1859709.8588943481,-6256609.916687012,4737291.8128967285,4048499.584197998,3493790.3881073,15514208.793640137,16793287.27722168,15418932.914733887,985240.2806282043,4832493.782043457,10903414.726257324,11489766.120910645,16446626.663208008,16821439.743041992,20022611.618041992,18722768.783569336,16129728.317260742
0.185,-148880554.19921875,-144309371.9482422,-118526771.54541016,-93344207.76367188,-92587677.00195312,-44362815.856933594,-56868785.8581543,-45750366.2109375,-59186977.38647461,-42376739.501953125,-56609416.96166992,-52819381.71386719,-51774040.22216797,-25061120.986938477,-44389289.85595703,-25945075.98876953,-32557327.270507812,-46805110.931396484,-33334541.32080078,-26098484.03930664,-25394100.189208984,-20636264.80102539,-5844350.814819336,-5060866.355895996,-12011260.032653809,-15421376.22833252,-20577245.712280273,-22754358.291625977,-27598379.135131836,-13744568.824768066,-7145201.683044434,-7394803.047180176,5619659.423828125,1749923.2292175293,6496507.64465332,-3146777.629852295,-74299.11196231842,-9126978.874206543,-8394344.329833984,4988200.1876831055,9726024.627685547,19239727.020263672,17076875.686645508,12555006.980895996,10466646.194458008,1717727.0650863647,-6690404.415130615,7301496.505737305,6875550.270080566,7703462.600708008,17934476.852416992,19421659.469604492,16694795.608520508,921088.695526123,6303621.292114258,13523542.404174805,14514618.873596191,17773180.00793457,18166116.71447754,21580684.661865234,21839874.267578125,17275827.407836914
0.19,-137022003.17382812,-131987457.27539062,-107166076.66015625,-81927291.87011719,-82794998.16894531,-40946289.0625,-50725914.001464844,-38268169.40307617,-50871337.890625,-33645606.994628906,-49156158.447265625,-45706497.19238281,-44780315.39916992,-20945684.4329834,-40852279.66308594,-21094554.901123047,-26943660.736083984,-41399173.736572266,-27927484.5123291,-21985963.821411133,-21781526.565551758,-17273395.538330078,-2310320.6157684326,-3942649.8413085938,-10218929.290771484,-13075491.905212402,-17355022.430419922,-21276592.254638672,-26046979.904174805,-12958393.096923828,-4553643.703460693,-4917268.2762146,5704382.419586182,2739696.264266968,8618620.872497559,-2870735.6452941895,-178421.7655658722,-8581196.784973145,-7872470.855712891,6956489.562988281,12178306.579589844,19252998.35205078,17138505.935668945,12871577.262878418,9327304.84008789,1479072.4515914917,-7204717.15927124,7966464.996337891,7920578.479766846,10105076.789855957,18236530.303955078,20564844.131469727,16979452.13317871,845675.2896308899,7067442.893981934,14536446.571350098,15461091.995239258,17903079.986572266,18312152.862548828,21426193.237304688,23173843.383789062,18410718.91784668
0.195,-139849975.5859375,-133507034.30175781,-108917953.49121094,-78767608.64257812,-81261154.17480469,-40620674.13330078,-49480037.689208984,-35355255.126953125,-47139297.48535156,-29661579.132080078,-46898433.685302734,-45446319.580078125,-44581649.78027344,-22949399.948120117,-40487415.3137207,-19345861.434936523,-24045230.865478516,-38860866.54663086,-25904609.68017578,-21349763.870239258,-21499404.907226562,-18212379.455566406,-3269645.2140808105,-2653414.726257324,-8724533.081054688,-11996178.62701416,-15048508.644104004,-20905704.498291016,-26366014.48059082,-13908416.748046875,-4864423.2749938965,-6020745.277404785,6081562.042236328,4271866.798400879,10397606.84967041,-2960139.036178589,-55185.91403961182,-9128861.427307129,-8996191.97845459,6584219.932556152,11688464.164733887,19689882.278442383,17484296.798706055,13403377.532958984,8277299.880981445,1483501.4343261719,-8079747.200012207,7360231.876373291,7397555.351257324,9879710.19744873,18645957.946777344,21400852.20336914,17257026.67236328,867688.3578300476,6653519.153594971,14656762.12310791,15151653.289794922,18086959.838867188,18515472.412109375,20587682.723999023,23558038.71154785,20584320.068359375
0.2,-147645339.9658203,-140861145.01953125,-115474853.515625,-81342529.296875,-84647499.08447266,-40164741.51611328,-50486495.97167969,-35664527.893066406,-47564949.03564453,-29323259.353637695,-47995040.89355469,-48710887.90893555,-47843212.12768555,-26928350.4486084,-40126010.89477539,-20157804.489135742,-24461570.739746094,-39162307.73925781,-26130027.770996094,-21789110.18371582,-22294332.50427246,-20616764.068603516,-5918734.550476074,-953338.3846282959,-8000839.2333984375,-13274138.450622559,-14703406.33392334,-20140569.68688965,-26903320.3125,-14584240.913391113,-6204379.558563232,-8723582.26776123,6774645.3285217285,4868290.424346924,10593529.70123291,-3272920.608520508,164290.13013839722,-9486903.190612793,-9605425.834655762,5626213.073730469,9860431.671142578,20154426.57470703,17780200.958251953,13342581.748962402,7433004.379272461,1587370.2764511108,-8100948.333740234,7472169.876098633,7285429.47769165,8366593.360900879,19061185.836791992,21195034.02709961,16673368.453979492,880647.0036506653,5125850.200653076,14343128.204345703,14415600.776672363,17635351.181030273,18033918.380737305,18903985.97717285,23066253.662109375,21319288.25378418
0.205,-122090843.2006836,-117111503.60107422,-92023612.97607422,-68135932.92236328,-70383293.15185547,-31186532.974243164,-41149509.42993164,-27589651.107788086,-40539665.22216797,-21664665.22216797,-40010231.018066406,-39603240.966796875,-38801414.489746094,-18660942.07763672,-31302297.592163086,-16238239.288330078,-20669282.913208008,-34710891.72363281,-21134788.513183594,-16809177.39868164,-17218294.143676758,-15828255.653381348,-2377411.365509033,931071.1026191711,-5891786.098480225,-12686090.469360352,-12830844.87915039,-16243545.532226562,-23550210.95275879,-11587046.62322998,-4152420.5207824707,-8242542.266845703,5455880.641937256,3701385.736465454,10024888.99230957,-2742367.2676086426,190244.33195590973,-7804892.539978027,-7215606.212615967,6195458.41217041,8046497.344970703,17519021.98791504,15184101.104736328,11355714.797973633,5787716.865539551,1446686.3870620728,-6565156.936645508,8062553.405761719,7662930.965423584,5606893.539428711,16140501.022338867,17360387.802124023,12587275.505065918,700250.3275871277,2363287.925720215,11777461.051940918,11498718.26171875,13696804.04663086,13997750.282287598,13816411.018371582,19119993.209838867,16091989.517211914
0.21,-55910861.96899414,-53850028.99169922,-31835298.538208008,-33254638.671875,-33132450.103759766,-11963752.746582031,-17940465.927124023,-7764616.966247559,-22397550.582885742,-4071287.6319885254,-20599367.141723633,-15344908.714294434,-14655733.108520508,3339064.836502075,-12144941.329956055,-3889562.1299743652,-9372254.371643066,-23205677.032470703,-9919559.478759766,-6451933.38394165,-5908780.574798584,-3046962.7380371094,7967982.769012451,3652163.7439727783,-467564.1059875488,-6740990.63873291,-6994301.795959473,-9913269.04296875,-16594284.057617188,-5495778.560638428,1667046.070098877,-4337332.725524902,2566271.7819213867,3178471.803665161,10942495.346069336,-677458.7035179138,-25411.497801542282,-4824733.257293701,-3063580.03616333,7781815.052032471,5831557.750701904,12246915.817260742,10278699.87487793,9236359.596252441,3855433.940887451,1171184.8974227905,-5100208.759307861,7195788.383483887,6761977.672576904,1054700.255393982,9600408.554077148,10734373.092651367,5334188.461303711,394003.0038356781,-1408551.812171936,6180598.258972168,5431636.333465576,6370944.976806641,6588813.304901123,4953665.733337402,11145717.62084961,5227416.515350342
0.215,3530465.1260375977,4746620.178222656,22594604.4921875,-1726011.9915008545,202871.56105041504,6605062.484741211,4080019.474029541,10293411.254882812,-6158859.729766846,10964685.440063477,-4456697.463989258,5180742.263793945,5913326.740264893,21375886.917114258,6483242.988586426,9497542.381286621,1338567.3761367798,-13410138.130187988,-1418653.964996338,1334239.12525177,3046788.6924743652,7429605.484008789,16011604.309082031,7695896.148681641,5941990.852355957,746972.6800918579,-918094.277381897,-5473281.8603515625,-11468894.004821777,-976768.9108848572,6608000.2784729,-1735905.1704406738,1889665.2460098267,5649984.836578369,13670553.207397461,1639056.921005249,-195753.38065624237,-3222864.6278381348,-904968.3809280396,8343746.185302734,3174976.8257141113,9362126.350402832,7828462.12387085,9972111.701965332,3535117.8646087646,1213945.6272125244,-5722279.5486450195,4553731.441497803,4136168.4799194336,-3458925.247192383,4574782.848358154,6374033.9279174805,-411658.01882743835,243333.54830741882,-4680301.666259766,754216.3133621216,-455615.96751213074,451803.4756183624,694198.5487937927,-3001767.635345459,3965188.74168396,-4151977.062225342
0.22,8361742.01965332,12228921.890258789,28243747.71118164,426378.2501220703,2422214.7464752197,11187985.42022705,7603468.894958496,12112892.150878906,-5340607.643127441,11521018.028259277,-4706052.303314209,4710071.563720703,5688174.724578857,19983522.415161133,11082556.72454834,12885720.252990723,2158748.3882904053,-13807418.823242188,-2528542.7570343018,1009176.8503189087,2728724.241256714,6788312.4351501465,14103503.227233887,10615271.56829834,8143743.515014648,2645870.6855773926,-234551.75757408142,-5708358.7646484375,-11888876.914978027,-1332166.1949157715,6487736.225128174,-3890721.321105957,4341851.234436035,8783684.730529785,15534373.28338623,2099524.736404419,-88823.96668195724,-4200696.4683532715,-2579838.514328003,6739966.39251709,985263.2880210876,11138249.397277832,9737074.851989746,12666737.55645752,5058823.585510254,1630211.1148834229,-7888369.560241699,1500426.6500473022,1018465.2805328369,-5468799.591064453,4827014.446258545,7037342.071533203,-1260138.1540298462,331956.8336009979,-6031800.746917725,-1141793.7278747559,-2329814.672470093,-400670.4092025757,-37791.40114784241,-5366392.135620117,2414828.5388946533,-6099980.83114624
0.225,-32165557.861328125,-24951187.133789062,-7474227.428436279,-21021142.959594727,-20433189.392089844,728374.183177948,-6035316.944122314,506407.38010406494,-16399681.091308594,1361123.0850219727,-16175596.237182617,-10916014.671325684,-9747930.526733398,4576410.77041626,441985.8753681183,4900582.790374756,-4769089.698791504,-20955364.227294922,-8830513.954162598,-3894515.7527923584,-3964394.5693969727,-1977845.1919555664,4896809.101104736,8636459.350585938,4369724.750518799,-1780816.3166046143,-4489778.995513916,-8593267.440795898,-15474761.009216309,-5026533.603668213,1847730.5173873901,-9259456.634521484,5449001.312255859,7983061.31362915,14297012.329101562,653787.7917289734,151068.24040412903,-6242191.791534424,-6371928.691864014,3342939.853668213,-858515.7990455627,13280924.797058105,11652393.341064453,13200023.651123047,6283506.393432617,1902442.5745010376,-9341305.73272705,-1445896.863937378,-2001954.5555114746,-5962111.473083496,7334647.178649902,9378040.313720703,476715.0282859802,393349.5283126831,-6249630.451202393,-931446.373462677,-1503689.2890930176,1483658.4329605103,1967110.276222229,-3503758.430480957,4599015.712738037,-3142740.488052368
0.23,-69786338.80615234,-62592433.92944336,-43105930.32836914,-39076660.15625,-40762825.01220703,-13024465.560913086,-19994876.861572266,-9718209.266662598,-25111248.016357422,-6871479.034423828,-24469671.24938965,-23076988.220214844,-22012716.29333496,-8172019.004821777,-13551662.44506836,-5003298.282623291,-9643437.385559082,-25026311.87438965,-11703166.961669922,-6855454.444885254,-9566016.19720459,-9527793.884277344,-3157066.583633423,2301257.1334838867,-1050599.0982055664,-6028344.15435791,-7784117.221832275,-10438396.453857422,-17808387.756347656,-8231652.25982666,-3412204.0271759033,-13784696.578979492,1961245.1791763306,3207607.0308685303,11190741.539001465,-578208.0888748169,208642.69137382507,-7296282.2914123535,-9279233.932495117,-255481.15372657776,-3110122.6806640625,11437667.846679688,9534642.219543457,10258208.274841309,5687452.793121338,1640915.1554107666,-9662147.521972656,-4316304.683685303,-4830949.783325195,-7619177.81829834,7236583.232879639,9255599.021911621,677609.5628738403,179999.2173910141,-7113321.304321289,-2019001.2454986572,-1924869.8949813843,1711872.5776672363,2238305.3302764893,-2248908.9965820312,5037488.93737793,-1785488.247871399
0.235,-80449356.07910156,-76936859.13085938,-57682853.69873047,-41618980.407714844,-46094318.38989258,-19406625.747680664,-23526697.158813477,-11478880.882263184,-25870832.443237305,-8560840.606689453,-25473751.068115234,-25041404.724121094,-24273143.768310547,-11884653.091430664,-19919784.545898438,-8504889.488220215,-8693246.841430664,-23441568.37463379,-10114237.785339355,-6916161.53717041,-11515567.779541016,-11790678.024291992,-5649900.913238525,-2289130.449295044,-2702299.5948791504,-5575386.047363281,-7097417.35458374,-10487210.273742676,-18189453.125,-9065632.820129395,-5938224.315643311,-14882784.843444824,-2283179.521560669,-308584.39207077026,9123077.392578125,-459026.84330940247,-4769.712686538696,-7004302.024841309,-9710058.212280273,-1651972.5322723389,-4307291.030883789,8005958.557128906,6078217.506408691,7160354.6142578125,4147944.927215576,1106656.9089889526,-11260850.90637207,-5448096.752166748,-5824895.38192749,-9228476.524353027,5344951.152801514,7900100.231170654,-379125.1480579376,-193669.84069347382,-8157655.715942383,-3420248.7468719482,-3080614.3283843994,468148.6785411835,947950.0651359558,-2539059.87739563,3381787.7769470215,-2761073.112487793
0.24,-83286628.72314453,-83420555.1147461,-65931961.05957031,-41069557.189941406,-48141376.49536133,-19001014.709472656,-21800312.042236328,-10936967.849731445,-25472759.246826172,-9376603.126525879,-26547893.524169922,-25632455.825805664,-25064300.537109375,-13631410.598754883,-19196788.787841797,-6750349.998474121,-6959537.506103516,-21992149.353027344,-9441488.265991211,-7319067.95501709,-12441709.518432617,-11935365.676879883,-4768025.3982543945,-407990.2470111847,-42700.60360431671,-2946900.6061553955,-5228266.23916626,-10397035.598754883,-18846576.690673828,-8318550.109863281,-5199841.499328613,-12879125.595092773,-1258581.9959640503,1010576.4865875244,9185787.200927734,-134482.78605937958,-296970.933675766,-6356761.932373047,-8278538.703918457,389875.02455711365,-1814262.3901367188,8334111.213684082,6582903.3851623535,6793197.6318359375,2974544.2867279053,823660.5525016785,-16251747.131347656,-3145764.112472534,-3399589.776992798,-6860577.583312988,6114736.080169678,9156578.063964844,630722.2843170166,-430731.862783432,-7306222.915649414,-1255417.823791504,-837321.7582702637,1309480.6671142578,1690932.7507019043,-1118999.0043640137,4459848.880767822,-1167777.0614624023
0.245,-98966041.5649414,-99905509.94873047,-82810852.05078125,-49362213.134765625,-57565822.60131836,-18949493.408203125,-23865615.844726562,-14337389.945983887,-29319658.279418945,-13044898.986816406,-31335954.666137695,-31228115.08178711,-30668378.829956055,-18747028.350830078,-18880161.28540039,-5754576.683044434,-8352771.759033203,-23981067.657470703,-11391489.028930664,-8632058.143615723,-13641297.340393066,-13157171.249389648,-4166553.020477295,4927198.886871338,3018447.160720825,-2251085.042953491,-4937022.686004639,-10643540.382385254,-20255542.755126953,-7442983.627319336,-3245957.374572754,-10313532.829284668,4212104.797363281,4500781.059265137,10270088.195800781,-551003.9925575256,-455357.73038864136,-6088028.907775879,-6968705.654144287,3548605.9188842773,2999707.9372406006,12269196.510314941,10659876.823425293,7838838.10043335,2014284.8491668701,910558.2237243652,-23315757.751464844,189243.49546432495,4614.06446993351,-1553265.4523849487,9722094.535827637,12621360.778808594,3696951.150894165,-432848.0660915375,-5077440.26184082,3521661.2815856934,4352971.076965332,4433535.575866699,4739226.341247559,2519875.2880096436,9257180.213928223,4139733.7913513184
0.25,-118375846.86279297,-118358024.59716797,-99238517.76123047,-60659248.35205078,-67888473.51074219,-22932849.884033203,-30167293.548583984,-19420705.795288086,-34281200.40893555,-16412380.21850586,-34760681.15234375,-36768009.185791016,-36170948.02856445,-23342933.654785156,-22966062.545776367,-8368210.792541504,-10864408.493041992,-26330638.885498047,-12510189.056396484,-8697271.347045898,-13811346.054077148,-14938696.86126709,-5181236.267089844,6254022.121429443,2854727.9834747314,-3697900.7720947266,-5303104.877471924,-10424044.609069824,-20741983.41369629,-7506204.605102539,-2935594.081878662,-10326966.285705566,6916558.265686035,5161136.627197266,10967923.164367676,-855389.7142410278,-424822.21126556396,-6048544.883728027,-7384235.858917236,3528199.4342803955,4324625.015258789,14261962.890625,12708346.366882324,7616030.216217041,907347.2619056702,1058418.2739257812,-28357276.916503906,-286682.9037666321,-418140.11335372925,-233775.0792503357,11337271.690368652,13916769.981384277,4786087.989807129,-323950.29067993164,-4843467.712402344,4737307.548522949,6156452.655792236,5679363.72756958,6005385.875701904,4021163.9404296875,11911234.855651855,7515193.939208984
0.255,-124671401.97753906,-124475296.02050781,-102861122.13134766,-65647827.1484375,-70944992.06542969,-29321063.995361328,-36475814.81933594,-22983469.009399414,-37573760.986328125,-18144935.607910156,-34883049.01123047,-37748943.32885742,-37180809.020996094,-24292320.251464844,-29671886.444091797,-13656630.516052246,-13181104.66003418,-27597469.329833984,-12542861.938476562,-8586825.370788574,-14070137.023925781,-16866846.084594727,-8159638.404846191,728759.5868110657,-1152020.3351974487,-6104132.652282715,-5721285.820007324,-10656114.57824707,-20508193.969726562,-9483786.582946777,-5775214.672088623,-14372079.849243164,2950284.481048584,1957012.8917694092,10505875.587463379,-456400.5732536316,-262032.50885009766,-5762372.970581055,-9336202.621459961,-746270.5969810486,-829441.249370575,11681539.535522461,10230668.067932129,6251482.009887695,672989.010810852,1050752.1629333496,-28209463.119506836,-4774179.458618164,-4890236.377716064,-6145659.923553467,8659394.264221191,11504209.518432617,2131471.3954925537,-187527.23932266235,-7524672.508239746,188408.2555770874,1646263.1225585938,2988504.8866271973,3438181.8771362305,918517.7087783813,8437988.28125,4967243.671417236
0.26,-122758247.37548828,-123732505.79833984,-101518630.98144531,-67977012.63427734,-72651306.15234375,-35691627.502441406,-42355072.021484375,-27633195.877075195,-42711082.458496094,-22879915.237426758,-38457347.86987305,-39573078.15551758,-39051261.90185547,-26615709.30480957,-36163982.39135742,-20153202.056884766,-18090042.114257812,-31584293.365478516,-16261651.992797852,-12491612.434387207,-18297002.7923584,-20821254.73022461,-13596209.526062012,-6913832.664489746,-7026552.200317383,-10150585.174560547,-8458899.49798584,-13584065.437316895,-22221864.700317383,-13469070.434570312,-10475904.46472168,-20499408.721923828,-3257937.6697540283,-1793517.9471969604,8728785.514831543,-680122.1370697021,-54152.16460824013,-5105362.415313721,-11144100.189208984,-5148277.759552002,-7693770.408630371,8443889.617919922,7124783.515930176,5839619.159698486,2271994.5907592773,1010165.9297943115,-23596284.866333008,-7176763.05770874,-7397102.832794189,-12879983.901977539,5523068.904876709,9093398.094177246,-593762.1593475342,14256.694354116917,-9054845.809936523,-3927206.7546844482,-3207897.901535034,-40486.56299710274,553919.3749427795,-2641736.7458343506,3525455.2364349365,530562.9968643188
0.265,-127122947.6928711,-129564239.50195312,-108978263.85498047,-74727790.83251953,-81343841.55273438,-40667110.443115234,-48845146.17919922,-34990608.21533203,-51060806.27441406,-31841186.5234375,-48764858.24584961,-47573204.040527344,-47049999.23706055,-34656364.44091797,-40939464.5690918,-25921499.252319336,-25565620.42236328,-39245315.55175781,-24339181.900024414,-20181211.471557617,-26338268.280029297,-26852066.040039062,-19999837.87536621,-10635900.497436523,-11517802.238464355,-15500022.888183594,-13991154.670715332,-18622661.590576172,-26442283.630371094,-17417819.97680664,-13797378.540039062,-24645378.11279297,-5315903.663635254,-3081576.347351074,6543037.414550781,-2584569.9310302734,108755.41716814041,-4571026.32522583,-11588101.387023926,-5242376.804351807,-9315897.941589355,8931177.139282227,7563230.514526367,6972819.805145264,4561849.117279053,1119906.3062667847,-18548360.82458496,-3080123.9013671875,-3494472.7420806885,-12344434.73815918,6151674.747467041,10124410.629272461,692338.4666442871,279251.48606300354,-5763076.7822265625,-1333626.8663406372,-1408466.100692749,898784.6970558167,1558436.2745285034,-1258831.0241699219,4220825.672149658,453376.3825893402
0.27,-134334030.1513672,-138030441.2841797,-119941009.52148438,-80307037.35351562,-90353660.5834961,-42603527.0690918,-52467651.3671875,-38951965.33203125,-55216083.52661133,-36719039.91699219,-56563331.604003906,-55528118.13354492,-54959159.85107422,-42598758.697509766,-42631240.84472656,-27811664.581298828,-29057273.864746094,-43745552.06298828,-29215341.567993164,-24821302.41394043,-31543268.20373535,-30599769.592285156,-23287853.240966797,-9827178.955078125,-12063309.669494629,-18253326.416015625,-17786849.975585938,-21553243.63708496,-29525386.810302734,-18466144.561767578,-13544520.378112793,-24495635.986328125,-3016238.9278411865,-2171263.4563446045,5751605.033874512,-4575632.572174072,166500.7621049881,-4958450.3173828125,-11161257.74383545,-1836878.0612945557,-5383293.151855469,11901426.315307617,10291773.796081543,8277431.488037109,5484380.722045898,1318337.5597000122,-16786943.435668945,3656410.4557037354,3164457.082748413,-5722320.079803467,9246919.631958008,12984036.445617676,4784420.490264893,475877.16579437256,-238016.90340042114,5307760.715484619,5192290.782928467,4859976.291656494,5477477.550506592,4053434.8487854004,9789613.723754883,4311769.962310791
0.275,-131004562.37792969,-135878860.4736328,-119594184.87548828,-74907341.00341797,-87644157.40966797,-40788066.86401367,-49433197.021484375,-33848045.349121094,-49014377.59399414,-30589241.02783203,-52397403.717041016,-54252285.00366211,-53567661.28540039,-42576221.46606445,-40801151.275634766,-24716976.165771484,-24317726.135253906,-39596359.25292969,-25193143.844604492,-21817390.44189453,-29034000.396728516,-28827711.10534668,-21575057.983398438,-8186107.635498047,-9171579.360961914,-15608922.004699707,-15962363.243103027,-19703668.59436035,-28451982.498168945,-16411413.192749023,-11047321.319580078,-22123577.117919922,-1067850.947380066,-1000478.982925415,7281117.4392700195,-4324140.548706055,121121.71202898026,-6486993.312835693,-11206423.75946045,297775.3281593323,-2023167.610168457,13226819.99206543,11479368.209838867,8820536.613464355,4886132.717132568,1393512.487411499,-18545827.865600586,5705239.295959473,5398097.515106201,-1462562.7994537354,10610676.765441895,13852940.559387207,7089842.796325684,470298.2008457184,1524043.321609497,8232583.999633789,8717079.162597656,7291397.571563721,7823865.4136657715,7404601.097106934,13055727.9586792,6465749.263763428
0.28,-121461730.95703125,-127047843.93310547,-111062980.65185547,-63795833.587646484,-77495643.61572266,-37586154.93774414,-43327365.87524414,-25051918.029785156,-39117534.63745117,-20116991.04309082,-42256656.646728516,-47109344.482421875,-46189052.58178711,-38217765.80810547,-37777473.44970703,-20235403.060913086,-17082458.49609375,-31965681.076049805,-17640197.75390625,-15866713.523864746,-23171161.651611328,-25181316.375732422,-19142831.802368164,-7897200.107574463,-6160907.26852417,-10684728.622436523,-11340458.869934082,-15687355.041503906,-25390947.341918945,-14414935.111999512,-10028233.528137207,-22072433.471679688,-1795282.006263733,-460765.0637626648,10058539.390563965,-2076143.2647705078,33761.27779483795,-8105457.305908203,-12247369.766235352,-1546581.745147705,-3661852.8366088867,12165459.632873535,10547468.185424805,9161765.098571777,4536128.997802734,1291029.5724868774,-21034763.33618164,1623951.6735076904,1604791.760444641,-3926419.496536255,9255611.419677734,12130633.354187012,5706769.4664001465,269334.077835083,-2179040.4319763184,4970747.470855713,5853909.015655518,6114484.786987305,6610106.468200684,5943451.404571533,10519305.229187012,4383283.1382751465
0.285,-123829246.5209961,-129126785.27832031,-112114273.07128906,-62714935.302734375,-76419281.00585938,-36363555.908203125,-41635448.45581055,-23164703.369140625,-37720088.958740234,-18220249.17602539,-40496456.146240234,-46180458.068847656,-45009143.8293457,-40249832.15332031,-36718105.31616211,-18962944.03076172,-15942374.229431152,-30355264.66369629,-16096742.630004883,-14900609.016418457,-22215065.002441406,-26025228.50036621,-21746061.325073242,-7724636.554718018,-5543633.460998535,-8809960.36529541,-9725250.244140625,-14038483.619689941,-24771039.962768555,-15190067.291259766,-12527555.465698242,-26240303.03955078,-2947121.3817596436,-172691.211104393,12273477.554321289,-155558.2880973816,-231.5895544597879,-8331206.321716309,-13652217.864990234,-5380772.590637207,-8391885.757446289,11476187.705993652,10006897.926330566,9917510.986328125,5439804.553985596,1199739.0985488892,-21760061.264038086,-3341979.98046875,-3285333.6334228516,-9092018.127441406,7737788.200378418,10489055.633544922,3036379.57572937,34569.58010792732,-7124593.257904053,236827.5225162506,801608.9200973511,3533323.287963867,4071712.9707336426,2636471.5099334717,6194914.3409729,1114899.754524231
0.29,-138969558.7158203,-143204559.32617188,-124629951.47705078,-74150489.8071289,-87280128.4790039,-37729793.548583984,-45611408.23364258,-29494474.411010742,-45877815.24658203,-26403434.75341797,-49150329.58984375,-53504917.14477539,-52321247.10083008,-48820354.46166992,-38118019.104003906,-21257755.279541016,-20818275.451660156,-35716762.54272461,-21191459.65576172,-19364255.905151367,-27031866.0736084,-30944051.74255371,-27654067.993164062,-6826450.824737549,-6824302.673339844,-10736711.502075195,-12086829.18548584,-15732051.849365234,-27057880.401611328,-17392250.061035156,-16057817.459106445,-30865140.914916992,-2704495.429992676,-189591.6759967804,12896196.365356445,142232.70118236542,101221.18145227432,-7032142.162322998,-14302657.127380371,-7467808.246612549,-11355550.765991211,12157271.385192871,10612000.465393066,10476251.602172852,6521426.677703857,1310305.5953979492,-20642761.23046875,-4599440.097808838,-4740306.854248047,-11299142.837524414,7457074.165344238,10470042.22869873,1785130.9776306152,-10584.402829408646,-9051167.488098145,-1375050.1871109009,-1519368.6485290527,2220999.9561309814,2819200.7541656494,1294658.7800979614,5061017.990112305,39701.76726579666
0.295,-146408004.7607422,-148968368.53027344,-128685562.13378906,-82933799.74365234,-93433860.7788086,-40581752.77709961,-50067466.735839844,-35372631.07299805,-52802036.28540039,-33113536.834716797,-55181205.74951172,-57017738.342285156,-56135749.81689453,-50581134.79614258,-40901374.81689453,-24497200.01220703,-24668470.38269043,-40467609.40551758,-24925617.218017578,-22373851.776123047,-30135414.123535156,-32150840.759277344,-27664928.436279297,-7452051.162719727,-8688698.768615723,-13149160.385131836,-14564681.053161621,-18047418.59436035,-28537403.106689453,-17308258.056640625,-15729081.153869629,-29775064.46838379,-2976885.5571746826,-1436619.0433502197,11582365.989685059,-632540.762424469,301326.2450695038,-5804265.022277832,-13287826.538085938,-5988585.472106934,-9884072.303771973,11872263.90838623,10217129.707336426,9801917.07611084,6300875.663757324,1554060.3399276733,-19076469.42138672,-2599797.010421753,-2922146.0819244385,-9612687.110900879,7026745.319366455,10742660.522460938,1862488.865852356,241638.61572742462,-8218051.910400391,-22346.951067447662,-622483.1938743591,2236287.1170043945,2816261.053085327,2158887.1479034424,7055233.001708984,1147305.0117492676
0.3,-135858245.84960938,-135314498.9013672,-112757011.41357422,-78685844.42138672,-83209831.23779297,-45264328.00292969,-52337974.548339844,-35354064.94140625,-51442199.70703125,-30140548.706054688,-49492382.04956055,-47952869.4152832,-47396430.96923828,-36921535.49194336,-45486003.87573242,-27713935.85205078,-24306308.74633789,-39932815.55175781,-22623634.338378906,-19555459.97619629,-26046636.5814209,-24664804.458618164,-16346855.163574219,-11735247.611999512,-11209836.00616455,-14214957.237243652,-14849149.703979492,-18546739.57824707,-26826448.440551758,-13584282.875061035,-9605840.682983398,-21161218.643188477,-5826868.534088135,-3980104.684829712,8506250.381469727,-1801433.0863952637,407163.3815765381,-5989727.973937988,-10536333.084106445,-1753393.530845642,-4760153.770446777,9313087.463378906,7822233.6769104,7996528.625488281,4666096.210479736,1648567.9149627686,-18143026.35192871,-33352.743834257126,-261319.1306591034,-6393207.07321167,5568571.090698242,9933137.893676758,1777683.7348937988,611654.6988487244,-7424210.548400879,2091471.4336395264,1529829.8597335815,2244881.3915252686,2710948.705673218,3270272.4933624268,9121327.40020752,3019761.085510254
0.305,-120740173.33984375,-115614051.81884766,-90376045.22705078,-68518836.97509766,-65592468.26171875,-51499771.11816406,-54053642.27294922,-32602951.049804688,-45848564.14794922,-21909753.799438477,-38100364.685058594,-32491577.1484375,-31954730.987548828,-16188482.284545898,-51660545.349121094,-31199043.27392578,-22717250.82397461,-36848812.103271484,-17686344.146728516,-13611124.992370605,-17656223.29711914,-12817427.635192871,227160.5283021927,-17436401.3671875,-14154561.996459961,-14712443.351745605,-14286395.072937012,-16974983.21533203,-23415306.091308594,-8558760.643005371,-1079084.2771530151,-9981962.203979492,-9494032.859802246,-6183094.501495361,5021751.880645752,-3205488.920211792,269726.33600234985,-6892414.093017578,-7218249.797821045,2934134.9601745605,1239095.2110290527,6674168.586730957,5495064.258575439,6209046.840667725,2411788.7020111084,1416412.115097046,-18216682.43408203,1690629.9591064453,1743503.9281845093,-3444429.1591644287,4446919.4412231445,8666937.828063965,1073751.9264221191,716758.3703994751,-7932685.852050781,3850965.2614593506,3589403.6293029785,1748896.2411880493,2091768.503189087,3528254.747390747,9840589.52331543,5011878.01361084
0.31,-113182960.5102539,-104461242.67578125,-77794555.6640625,-62333358.76464844,-54579795.837402344,-54936141.96777344,-54513713.83666992,-30580797.19543457,-41948734.283447266,-16280807.495117188,-30953687.66784668,-21581821.44165039,-20824718.475341797,-2450823.5454559326,-55099609.375,-33169998.168945312,-21901605.6060791,-34662872.314453125,-14313537.59765625,-8911348.342895508,-11051338.195800781,-4433963.298797607,11081035.614013672,-19995929.718017578,-15493041.038513184,-14948979.377746582,-14225176.811218262,-14240545.272827148,-20547395.706176758,-5048357.4867248535,4661018.371582031,-2942268.3715820312,-10921393.394470215,-6862437.725067139,2982185.6021881104,-4352565.288543701,49931.3659965992,-6825189.590454102,-5024415.493011475,5640962.600708008,5048268.795013428,5967218.399047852,4863780.498504639,4935960.76965332,51479.78290915489,1031116.3663864136,-19141920.08972168,2226734.161376953,2480530.7388305664,-1640363.6932373047,4459418.773651123,7779811.859130859,197280.94339370728,390648.15640449524,-8837485.313415527,4553849.697113037,4539090.633392334,984639.8234367371,1272260.4274749756,2967157.6023101807,9782696.723937988,6374310.01663208
0.315,-107763900.75683594,-98953536.98730469,-73229515.0756836,-59218044.28100586,-51167221.06933594,-51943450.927734375,-51036281.58569336,-28204109.19189453,-39870140.075683594,-14295759.201049805,-29174844.74182129,-17601968.76525879,-16740018.844604492,663477.6592254639,-52128726.959228516,-31772401.809692383,-20534862.518310547,-33196964.263916016,-12287509.91821289,-6505599.021911621,-8456076.622009277,-2092816.5912628174,12270346.641540527,-18646057.12890625,-14290754.318237305,-14578596.115112305,-14332207.679748535,-11895318.984985352,-18729007.720947266,-3704470.157623291,5694540.500640869,-2069060.3256225586,-10532442.092895508,-7259597.7783203125,2527101.755142212,-4657804.012298584,88416.58383607864,-5649470.329284668,-4647339.820861816,5424197.673797607,5320101.737976074,5757373.809814453,4470050.33493042,3393192.0528411865,-2001372.3373413086,866184.651851654,-19998104.095458984,1459710.955619812,1749647.855758667,-1656104.4454574585,4009872.9133605957,6647534.8472595215,-643523.097038269,-37588.83476257324,-9060325.622558594,3512031.5551757812,3546503.5438537598,53645.070642232895,333622.18737602234,1964232.087135315,9511594.772338867,6086304.664611816
0.32,-102834808.34960938,-95775817.87109375,-71334869.38476562,-57355197.90649414,-51046962.73803711,-47885105.13305664,-47725593.56689453,-26392122.268676758,-39174423.21777344,-13811989.784240723,-29541618.34716797,-17581907.272338867,-16863639.83154297,-1649427.890777588,-48054862.97607422,-30148658.752441406,-19495557.78503418,-32746192.932128906,-11152320.861816406,-6184705.2574157715,-8872545.24230957,-3269905.5671691895,8656888.961791992,-17654489.517211914,-13422497.749328613,-15020298.00415039,-14898147.583007812,-12118136.405944824,-18362295.150756836,-3997454.1664123535,4051527.500152588,-4351093.769073486,-11176739.692687988,-9077306.747436523,1957805.9911727905,-4660339.35546875,413042.72413253784,-5029008.388519287,-5303737.163543701,3885635.8528137207,3859101.0570526123,4307147.50289917,2903099.298477173,1276204.7052383423,-2806412.696838379,1088165.7600402832,-19539167.404174805,548993.7663078308,819180.5481910706,-2646915.6742095947,2260113.23928833,5120335.578918457,-980071.6042518616,-82090.63112735748,-8404938.697814941,2102640.8672332764,1999118.9241409302,-415061.68246269226,-137227.31173038483,1797453.4034729004,9757327.07977295,5178347.587585449
0.325,-113140495.30029297,-105079895.01953125,-78986686.70654297,-63254760.7421875,-56905345.91674805,-52730197.90649414,-53814491.271972656,-30420831.68029785,-43033523.55957031,-15844984.05456543,-32861965.17944336,-21515693.66455078,-20941053.39050293,-6137662.887573242,-52875801.08642578,-33941890.716552734,-22640081.40563965,-35925426.4831543,-13120585.441589355,-8724774.360656738,-11612954.139709473,-5774612.903594971,5799777.507781982,-20421043.395996094,-16247791.290283203,-18284532.54699707,-17292760.848999023,-15690578.46069336,-20581750.869750977,-5704123.020172119,2319577.45552063,-6485352.039337158,-13211242.67578125,-11456473.350524902,362317.29388237,-5635316.371917725,578313.0526542664,-5869284.629821777,-5928661.823272705,3610387.3252868652,3720553.159713745,3342364.78805542,1986580.1334381104,-78783.57172012329,-1825815.5584335327,1442019.1049575806,-17758306.5032959,1631072.0443725586,1875981.9269180298,-2132987.9760742188,1652070.164680481,5118678.569793701,346478.01518440247,272947.0729827881,-7212467.670440674,3379170.6562042236,3032515.76423645,959247.350692749,1284339.7855758667,4144044.876098633,11787089.347839355,6560731.410980225
0.33,-139211334.22851562,-126696960.44921875,-96700691.22314453,-77170555.1147461,-68478202.81982422,-65126388.54980469,-67672180.17578125,-39586662.29248047,-50605365.75317383,-20160396.575927734,-39113071.44165039,-28512121.200561523,-27863441.467285156,-11990436.553955078,-65318801.87988281,-41914733.88671875,-29255210.876464844,-41820243.83544922,-17768375.396728516,-12899085.998535156,-15318891.525268555,-8738581.657409668,4417241.096496582,-24723768.23425293,-21231878.28063965,-23032249.450683594,-21033411.026000977,-19894224.166870117,-24403633.11767578,-8057961.463928223,1121685.266494751,-8041729.927062988,-14246823.31085205,-12241279.602050781,-1286651.849746704,-7737011.432647705,212744.45950984955,-6738662.242889404,-6258458.137512207,4945627.689361572,4976905.822753906,4941163.063049316,3564279.079437256,254016.25037193298,-391306.87713623047,1506416.67842865,-16304359.436035156,4712447.166442871,4867709.636688232,454429.0900230408,4046034.812927246,7537926.197052002,3146001.100540161,502019.9418067932,-6192773.818969727,7448721.885681152,6824061.393737793,3952890.8729553223,4431100.845336914,8051826.477050781,14982893.943786621,10312537.19329834
0.335,-144900772.09472656,-130427566.52832031,-99746192.9321289,-80239395.14160156,-70540664.67285156,-68239715.57617188,-71302612.3046875,-41615554.80957031,-51761253.356933594,-19685125.35095215,-40462585.44921875,-30686988.830566406,-29892692.56591797,-15605454.444885254,-68545745.84960938,-43943073.27270508,-31335430.145263672,-43302875.51879883,-18705688.4765625,-13753626.823425293,-16205434.799194336,-10404931.06842041,2126995.56350708,-25292924.880981445,-22813446.044921875,-24824945.4498291,-22906553.268432617,-20519962.310791016,-25651960.372924805,-9059544.563293457,-442639.94693756104,-10744363.784790039,-13678115.844726562,-11586530.685424805,-2062413.215637207,-9453922.271728516,-437031.20946884155,-5846875.6675720215,-6566171.646118164,5169572.353363037,3609274.6257781982,6496219.635009766,4982378.959655762,675995.5286979675,-792762.041091919,1154243.7076568604,-16607433.319091797,6325783.252716064,6331083.77456665,1285285.472869873,5905477.046966553,8816651.344299316,4008793.354034424,184288.6060476303,-6580080.032348633,9306912.422180176,8314563.751220703,4904117.107391357,5549445.152282715,8814555.168151855,15111434.936523438,11103854.179382324
0.34,-96728904.7241211,-88732742.30957031,-64661857.60498047,-54472938.537597656,-49258960.72387695,-48132095.33691406,-49950664.52026367,-25964065.551757812,-38029510.498046875,-7895420.074462891,-29690515.518188477,-21593151.092529297,-20848136.90185547,-14648461.34185791,-48522621.154785156,-31916404.724121094,-22621431.350708008,-34991458.892822266,-10847728.729248047,-7999091.625213623,-11823266.02935791,-9722792.625427246,-3405372.6196289062,-19392091.751098633,-17559783.935546875,-20915019.989013672,-20311170.57800293,-16510143.280029297,-21610294.342041016,-7620001.792907715,-3390145.0634002686,-16693990.707397461,-13435875.89263916,-11202341.079711914,-1907031.774520874,-9101554.870605469,-784645.9746360779,-3771754.741668701,-6991414.546966553,1676260.5905532837,-3997452.4974823,3668661.117553711,2196730.852127075,-634053.5283088684,-3309099.4358062744,681530.4160118103,-18253828.048706055,3282248.4970092773,3163395.881652832,-4130132.6751708984,1793921.947479248,4391278.266906738,-766578.9127349854,-478763.07368278503,-9554895.401000977,4089447.9751586914,2507266.9982910156,-10938.182473182678,626662.7907752991,2644863.1286621094,8237051.010131836,3558355.5698394775
0.345,-17397369.384765625,-22251146.31652832,-9333828.926086426,-11765373.229980469,-16860118.865966797,-12327158.92791748,-12687905.311584473,523836.1954689026,-16049068.450927734,9835650.444030762,-13260678.2913208,-8392616.271972656,-7864893.436431885,-14939518.928527832,-12720729.82788086,-10110970.497131348,-7206344.6044921875,-21245824.813842773,1532500.7438659668,514240.20528793335,-5712044.715881348,-9537673.950195312,-13151842.11730957,-8426521.301269531,-7335998.058319092,-12900491.714477539,-14185480.117797852,-11138979.9118042,-15368061.065673828,-5702291.011810303,-8100299.835205078,-26652793.884277344,-13364542.961120605,-10232825.27923584,-1512.9005769267678,-6356297.492980957,-657831.9668769836,-2857553.720474243,-7635088.920593262,-4734035.968780518,-16082477.569580078,-2004166.3646697998,-3146685.838699341,-1944484.9491119385,-5326152.324676514,453817.84439086914,-19899267.196655273,-3099257.230758667,-3322664.976119995,-14894717.2164917,-7133788.108825684,-4196060.1806640625,-9619159.698486328,-941779.1962623596,-14916385.650634766,-6394939.422607422,-8733305.931091309,-9076262.474060059,-8650775.909423828,-7714444.160461426,-3281917.095184326,-10105782.508850098
0.35,30680034.637451172,15183415.412902832,19435199.737548828,14289224.624633789,-2418167.1142578125,16628253.936767578,15436115.264892578,19055816.650390625,-2402231.216430664,19737665.1763916,-6378030.300140381,-5619568.824768066,-5204344.272613525,-23859838.485717773,16281997.680664062,8392447.471618652,4428548.812866211,-12120613.098144531,8761697.769165039,4323163.032531738,-4398531.913757324,-13802394.86694336,-24976125.717163086,3894697.1893310547,3106022.834777832,-4838317.394256592,-8135661.1251831055,-8395167.350769043,-12811488.151550293,-6428400.993347168,-13704306.602478027,-37945621.490478516,-10083315.8493042,-5889184.474945068,4770730.018615723,-2524249.315261841,-451257.46726989746,-4143208.9805603027,-8800142.288208008,-10525030.136108398,-26148002.62451172,-3630998.373031616,-4510475.635528564,323155.9991836548,-4379874.229431152,520776.09300613403,-20965404.510498047,-8205410.003662109,-8610785.484313965,-24385126.1138916,-12599320.411682129,-9385204.315185547,-15479727.745056152,-952556.848526001,-20365468.978881836,-14713129.997253418,-17582450.86669922,-15033658.027648926,-14815137.86315918,-14469721.794128418,-11332089.4241333,-20518476.486206055
0.355,16459100.723266602,-1575672.2688674927,673134.9229812622,6751911.163330078,-16933193.20678711,24049898.147583008,19767761.23046875,19087285.9954834,-5471419.811248779,14971656.799316406,-14794537.544250488,-16785097.122192383,-16253896.713256836,-37781391.14379883,23786670.684814453,14142387.390136719,6099218.368530273,-12719944.00024414,6606392.860412598,667528.7485122681,-9773270.606994629,-21517402.64892578,-33170669.555664062,12952889.442443848,9467618.942260742,-506975.05474090576,-5622374.534606934,-9587467.193603516,-15951605.796813965,-10242779.731750488,-18081335.067749023,-44769626.61743164,-2803070.545196533,851959.9437713623,10507314.682006836,227711.12620830536,-500516.414642334,-6329622.268676758,-10641096.115112305,-13062651.634216309,-28747253.41796875,1636804.1038513184,637809.2765808105,5859528.541564941,-1218744.2779541016,669808.1493377686,-21522895.81298828,-9252685.546875,-9873365.40222168,-26668924.33166504,-9109358.787536621,-6396383.762359619,-12986564.636230469,-704878.3898353577,-22658866.88232422,-15446656.227111816,-18194107.055664062,-12534355.163574219,-12326314.926147461,-12637280.464172363,-10029742.240905762,-20272531.509399414
0.36,-31338863.372802734,-45899959.564208984,-40551383.97216797,-18918678.283691406,-42719608.306884766,13650082.5881958,6807238.578796387,6769271.8505859375,-18501651.763916016,1875016.3316726685,-29427669.525146484,-31007482.528686523,-30287881.85119629,-45632144.927978516,13517653.465270996,7993831.157684326,102635.80083847046,-19609182.357788086,-574423.5515594482,-6476370.334625244,-17471008.30078125,-27480152.130126953,-33592533.111572266,14555921.55456543,9532071.113586426,-1592030.0483703613,-7658653.736114502,-13333956.718444824,-21448234.55810547,-14518174.171447754,-19637830.73425293,-43438308.71582031,3254227.876663208,4438004.016876221,12720615.38696289,505011.32011413574,-641607.6421737671,-7912443.161010742,-12770388.60321045,-12833642.959594727,-24317058.563232422,8431574.821472168,7106310.844421387,9962241.172790527,1439187.4074935913,759486.8540763855,-21346139.907836914,-7748658.657073975,-8400650.978088379,-22240623.474121094,-842837.2144699097,1075092.9117202759,-4675238.132476807,-469574.54085350037,-20426542.282104492,-10256495.475769043,-12203822.135925293,-4215057.849884033,-3900328.6361694336,-4959853.172302246,-1922049.641609192,-11295640.94543457
0.365,-70111480.71289062,-81196319.58007812,-71631095.88623047,-39488529.205322266,-59881343.841552734,-2393810.272216797,-9299898.147583008,-5857120.513916016,-30268972.396850586,-9374890.327453613,-39662921.90551758,-38702949.52392578,-37884250.64086914,-45205863.95263672,-2415993.6904907227,-2509221.076965332,-7147559.642791748,-26291980.743408203,-6397606.84967041,-11906085.014343262,-22744504.928588867,-29420898.4375,-29647300.720214844,8468130.111694336,4590524.673461914,-6008036.136627197,-11815219.87915039,-17036771.774291992,-25184759.14001465,-16882081.985473633,-19208295.822143555,-37422981.26220703,3010152.1015167236,2138212.6808166504,10255248.069763184,-780286.6697311401,-540618.9560890198,-8823274.612426758,-14484709.739685059,-12162682.53326416,-18277591.705322266,10774451.25579834,9267823.219299316,9925142.288208008,2377624.034881592,840947.7472305298,-20319814.682006836,-6910587.787628174,-7320974.349975586,-16754266.738891602,4209836.483001709,6091829.299926758,2015304.8038482666,-323741.52541160583,-16043819.427490234,-5118420.124053955,-5982326.507568359,2511275.52986145,2819312.572479248,1802975.1777648926,5175880.432128906,-2112159.490585327
0.37,-89384811.40136719,-100045288.0859375,-87685600.28076172,-48910808.56323242,-67552124.0234375,-15605612.754821777,-21067367.553710938,-12883683.204650879,-36084552.76489258,-14601057.052612305,-43907165.52734375,-41387638.092041016,-40527091.97998047,-45583045.959472656,-15659200.668334961,-10120266.914367676,-10709204.67376709,-28955141.067504883,-8208670.616149902,-13676519.393920898,-24656337.73803711,-30050838.470458984,-28865694.046020508,237384.3640089035,-593536.1385345459,-8755953.788757324,-13998382.568359375,-18184698.1048584,-25806035.9954834,-17214092.254638672,-18893569.946289062,-33855262.756347656,-1317435.383796692,-1609920.0248718262,7541569.232940674,-1281790.9717559814,-199085.92104911804,-9300730.70526123,-15069340.705871582,-12398798.942565918,-15481078.147888184,9533891.677856445,8005723.95324707,8268903.732299805,2325792.3126220703,956625.8788108826,-19154193.878173828,-7908220.7679748535,-8027535.438537598,-14686980.247497559,4100078.582763672,6679314.136505127,3176859.8556518555,-236376.44946575165,-13587594.985961914,-3811567.544937134,-3733274.459838867,3814783.0963134766,3947784.900665283,4136396.884918213,6771770.000457764,1368989.34841156
0.375,-101298439.0258789,-113173622.13134766,-99913871.76513672,-53751838.68408203,-73881805.41992188,-23073310.85205078,-27670228.958129883,-15248121.26159668,-37713657.37915039,-15533411.979675293,-45577919.006347656,-44045963.287353516,-43125240.325927734,-51691474.91455078,-23285699.84436035,-12354357.719421387,-10028438.568115234,-28043121.337890625,-7147551.536560059,-12818250.65612793,-24543752.670288086,-31459644.317626953,-32934566.497802734,-3583944.320678711,-2060876.3694763184,-7298139.0953063965,-12921376.22833252,-16381507.873535156,-24233480.45349121,-16493350.982666016,-19182590.48461914,-34678699.4934082,-3344563.2457733154,-1645688.772201538,8107755.661010742,-361750.4835128784,110233.3515882492,-8794095.993041992,-14144944.190979004,-12858898.162841797,-15774627.685546875,9047666.549682617,7428940.296173096,7695383.548736572,1538063.1685256958,1037863.8505935669,-18513139.724731445,-9221901.893615723,-9288828.84979248,-15173755.645751953,3354948.7590789795,6081209.659576416,1756529.2119979858,-164797.0974445343,-14283453.941345215,-4843842.029571533,-4129476.0704040527,2556940.5555725098,2549376.0108947754,4272767.066955566,5622853.755950928,1077208.2805633545
0.38,-110976806.640625,-123220184.32617188,-110344383.2397461,-57808116.9128418,-79767066.9555664,-25178939.819335938,-30174253.463745117,-16272024.154663086,-38664840.69824219,-15625930.786132812,-46570381.16455078,-46746376.037597656,-45804912.56713867,-56946773.529052734,-25498765.94543457,-12171478.271484375,-9081044.19708252,-27351762.771606445,-6393834.590911865,-11870964.050292969,-23900251.388549805,-32116798.400878906,-35862411.49902344,-2496838.092803955,-1295447.587966919,-5440975.189208984,-12212755.20324707,-14682936.668395996,-22336668.014526367,-15588859.558105469,-18887899.39880371,-34991432.189941406,-1460329.6518325806,390427.827835083,9055941.581726074,-206458.52386951447,250474.750995636,-7244849.681854248,-12341109.275817871,-12362741.470336914,-15396199.226379395,9935099.601745605,8110237.121582031,6677565.097808838,-560274.9586105347,1078358.2925796509,-17833225.25024414,-8946030.616760254,-9221652.030944824,-14226962.089538574,5324018.478393555,6852704.5249938965,2515287.6377105713,-5073.687061667442,-14998362.54119873,-4224090.099334717,-3117473.840713501,3300322.0558166504,3376536.3693237305,6229391.574859619,7145978.927612305,2837829.828262329
0.385,-114998176.57470703,-126284744.26269531,-114131973.26660156,-60892848.96850586,-82006057.73925781,-25425565.719604492,-31419672.0123291,-19357065.200805664,-42075370.78857422,-18289993.286132812,-48296306.61010742,-48185173.03466797,-47347942.35229492,-55587825.775146484,-25695041.65649414,-14493157.386779785,-12690228.462219238,-31091915.130615234,-9490701.675415039,-13944762.229919434,-24767866.134643555,-31243865.966796875,-33678005.21850586,-1704738.736152649,-2910518.8846588135,-8649196.62475586,-16051992.416381836,-17040817.260742188,-22421649.932861328,-15673165.321350098,-18042987.823486328,-31358079.91027832,-39876.09967589378,-501739.4423484802,6061824.321746826,-2615937.7098083496,290255.45716285706,-6405120.372772217,-11391166.687011719,-11149209.976196289,-12413640.022277832,9830184.936523438,7860230.445861816,3489668.607711792,-2810965.061187744,1193117.1417236328,-16175706.86340332,-6919668.197631836,-7446868.896484375,-10203116.416931152,8503486.633300781,8423821.449279785,6188330.173492432,335905.2836894989,-12275128.364562988,-354845.8218574524,1029021.3823318481,6740143.299102783,7053559.78012085,10928006.172180176,12585598.945617676,8725393.295288086
0.39,-115616622.92480469,-125916183.47167969,-114170623.77929688,-64756278.99169922,-82944534.30175781,-28194353.103637695,-35186408.99658203,-25925098.419189453,-49091148.376464844,-25099935.53161621,-53109630.5847168,-50671424.865722656,-49990554.80957031,-52925590.51513672,-28361227.03552246,-20500183.10546875,-20755868.911743164,-39259315.490722656,-17006248.474121094,-20191919.326782227,-28980859.756469727,-31794990.53955078,-30829000.47302246,-4444137.5732421875,-7535139.083862305,-15993474.960327148,-23218662.26196289,-23414606.09436035,-25624876.022338867,-17900064.46838379,-18709024.42932129,-27561748.504638672,-1925403.8333892822,-4098061.5615844727,1263006.6871643066,-5860913.7535095215,255201.63774490356,-8021281.2423706055,-12519429.206848145,-10695429.801940918,-9410225.868225098,8937376.022338867,6995871.543884277,1228097.7964401245,-2095518.8274383545,1373705.0294876099,-13940773.010253906,-4635974.407196045,-5260357.856750488,-5967684.745788574,10331577.30102539,9773952.48413086,9696103.0960083,725985.1694107056,-7035604.476928711,4227688.789367676,5831292.629241943,9974590.301513672,10443620.681762695,15510123.252868652,17878198.623657227,14698534.965515137
0.395,-119492553.7109375,-129846984.86328125,-118188964.84375,-71287055.96923828,-87412040.71044922,-33675937.65258789,-41529815.673828125,-33317798.614501953,-57098011.0168457,-33527149.200439453,-60699329.3762207,-56489543.91479492,-55848423.00415039,-56898914.3371582,-33820507.04956055,-26083507.537841797,-27637252.807617188,-46699333.19091797,-24714073.181152344,-27642683.029174805,-35526561.73706055,-36234485.6262207,-33618061.06567383,-7949550.628662109,-10526121.139526367,-20827238.082885742,-28178031.92138672,-29276884.078979492,-30266304.01611328,-21803850.173950195,-22032239.91394043,-29303716.6595459,-4360972.881317139,-5271118.640899658,841833.3530426025,-6663076.400756836,92471.6517329216,-11152606.964111328,-14837137.222290039,-11845585.823059082,-9964070.320129395,9931574.821472168,8145826.33972168,4025771.141052246,2657670.259475708,1395454.0491104126,-12548989.295959473,-3528930.902481079,-4051137.924194336,-5323734.760284424,10825747.4899292,11129049.301147461,10552731.51397705,863423.4666824341,-3619838.237762451,5964643.955230713,7579544.544219971,10680109.977722168,11116883.277893066,16825220.108032227,18864433.28857422,15835296.630859375
0.4,-127292236.328125,-138318283.0810547,-126579811.0961914,-78357444.7631836,-94668067.9321289,-37687221.52709961,-46186641.693115234,-37356719.970703125,-62074321.74682617,-39060771.94213867,-66800239.56298828,-63226421.35620117,-62472862.243652344,-65763816.833496094,-37850631.71386719,-27306921.005249023,-29104696.27380371,-48969566.345214844,-27807785.034179688,-31816352.84423828,-40760372.161865234,-42201576.232910156,-40985313.415527344,-8421875.953674316,-8902773.8571167,-19870895.385742188,-28160970.68786621,-31078437.80517578,-33416599.27368164,-25221248.626708984,-26134496.688842773,-35926765.44189453,-3941720.962524414,-2297695.8751678467,5689672.470092773,-4629464.626312256,-115057.97505378723,-13032980.918884277,-16327112.197875977,-13785627.365112305,-13679975.509643555,12927655.220031738,11348476.40991211,10048174.858093262,8121616.363525391,1155221.8198776245,-12535532.95135498,-3612227.439880371,-3905446.2909698486,-8258199.691772461,11253406.524658203,12586258.888244629,9389859.199523926,666814.2080307007,-4356374.263763428,4481026.172637939,5606662.750244141,9484162.330627441,9826573.371887207,14994330.406188965,16130847.930908203,12411937.713623047
0.405,-133876693.72558594,-145026687.6220703,-132946670.53222656,-82413917.5415039,-99696533.203125,-37875087.73803711,-46648674.01123047,-37565383.91113281,-63292438.50708008,-40439949.03564453,-68250328.06396484,-66530944.82421875,-65664169.31152344,-70948364.2578125,-37996280.670166016,-25716207.50427246,-27593067.169189453,-47652820.5871582,-26552762.985229492,-31693771.362304688,-42275508.880615234,-45161701.20239258,-46043079.3762207,-6828000.068664551,-5935071.4683532715,-17285022.735595703,-26222745.895385742,-30192972.18322754,-34136051.177978516,-26458644.86694336,-28041757.583618164,-41002452.8503418,-1916613.1019592285,402203.9771080017,9779628.75366211,-2656868.2193756104,-157510.78724861145,-12523783.683776855,-16228691.101074219,-15000453.94897461,-16544990.539550781,14662540.435791016,13285714.149475098,13033444.40460205,10078153.610229492,911666.5720939636,-13019939.422607422,-3763723.611831665,-3849685.1921081543,-11001721.382141113,11638676.643371582,13327147.483825684,8358165.740966797,416987.1211051941,-6979777.3361206055,2760807.2757720947,2865693.8076019287,8479224.20501709,8811359.405517578,13070252.418518066,13721254.348754883,9181040.76385498
0.41,-134768829.34570312,-145383102.4169922,-132964401.24511719,-82287185.66894531,-99288688.65966797,-36662784.576416016,-45196178.4362793,-36925922.39379883,-63133819.580078125,-40146850.5859375,-66377670.28808594,-64990760.803222656,-64151985.16845703,-68496139.52636719,-36713340.759277344,-25629425.048828125,-27884166.717529297,-47234821.31958008,-25093770.98083496,-30073892.59338379,-40931358.337402344,-43621833.80126953,-44902915.954589844,-6845958.232879639,-6222794.532775879,-17972816.467285156,-26326553.344726562,-29990833.282470703,-33688594.818115234,-25666021.3470459,-26746463.775634766,-40250843.0480957,-1781667.709350586,-950727.8203964233,8624529.838562012,-2952529.6688079834,-5496.9750344753265,-11058183.670043945,-15319003.105163574,-14752307.891845703,-15973019.59991455,13266111.373901367,12029927.253723145,10578289.985656738,8181797.981262207,937217.4739837646,-12994128.227233887,-3114791.6316986084,-3166918.5161590576,-10646897.315979004,11223451.614379883,12947777.74810791,8422371.864318848,363467.9913520813,-7955701.82800293,3271258.1157684326,2329582.2143554688,8631365.776062012,9002396.583557129,13358088.493347168,13988905.906677246,9287717.819213867
0.415,-128667388.91601562,-139268646.24023438,-127336715.69824219,-78506134.03320312,-93931678.77197266,-36634891.510009766,-44358627.31933594,-36728462.21923828,-62788764.95361328,-39925071.716308594,-64083770.751953125,-60535053.25317383,-59825447.08251953,-62392372.131347656,-36685173.03466797,-27646606.4453125,-30119920.73059082,-48620281.21948242,-25536300.659179688,-29371109.008789062,-38854129.791259766,-39900550.842285156,-40392635.345458984,-8990425.109863281,-9070878.982543945,-20939853.66821289,-28296073.91357422,-31126565.93322754,-33092365.264892578,-23990957.260131836,-23725715.63720703,-35931915.283203125,-3848110.4373931885,-4290469.169616699,4668882.846832275,-4670748.233795166,88664.51680660248,-10074097.633361816,-14221546.173095703,-13452538.49029541,-13690613.746643066,10681690.216064453,9515629.768371582,6625765.323638916,5477054.119110107,1089131.236076355,-12226512.908935547,-1949534.4161987305,-2146193.265914917,-8385476.112365723,10044268.608093262,12073979.377746582,8708943.367004395,377755.43332099915,-6767792.701721191,5172541.618347168,3743051.052093506,9049674.987792969,9388022.422790527,14887732.50579834,15372828.483581543,11001889.2288208
0.42,-119682807.92236328,-131249130.24902344,-120593139.6484375,-73209403.99169922,-87490882.87353516,-36868816.37573242,-43588649.74975586,-35685276.03149414,-61758754.73022461,-39372951.50756836,-62886779.78515625,-56623096.46606445,-55983860.01586914,-58757061.00463867,-36965385.43701172,-28414152.145385742,-30880079.26940918,-49289100.646972656,-26431964.874267578,-29484041.213989258,-37374061.584472656,-37163887.02392578,-37629859.924316406,-10183942.794799805,-10178551.67388916,-22150611.877441406,-29357801.43737793,-31824737.548828125,-32398498.53515625,-22482719.42138672,-21303943.634033203,-33306842.803955078,-5194473.2666015625,-5437619.209289551,2592219.829559326,-5846699.237823486,-74442.17056035995,-9254026.412963867,-13025266.647338867,-12092865.943908691,-13081325.53100586,9476438.522338867,8356364.2501831055,5271172.046661377,4125168.3235168457,1050122.2610473633,-11011708.25958252,-1317826.3902664185,-1669740.5576705933,-7595110.4164123535,8770810.1272583,11236924.171447754,7933874.130249023,213687.2410774231,-5789230.823516846,5915482.997894287,4448393.821716309,8357295.989990234,8616148.948669434,15083815.574645996,15254512.786865234,10963999.74822998
0.425,-117482757.56835938,-129479339.59960938,-119456069.94628906,-71119125.36621094,-85875709.5336914,-35733989.71557617,-42144023.89526367,-33906349.182128906,-60880695.34301758,-38734325.40893555,-63477802.27661133,-56542659.759521484,-55839172.36328125,-60388179.779052734,-35817317.962646484,-26197641.372680664,-29220623.016357422,-48267845.153808594,-26353071.212768555,-29588777.542114258,-37095031.73828125,-37062534.33227539,-38662292.48046875,-8645566.940307617,-8167105.674743652,-20729318.618774414,-28370313.64440918,-31164690.017700195,-31953306.198120117,-21919986.724853516,-20993455.88684082,-34780014.03808594,-4140419.4831848145,-3944625.8544921875,3121913.194656372,-5840716.361999512,-344989.26997184753,-7945311.546325684,-12533068.656921387,-11644103.050231934,-15099164.962768555,9663922.309875488,8544128.41796875,5992852.210998535,3642722.6066589355,879204.3924331665,-9921640.396118164,-2042780.876159668,-2422864.1986846924,-9651718.139648438,7671763.896942139,10301888.465881348,5902371.406555176,-38889.58692550659,-6816335.678100586,4529054.164886475,2777234.3158721924,6304801.464080811,6594348.907470703,13157558.44116211,13253688.81225586,8624092.102050781
0.43,-124829475.40283203,-135490371.70410156,-124812179.56542969,-73836257.93457031,-89921150.20751953,-33489353.17993164,-40672824.85961914,-32617660.522460938,-60859668.73168945,-38353038.7878418,-64760421.75292969,-59453022.00317383,-58649990.08178711,-64597923.278808594,-33510097.50366211,-22727590.560913086,-26838384.6282959,-46351531.982421875,-24863811.492919922,-28935783.38623047,-37375431.060791016,-38442146.30126953,-41175735.47363281,-6062748.432159424,-5585672.855377197,-18622978.21044922,-26144506.454467773,-29406366.3482666,-31817546.844482422,-22126821.517944336,-22256586.0748291,-37866058.349609375,-2158980.60798645,-2600838.4227752686,3990481.8534851074,-5101108.074188232,-405129.25386428833,-6702968.120574951,-13750748.634338379,-12380529.403686523,-17732477.18811035,9630975.723266602,8386097.9080200195,6209558.963775635,2912204.5040130615,923508.7633132935,-9698558.807373047,-4023297.3098754883,-4348423.004150391,-12631573.677062988,6494235.038757324,9137804.03137207,3534345.3884124756,-64481.452107429504,-9152657.508850098,2239252.3288726807,-298330.72423934937,3871441.36428833,4327582.836151123,10615355.491638184,10716681.480407715,5920603.275299072
0.435,-126678962.70751953,-135809585.57128906,-125046821.59423828,-73470420.83740234,-90105201.7211914,-30310894.012451172,-38256893.157958984,-29850505.828857422,-58306816.10107422,-35340206.146240234,-62049530.029296875,-58514633.17871094,-57721126.556396484,-64566070.556640625,-30339208.602905273,-19471200.942993164,-23442646.026611328,-42443111.419677734,-20399831.771850586,-25835620.880126953,-35573001.861572266,-37614753.72314453,-41042659.759521484,-4635922.431945801,-4238501.071929932,-16415023.803710938,-23202194.213867188,-26211656.57043457,-30231550.216674805,-21338851.928710938,-22555023.193359375,-38133724.212646484,-1450364.2320632935,-3117742.3000335693,4068291.187286377,-4057025.43258667,-162589.13278579712,-6295799.255371094,-15627449.035644531,-13381222.72491455,-18645345.68786621,8375313.758850098,6969488.620758057,5224409.103393555,1817433.476448059,1194467.544555664,-10489941.596984863,-6147846.221923828,-6421267.986297607,-13815051.078796387,4924520.015716553,7747981.071472168,1759664.8931503296,163919.3296432495,-10950496.673583984,522338.5691642761,-2628505.7067871094,2039724.588394165,2604163.408279419,8766440.391540527,8448000.90789795,4003462.791442871
0.44,-107815490.72265625,-117708427.42919922,-109113929.74853516,-61529926.30004883,-77467498.77929688,-25586828.231811523,-32866683.959960938,-22531263.35144043,-49490112.3046875,-26536489.486694336,-51967166.900634766,-48653446.197509766,-47983982.08618164,-56320137.02392578,-25707494.735717773,-16061220.169067383,-17484258.6517334,-35098541.259765625,-12059131.622314453,-19393033.981323242,-29886894.22607422,-32218727.111816406,-36623062.13378906,-4428327.0835876465,-3257990.837097168,-13513375.282287598,-19810136.795043945,-21548822.4029541,-25697483.06274414,-18077194.213867188,-19919050.216674805,-34074005.126953125,-2367130.994796753,-4645099.16305542,3819337.1295928955,-3153429.7466278076,177728.22082042694,-6319433.689117432,-15500782.96661377,-13225172.996520996,-17308193.20678711,6172410.011291504,4832511.901855469,3980320.2152252197,752222.1207618713,1283154.3684005737,-11358716.011047363,-6909607.887268066,-7101292.610168457,-12466504.096984863,3003373.384475708,5987395.286560059,885954.4396400452,310296.4460849762,-11322308.540344238,-113785.29667854309,-3006250.6198883057,1079216.0034179688,1547659.7547531128,7389417.1714782715,6684283.73336792,2566487.0738983154
0.445,-81250534.05761719,-93638412.47558594,-87610885.62011719,-44962642.669677734,-60093326.568603516,-21052597.045898438,-26754236.221313477,-13895259.857177734,-38665561.67602539,-15883126.258850098,-40189277.64892578,-36296653.747558594,-35726528.16772461,-45814708.7097168,-21213464.736938477,-13168852.806091309,-11446817.398071289,-27813819.885253906,-3985577.10647583,-12945205.688476562,-23569185.256958008,-25614879.608154297,-31239320.755004883,-4338284.969329834,-1969350.3379821777,-11244426.727294922,-17424827.575683594,-17906568.52722168,-20802185.05859375,-14138462.06665039,-15978315.353393555,-29055553.436279297,-3460762.7391815186,-5482785.701751709,3504781.96144104,-2855320.2152252197,390620.49984931946,-6095785.140991211,-13032032.012939453,-11781877.517700195,-14892144.203186035,4421215.534210205,3427148.1037139893,3322325.2296447754,179397.13597297668,1025842.0705795288,-11473798.751831055,-5696068.286895752,-5734625.816345215,-9984380.722045898,1581235.7664108276,4328819.751739502,1073930.7403564453,188740.61107635498,-10799875.259399414,338110.7449531555,-1702268.9580917358,1151921.9875335693,1447230.577468872,6233076.095581055,6443946.361541748,1968797.206878662
0.45,-76872474.67041016,-90534057.6171875,-84086860.65673828,-41029941.55883789,-56253864.28833008,-20207368.850708008,-25694728.85131836,-11952837.944030762,-35609405.517578125,-12487643.241882324,-37466259.00268555,-33674266.81518555,-33093189.239501953,-43694812.7746582,-20279605.865478516,-12894475.936889648,-10676541.328430176,-27018585.205078125,-2859437.2272491455,-12009412.76550293,-22638620.376586914,-24174674.98779297,-29900690.07873535,-3690991.4016723633,-1328703.8803100586,-11794420.24230957,-17658487.31994629,-18534656.524658203,-20473134.994506836,-13491492.27142334,-14716756.820678711,-27686614.990234375,-3040595.531463623,-4557853.698730469,3250299.2153167725,-2927828.788757324,444160.49122810364,-6084639.072418213,-11530574.798583984,-10696704.864501953,-12961539.268493652,4971422.19543457,4255119.323730469,3929910.659790039,848443.5677528381,835455.8944702148,-11344744.682312012,-3532026.0524749756,-3463948.7266540527,-7999646.6636657715,2018851.0417938232,4345524.311065674,2656159.1625213623,67183.68828296661,-10216817.855834961,1823893.0702209473,344119.75741386414,2717347.8603363037,2985779.7622680664,6217788.6962890625,8747448.921203613,3519017.219543457
0.455,-94966323.85253906,-108190567.01660156,-98650009.15527344,-51387790.67993164,-67012855.529785156,-21503650.665283203,-29082685.470581055,-17149082.18383789,-41697624.20654297,-17984214.782714844,-44638492.584228516,-41017433.166503906,-40412021.63696289,-50025619.50683594,-21480754.852294922,-14167807.579040527,-14932074.546813965,-32634296.417236328,-8724729.537963867,-16748861.312866211,-27425420.7611084,-28293611.526489258,-32373325.34790039,-1829077.8398513794,-1218091.9647216797,-13904747.009277344,-19600519.18029785,-22693212.509155273,-25017625.80871582,-16866889.95361328,-17080259.323120117,-29975517.27294922,-525082.7074050903,-1797540.1878356934,3896408.5578918457,-2557716.131210327,419369.4293498993,-7024460.792541504,-13441871.643066406,-11269032.47833252,-12208189.964294434,8158936.500549316,7332879.066467285,6126890.182495117,2946455.955505371,1083403.7065505981,-11892886.1618042,-2183928.2512664795,-2181354.761123657,-6941152.095794678,4482188.2247924805,6760735.034942627,5249735.355377197,248715.16227722168,-9825657.844543457,3758338.689804077,2192367.5537109375,5453842.639923096,5850081.920623779,7884727.478027344,12289954.18548584,6910220.623016357
0.46,-96359924.31640625,-110526779.17480469,-99206405.63964844,-54859222.412109375,-69777839.66064453,-16877902.98461914,-26776105.880737305,-18461574.55444336,-45413394.927978516,-21869789.123535156,-48641738.89160156,-43166210.17456055,-42655048.37036133,-50999530.79223633,-16922393.798828125,-11525671.95892334,-16432741.165161133,-35903816.22314453,-12909420.013427734,-19886291.50390625,-30075380.325317383,-29832975.387573242,-31970342.6361084,2328847.1698760986,900202.214717865,-13253315.925598145,-20105014.80102539,-25276485.443115234,-28233581.54296875,-19530836.10534668,-18636695.861816406,-30828966.14074707,3051150.08354187,1726721.4059829712,5931913.85269165,-1668270.5879211426,339727.0739078522,-8181486.129760742,-16212234.497070312,-12259380.340576172,-11958541.870117188,11568571.090698242,10403866.7678833,8655551.91040039,4928476.333618164,1483197.3314285278,-12729723.930358887,-2246054.172515869,-2373853.921890259,-6259110.927581787,6922033.309936523,9483925.819396973,7105277.061462402,549683.3920478821,-9486188.888549805,5018913.745880127,3069781.78024292,7439414.978027344,7951237.201690674,9706030.84564209,13903307.914733887,9330788.612365723
0.465,-56026542.66357422,-73975425.72021484,-63978065.490722656,-36147560.119628906,-48909915.924072266,-2362892.3892974854,-12229306.2210083,-7847845.554351807,-37391948.69995117,-14976296.424865723,-39330860.13793945,-29790531.158447266,-29431102.752685547,-36649673.46191406,-2633661.985397339,-2148777.484893799,-10061542.510986328,-30502964.01977539,-8781328.201293945,-15502823.829650879,-24147371.292114258,-22208604.81262207,-23737457.275390625,8601470.947265625,6389010.429382324,-8397456.169128418,-17582160.94970703,-22808898.92578125,-25171537.399291992,-16877782.821655273,-14796815.872192383,-26517581.939697266,5765566.825866699,4388030.052185059,8284916.877746582,-1204063.057899475,155702.48663425446,-8012513.160705566,-15374253.273010254,-11126566.886901855,-10994897.842407227,12407085.418701172,11082219.123840332,9449067.115783691,4866617.202758789,1468074.083328247,-12649453.163146973,-2557164.6690368652,-2666237.5926971436,-5549295.902252197,7073368.549346924,9610031.127929688,6516463.756561279,484526.9024372101,-9300227.165222168,4993992.805480957,2564217.8058624268,6785146.236419678,7343816.28036499,9440237.045288086,12235721.588134766,8455965.042114258
0.47,-5230175.495147705,-26088499.069213867,-17415126.80053711,-10548038.482666016,-20813739.776611328,12927835.464477539,5177508.354187012,6514718.055725098,-24529722.213745117,-2989169.5976257324,-24540336.60888672,-11576948.165893555,-11218918.800354004,-16285943.984985352,12440916.061401367,8072322.845458984,-1530963.659286499,-21787961.959838867,-943080.9020996094,-7481158.73336792,-14152782.440185547,-10304098.129272461,-11986152.648925781,13953682.899475098,12043439.865112305,-3601099.967956543,-14276034.355163574,-17985765.45715332,-19149688.720703125,-10924771.308898926,-7356581.687927246,-19843183.517456055,6384792.327880859,5406294.345855713,9492977.142333984,-1680642.2472000122,-118400.28315782547,-6527624.607086182,-10922771.453857422,-7553905.487060547,-9147726.058959961,11041560.173034668,9847119.331359863,8531697.273254395,3265763.759613037,1025567.2931671143,-11569715.49987793,-1827308.6547851562,-1780492.3057556152,-5112516.8800354,5394629.955291748,7367983.341217041,4029546.2608337402,-37021.53638005257,-9616892.81463623,4264957.904815674,994356.3342094421,4165027.141571045,4788827.896118164,6959560.871124268,9591482.162475586,5309864.521026611
0.475,5996851.444244385,-12430496.215820312,-1977800.0116348267,-5093126.29699707,-13504848.48022461,15075401.306152344,9099033.35571289,9459093.09387207,-21313560.485839844,779901.0872840881,-20073757.17163086,-6787058.353424072,-6216429.233551025,-7558353.900909424,14537446.022033691,9851197.242736816,-449776.0236263275,-19904319.763183594,1060149.4312286377,-4840596.1990356445,-10499101.638793945,-4972243.309020996,-5727697.372436523,14309844.017028809,12777644.157409668,-3899196.147918701,-13837686.538696289,-16276336.669921875,-17343269.34814453,-8066785.81237793,-2792130.470275879,-16463907.241821289,5105238.914489746,5108827.114105225,9209005.355834961,-2516469.2401885986,-337407.02271461487,-5543737.411499023,-7456707.000732422,-4251756.191253662,-7537438.869476318,10123473.167419434,9144929.885864258,8107406.6162109375,2729895.830154419,725867.2714233398,-10476013.18359375,-294826.80559158325,-162990.7190799713,-5247846.1265563965,4331942.081451416,5730052.947998047,2138650.1789093018,-495120.5253601074,-10281348.22845459,3926799.0589141846,-496980.8757305145,2358235.8360290527,3042862.6537323,4445975.303649902,9013136.863708496,3002055.883407593
0.48,-25554079.055786133,-37325496.673583984,-23493165.969848633,-22100996.017456055,-28993131.637573242,2062564.3730163574,-3533510.446548462,-1252108.6931228638,-30171852.111816406,-6386705.8753967285,-28206375.122070312,-16477249.145507812,-15687929.153442383,-13453029.63256836,1658427.9537200928,1618644.5951461792,-7564959.0492248535,-26154275.89416504,-4141998.767852783,-9682908.058166504,-15748141.288757324,-8775865.55480957,-7255916.118621826,8754571.914672852,7621860.504150391,-8924187.660217285,-17076545.71533203,-19038043.975830078,-20868740.08178711,-10500536.918640137,-3863582.134246826,-17168512.34436035,2855445.8618164062,3848025.321960449,7785754.203796387,-3245539.903640747,-360053.3902645111,-6195364.475250244,-7725059.986114502,-3457024.097442627,-6734833.240509033,10430540.084838867,9621942.520141602,8941297.53112793,4177544.593811035,912493.9441680908,-9657442.092895508,815952.8970718384,903415.2030944824,-5301179.4090271,4741398.334503174,5971760.272979736,2446559.190750122,-398587.52489089966,-10381022.453308105,4486639.976501465,-593778.133392334,2942737.102508545,3521096.4679718018,3760421.9913482666,10627481.460571289,3278642.416000366
0.485,-57064159.39331055,-63654163.3605957,-48234123.22998047,-38000087.73803711,-42959522.24731445,-13577900.886535645,-18722511.291503906,-12480340.957641602,-38970066.07055664,-13581969.261169434,-35505653.381347656,-23967586.517333984,-23204008.102416992,-19829006.19506836,-13764100.074768066,-8269936.561584473,-14138863.563537598,-31854291.915893555,-8422734.260559082,-14416189.193725586,-21100938.79699707,-12835568.42803955,-9420527.458190918,1464638.113975525,1337856.411933899,-13498399.73449707,-20939168.93005371,-22176078.79638672,-23431581.497192383,-13044873.237609863,-5792017.459869385,-16702209.47265625,768382.1320533752,1954233.0503463745,5638290.882110596,-4254947.185516357,-242277.1006822586,-7293809.413909912,-8906288.146972656,-3642849.2069244385,-5181645.87020874,10257782.936096191,9582323.07434082,8999775.886535645,5130366.325378418,1233435.5115890503,-8588055.610656738,1301444.411277771,1371761.5604400635,-3786282.0625305176,5098308.086395264,6264164.924621582,4113132.4768066406,52854.154258966446,-9074924.46899414,5819411.754608154,1289911.0317230225,4717733.383178711,5016247.272491455,4763878.82232666,12315467.834472656,5567933.082580566
0.49,-61782260.89477539,-68119247.43652344,-52981658.935546875,-37673751.83105469,-40671272.27783203,-20071399.688720703,-23507923.126220703,-13862040.519714355,-38667034.14916992,-12499565.124511719,-32705860.137939453,-19123092.651367188,-18633300.78125,-16549842.834472656,-20093061.447143555,-11503219.604492188,-13954991.340637207,-30799634.93347168,-6189673.42376709,-12407775.87890625,-18565050.12512207,-9623713.493347168,-5898499.488830566,-1824487.4477386475,-693128.2877922058,-13763633.728027344,-21942836.76147461,-21787260.055541992,-20492431.640625,-10263710.975646973,-2880944.9672698975,-11281270.980834961,329300.99964141846,832921.9222068787,3963397.50289917,-5643028.736114502,-206247.2403049469,-6972786.426544189,-7038021.087646484,-1443218.9464569092,-880089.4618034363,9376296.997070312,8692684.173583984,7086103.439331055,3129358.0532073975,1154050.7078170776,-7636304.3785095215,2387264.7285461426,2526066.303253174,103833.3997130394,4825722.694396973,5588128.089904785,5634611.6065979,217644.78087425232,-6617594.242095947,7800632.953643799,4633837.699890137,6026382.923126221,6119700.4318237305,6428678.9894104,13174183.84552002,8742697.715759277
0.495,-58805316.92504883,-67843536.37695312,-52121463.775634766,-32806755.06591797,-35130432.12890625,-19274396.896362305,-21055837.631225586,-10434126.853942871,-35077217.10205078,-8893539.428710938,-27241668.701171875,-11761891.36505127,-11566592.2164917,-10913489.34173584,-19270698.54736328,-9208520.889282227,-10899683.952331543,-27281206.130981445,-2175584.7930908203,-7221045.49407959,-11978738.784790039,-3499867.9161071777,-279089.92767333984,144743.08490753174,1579499.7215270996,-11178904.53338623,-20225654.60205078,-19109306.33544922,-15723716.735839844,-4240313.0531311035,3228181.3621520996,-4587139.129638672,2282822.370529175,1895829.0815353394,4252230.167388916,-6579634.189605713,-353950.5898952484,-5241820.812225342,-2945769.0715789795,3351602.554321289,5192239.284515381,10090469.360351562,9117362.022399902,5151242.256164551,-658690.333366394,688825.6072998047,-7990712.642669678,4743576.0498046875,4882263.18359375,5086407.18460083,5682513.71383667,5868786.334991455,6837389.4691467285,-125868.70789527893,-4247519.493103027,10303562.16430664,8129585.266113281,7039547.443389893,7149748.3253479,8227504.730224609,14312494.277954102,12081170.082092285
0.5,-73940109.25292969,-84886444.09179688,-66933700.56152344,-40471923.828125,-43799064.63623047,-21317928.314208984,-23530796.05102539,-13350271.224975586,-38991363.525390625,-13436035.15625,-31387462.615966797,-16107007.98034668,-16024953.842163086,-15271089.553833008,-21404071.807861328,-9259986.877441406,-12563467.025756836,-29175762.176513672,-4399012.088775635,-7764701.366424561,-11711004.257202148,-4359901.428222656,-1380566.8354034424,2296917.43850708,3017023.0865478516,-10244880.676269531,-19436563.49182129,-18545030.59387207,-15846020.698547363,-2274945.2590942383,5114400.386810303,-3775018.4535980225,4498381.614685059,3604504.5852661133,5696409.225463867,-6664753.9138793945,-509966.79067611694,-4020583.152770996,-1300439.3577575684,6471577.167510986,8717016.220092773,12659133.911132812,11325604.438781738,4939343.9292907715,-2898390.054702759,346979.5882701874,-9436339.378356934,6761812.210083008,6777218.341827393,8200094.223022461,8154148.101806641,8101054.1915893555,7989394.664764404,-501263.2608413696,-3200000.762939453,12431926.727294922,10121211.051940918,8390836.715698242,8530593.872070312,9630693.435668945,16073095.321655273,14365775.108337402
