time,Fp1,Fpz,Fp2,AF3,AF4,F7,F5,F3,F1,Fz,F2,F4,F6,F8,FT7,FC5,FC3,FC1,FCz,FC2,FC4,FC6,FT8,T7,C5,C3,C1,Cz,C2,C4,C6,T8,TP7,CP5,CP3,CP1,CPz,CP2,CP4,CP6,TP8,P7,P5,P3,P1,Pz,P2,P4,P6,P8,PO7,PO5,PO3,POz,PO4,PO6,PO8,CB1,O1,Oz,O2,CB2
0.0,-27699193.954467773,-30370018.005371094,-32238277.435302734,-13838098.526000977,-18649791.717529297,-4603084.564208984,-7083354.473114014,-7600625.991821289,-6027348.99520874,-7554224.014282227,-9741469.383239746,-14741814.613342285,-14751326.560974121,-16858989.715576172,-4581487.655639648,-2934134.006500244,-4726489.543914795,-3408923.864364624,-5634277.34375,-6200037.002563477,-7388562.202453613,-9669016.83807373,-10018573.760986328,449578.79185676575,-739324.3908882141,-1592148.0655670166,-1701210.1411819458,-3468518.9723968506,-5033571.720123291,-4313879.013061523,-5909011.363983154,-5913625.240325928,1465582.3707580566,120781.61537647247,-276114.1359806061,-945764.3628120422,-83400.61455965042,-2055477.3807525635,-2015655.9944152832,-1606285.6912612915,-231605.9023141861,2314941.644668579,2179656.2671661377,1243244.0519332886,692745.0895309448,10337.269864976406,-235151.0524749756,697106.659412384,532057.7621459961,1798388.6003494263,2788976.9077301025,2911193.84765625,3020869.731903076,72126.00111961365,389178.5740852356,3162626.9817352295,3435062.1700286865,2977183.5803985596,2903954.267501831,2900288.1050109863,3226022.0050811768,3510438.6806488037
0.005,-22822397.232055664,-17768280.029296875,-15681127.548217773,-9782157.897949219,-15108338.356018066,-7693268.299102783,-6140581.6078186035,-4332444.667816162,-669034.481048584,-800030.6487083435,-2528301.71585083,-11808129.31060791,-11643330.574035645,-3555721.5213775635,-7721948.146820068,-5657295.227050781,-10053591.72821045,1331590.6524658203,2483622.5509643555,3176648.3783721924,2972974.0619659424,3251612.424850464,4669879.913330078,-3322271.1086273193,-5929962.635040283,-2948549.98588562,-882070.004940033,2089837.0742797852,518998.08645248413,1166690.9456253052,4974663.734436035,-2577009.439468384,-3045847.177505493,-1205824.851989746,3135195.016860962,525082.5881958008,-582222.2232818604,-5051207.542419434,-2611292.3622131348,4348723.411560059,8636228.561401367,2575280.4279327393,2571284.055709839,2264240.9801483154,2088823.7953186035,350060.3139400482,-8250483.512878418,2628853.0826568604,319567.7697658539,9434758.186340332,4997427.463531494,4215277.194976807,7988687.515258789,-610273.5996246338,-5729856.491088867,4798331.260681152,9018065.452575684,6585648.536682129,6438184.73815918,6411137.104034424,7716755.8670043945,8303546.905517578
0.01,-26766416.549682617,-17512960.43395996,-15437484.741210938,-8326434.135437012,-15447552.680969238,-11301833.152770996,-6751603.126525879,-2283159.9712371826,3249304.2945861816,3804892.063140869,1258279.800415039,-11072793.006896973,-10784071.922302246,2041810.9893798828,-11502623.558044434,-6891519.069671631,-10676150.32196045,5607854.843139648,7810686.5882873535,7982292.175292969,8136485.0997924805,8592365.264892578,11584022.521972656,-2959074.020385742,-6544173.240661621,-1602588.6535644531,1373388.2904052734,5765808.10546875,3642010.9272003174,3851504.08744812,9175873.756408691,-736427.9627799988,-2823112.4877929688,-847108.4833145142,5937993.52645874,1382980.7043075562,-1029206.8719863892,-5836547.8515625,-3197087.7647399902,5492186.069488525,12147869.110107422,2460216.0453796387,2634975.1949310303,2204926.2523651123,1878357.4104309082,254251.68871879578,-12320935.249328613,1609792.947769165,-1668166.8758392334,11052843.09387207,5303988.456726074,4123510.8375549316,9120662.689208984,-1095640.5401229858,-10049955.368041992,4560517.78793335,9980926.513671875,7294250.48828125,7069500.923156738,6057063.579559326,8512031.555175781,8730727.195739746
0.015,-41999877.9296875,-32844207.763671875,-33311107.635498047,-11399443.626403809,-20998975.75378418,-15584840.774536133,-9801445.960998535,-2380508.8996887207,4879749.774932861,5688059.329986572,1233998.8946914673,-12852613.44909668,-12487956.047058105,-882796.9431877136,-15974170.684814453,-7384776.592254639,-7741708.755493164,8487513.542175293,10061220.169067383,8451684.951782227,8220424.652099609,6778911.590576172,10751628.875732422,438469.4993495941,-3701371.192932129,1268485.66532135,4012839.7941589355,6803353.309631348,3703990.936279297,3371755.838394165,7383388.996124268,-327674.41868782043,2007844.9249267578,1250131.0110092163,7284283.16116333,1023880.7201385498,-1279296.875,-5951803.207397461,-4037001.609802246,3190230.60798645,12117385.864257812,3988347.053527832,4328180.313110352,2176244.7357177734,583382.6065063477,-84494.64291334152,-12981541.633605957,-549152.0762443542,-3562418.6992645264,9875010.49041748,6625393.867492676,5452394.485473633,9590676.307678223,-1227689.266204834,-10579121.589660645,5186870.098114014,9847155.570983887,8219587.326049805,7900026.321411133,5665441.989898682,9188444.137573242,8977615.356445312
0.02,-61837680.81665039,-54797889.709472656,-56088520.05004883,-18028251.64794922,-29298360.82458496,-19376438.14086914,-14167770.385742188,-4322729.110717773,4123269.557952881,5278460.502624512,-696155.3692817688,-15635714.530944824,-15232568.740844727,-6721361.6371154785,-19785585.403442383,-8543265.342712402,-6109574.317932129,8952108.383178711,10424815.17791748,7836789.131164551,6971008.30078125,4062157.63092041,8150655.746459961,2468535.4232788086,-1891029.0002822876,2540176.8684387207,4685189.247131348,5797247.886657715,2209418.773651123,2059510.4694366455,5604423.522949219,76985.75407266617,6947559.833526611,3369867.3248291016,6914392.948150635,-601906.7764282227,-1289150.595664978,-7632131.099700928,-4624019.622802734,2896642.4465179443,13904440.879821777,8173107.147216797,8527728.080749512,3410729.8851013184,-462980.6578159332,-176104.5902967453,-12969635.009765625,585946.261882782,-1842972.0401763916,12620491.981506348,11754811.28692627,10568655.014038086,13983530.99822998,-1027910.8285903931,-6950844.764709473,9899858.474731445,14336888.313293457,13146545.41015625,12723605.155944824,10520135.879516602,14658826.82800293,14959352.493286133
0.025,-76855361.93847656,-71206146.24023438,-70835052.49023438,-24295743.942260742,-36499691.009521484,-20889240.264892578,-17225540.161132812,-6363424.301147461,1931255.4597854614,3197991.8479919434,-2997785.806655884,-18275594.71130371,-17893651.962280273,-10872323.989868164,-21161170.959472656,-9837350.845336914,-7517989.158630371,7435425.281524658,9772197.723388672,7781798.839569092,6477604.866027832,3863798.6183166504,7306109.428405762,1583336.2340927124,-2499808.0730438232,1869626.6412734985,3277431.7264556885,4384813.30871582,1371533.3938598633,2380505.8002471924,6933807.849884033,1088773.6082077026,8335624.694824219,3806125.6408691406,5883021.354675293,-2465443.6111450195,-1284991.2643432617,-9470174.789428711,-3858628.273010254,6387232.303619385,17869272.232055664,11784477.233886719,11947506.90460205,4615384.101867676,-1461329.9369812012,2086.675027385354,-13184439.659118652,5252938.270568848,2964504.9571990967,18113632.202148438,17180147.171020508,15903782.844543457,19710754.39453125,-783069.6105957031,-2307816.26701355,15934471.130371094,21062221.52709961,18959451.67541504,18462846.755981445,17622932.43408203,21836359.02404785,23445692.06237793
0.03,-86482154.8461914,-81130783.08105469,-79891326.90429688,-28178245.544433594,-42450492.85888672,-20785453.79638672,-18420047.760009766,-7478428.840637207,-138511.18087768555,316154.8972129822,-5805601.119995117,-22227937.698364258,-21915826.79748535,-15653346.061706543,-20942150.115966797,-10095725.059509277,-9189941.40625,6088922.023773193,8731531.143188477,7318511.962890625,5424384.117126465,3026178.3599853516,5242568.9697265625,502590.1794433594,-2989121.437072754,1731013.1788253784,2409005.880355835,4167783.737182617,1840486.0496520996,3751196.86126709,7939977.645874023,789060.115814209,6983160.018920898,2665321.111679077,5480407.238006592,-3182414.770126343,-1527275.3238677979,-8764206.886291504,-2445376.6345977783,8858103.75213623,18948898.315429688,11298594.47479248,11175333.976745605,3804707.7655792236,-3397906.78024292,-14799.696393311024,-13426555.633544922,7801179.4090271,5287504.67300415,18848018.646240234,17456562.042236328,16367883.682250977,20624992.37060547,-843925.2972602844,-1240193.8438415527,17189510.345458984,22407432.556152344,19673871.994018555,19128931.045532227,19491958.618164062,23372411.727905273,26078329.08630371
0.035,-99984367.37060547,-95599952.6977539,-96328269.9584961,-33555374.14550781,-52056148.529052734,-23202335.357666016,-21402900.69580078,-10014171.600341797,-2545190.3343200684,-3644784.927368164,-10990534.782409668,-30829355.239868164,-30560911.178588867,-26842969.89440918,-23363506.317138672,-11100429.53491211,-9994651.794433594,5435149.192810059,7020302.295684814,4450699.329376221,1232219.5768356323,-3319441.795349121,-2600548.505783081,1014824.7480392456,-2496195.3163146973,2405169.4869995117,3045362.949371338,4444122.314453125,1490468.3828353882,2605737.4477386475,3656873.4645843506,-3628418.6840057373,5809081.077575684,1228903.5320281982,5380748.271942139,-2723123.31199646,-1960996.0317611694,-6602988.243103027,-3204309.2250823975,5276164.0548706055,14418658.256530762,8362625.1220703125,8019008.636474609,1773123.1451034546,-5405230.0453186035,-439570.42694091797,-14223814.010620117,4173258.3045959473,1540633.4400177002,13144481.658935547,13711894.035339355,13254022.598266602,17164804.458618164,-1241732.8357696533,-4406245.231628418,13141528.129577637,17544635.772705078,16092460.632324219,15473454.475402832,15841260.91003418,19279712.677001953,22428606.033325195
0.04,-123485054.01611328,-121657287.59765625,-125233543.3959961,-46581352.23388672,-69834762.57324219,-31664831.161499023,-30536922.454833984,-18484380.7220459,-9529078.483581543,-12117940.902709961,-21609140.396118164,-45801090.240478516,-45506137.84790039,-45185611.724853516,-31891244.888305664,-17039638.51928711,-14380063.0569458,1448278.0694961548,1510809.063911438,-3201770.782470703,-7980621.814727783,-15811887.741088867,-15991010.665893555,196595.14725208282,-4554705.1429748535,-89053.1837940216,1418176.4125823975,1415840.744972229,-2971191.167831421,-3683723.9265441895,-6188976.764678955,-12311723.709106445,5076126.0986328125,-321270.4062461853,3781003.23677063,-2885706.663131714,-2257937.431335449,-6716922.283172607,-7300994.873046875,-2530521.3928222656,7720109.939575195,7412655.353546143,6957145.214080811,1163141.6082382202,-4918242.931365967,-866448.4620094299,-14835633.277893066,-1235006.4516067505,-3790254.592895508,8380655.288696289,12140930.17578125,12421714.782714844,16086627.960205078,-1572957.2772979736,-6765063.762664795,10337054.252624512,14275062.561035156,15033285.140991211,14337537.76550293,14135386.46697998,17608034.133911133,20894538.87939453
0.045,-150287597.65625,-151004623.41308594,-155467254.63867188,-67117843.62792969,-92968269.34814453,-44404949.18823242,-45051975.25024414,-33766296.38671875,-24525344.848632812,-28297462.463378906,-38523097.99194336,-63992275.23803711,-63659931.18286133,-63788146.97265625,-44677127.838134766,-28890956.87866211,-26439218.521118164,-10128324.508666992,-11152242.660522461,-16507120.132446289,-21666206.35986328,-30205898.28491211,-29803421.020507812,-5925422.191619873,-12090548.515319824,-8723138.809204102,-6484644.412994385,-7627685.070037842,-11992446.899414062,-13167825.698852539,-16999292.373657227,-21718181.610107422,2116638.18359375,-3284470.558166504,-206639.46866989136,-5198120.594024658,-2185783.3862304688,-9707469.940185547,-11830423.355102539,-7981044.292449951,3336615.562438965,8775090.217590332,8262851.715087891,2315038.4426116943,-1125469.9230194092,-817488.7895584106,-12309115.409851074,-619366.3477897644,-3212463.617324829,9927805.90057373,14632460.594177246,15287088.394165039,19982788.0859375,-1412249.207496643,-3530405.5213928223,13309484.481811523,17379949.56970215,18931715.01159668,18287811.279296875,18049987.79296875,22426618.576049805,25702917.098999023
0.05,-167321487.4267578,-168270309.4482422,-171466567.99316406,-85625396.72851562,-110996795.65429688,-55528656.005859375,-58258987.42675781,-49106761.93237305,-42505146.02661133,-47394786.8347168,-55726482.39135742,-77602455.13916016,-77300727.84423828,-74131477.35595703,-55800872.802734375,-41258018.493652344,-41489479.064941406,-25543500.900268555,-27220245.361328125,-30734272.003173828,-34612312.31689453,-40419582.36694336,-38494915.00854492,-16185142.517089844,-22024742.126464844,-19674333.572387695,-17650304.794311523,-18749933.24279785,-20829706.1920166,-20248098.373413086,-23664405.822753906,-27410146.713256836,-4135587.692260742,-7994847.297668457,-4938752.174377441,-8558324.813842773,-1829845.3092575073,-12021536.827087402,-13127535.820007324,-7948765.277862549,1507104.754447937,8343547.821044922,7825041.2940979,2592226.74369812,3211133.9569091797,-386328.63759994507,-6199125.76675415,6048087.596893311,3179390.1920318604,13213288.307189941,16385114.669799805,16959754.943847656,23410940.170288086,-848149.7168540955,3038857.2216033936,18051958.084106445,21565443.03894043,22288677.215576172,21861122.131347656,22166749.954223633,27666625.9765625,30486318.588256836
0.055,-167973403.93066406,-166618698.1201172,-168272262.5732422,-90973159.79003906,-114078727.72216797,-60718414.306640625,-63445274.353027344,-54981685.638427734,-51543544.76928711,-57096027.37426758,-62720069.885253906,-79395553.58886719,-79193031.31103516,-73233985.9008789,-60932441.71142578,-47156303.40576172,-48727439.880371094,-33920738.220214844,-35643440.24658203,-36748764.03808594,-38976730.34667969,-42168621.06323242,-39671871.185302734,-24487773.895263672,-27926832.19909668,-25108390.80810547,-23413921.356201172,-23532278.060913086,-23170404.4342041,-20699808.12072754,-24113059.997558594,-27617420.196533203,-10629808.42590332,-12242908.477783203,-7717914.581298828,-10111317.63458252,-1491766.8104171753,-11079430.58013916,-11236368.179321289,-5559042.453765869,134079.50103282928,4331197.738647461,3902417.6597595215,402335.9417915344,4605406.284332275,-83043.85840892792,-1521981.2393188477,10435566.902160645,7336205.005645752,11262332.916259766,13695135.116577148,14098644.256591797,21369626.998901367,-444598.61516952515,6051733.016967773,17836996.07849121,19736701.96533203,20192787.170410156,19940713.88244629,20600059.509277344,26203556.060791016,28076822.28088379
0.06,-157559463.50097656,-153762374.8779297,-155245513.91601562,-82545326.23291016,-103768119.81201172,-60585777.282714844,-60377059.93652344,-49726039.88647461,-46257186.88964844,-51310737.60986328,-56241275.787353516,-70814483.64257812,-70733207.70263672,-66454505.920410156,-60700054.16870117,-45550991.05834961,-44157573.69995117,-29953060.150146484,-30650913.23852539,-31248838.424682617,-33020320.892333984,-37010250.091552734,-35990856.1706543,-26277828.216552734,-27421821.59423828,-22191848.754882812,-19941381.454467773,-19165220.260620117,-18463563.919067383,-16084184.646606445,-20568792.34313965,-24861179.35180664,-13383579.25415039,-13423273.086547852,-7613420.486450195,-8804193.496704102,-1448198.1992721558,-8479314.804077148,-9299206.733703613,-4904097.557067871,-1141861.6771697998,401803.25508117676,111493.34162473679,-2252413.272857666,2822354.0782928467,-164326.93600654602,-2752565.383911133,7664771.08001709,4631136.417388916,5619022.846221924,9463307.38067627,10029242.515563965,16650493.621826172,-587957.1437835693,3136179.208755493,12899733.543395996,13663880.348205566,15503853.797912598,15173059.463500977,15633020.401000977,20172117.233276367,21052396.774291992
0.065,-149550338.7451172,-145990875.24414062,-149228149.4140625,-72726318.359375,-94388061.5234375,-58703037.26196289,-55457202.91137695,-42712902.0690918,-36089992.52319336,-40059741.97387695,-46945518.493652344,-63816268.92089844,-63837223.052978516,-64487640.380859375,-58769363.40332031,-41912582.39746094,-36413833.61816406,-21659515.380859375,-21133607.864379883,-23272462.844848633,-25977119.44580078,-33250671.38671875,-34710197.44873047,-22847360.610961914,-24124286.651611328,-16402915.954589844,-13588235.855102539,-13079490.661621094,-13721220.016479492,-12652228.355407715,-18517091.751098633,-24334911.346435547,-11776779.174804688,-11604784.965515137,-6058135.032653809,-6813960.552215576,-1748404.9797058105,-7150475.025177002,-9533391.952514648,-6384493.827819824,-1645640.254020691,587641.0603523254,339817.3749446869,-2356040.0009155273,807136.1780166626,-398554.2058944702,-7114016.532897949,2908148.5271453857,108732.23841190338,3739343.6431884766,8701266.288757324,9791047.096252441,15371231.079101562,-1031569.0040588379,-795460.7009887695,9808324.813842773,11060685.157775879,14302303.314208984,13763697.624206543,13705177.307128906,17293647.76611328,17472591.400146484
0.07,-155026245.1171875,-154645843.50585938,-160900436.4013672,-73957641.6015625,-98860366.82128906,-58037525.17700195,-55180519.104003906,-43632995.60546875,-34268714.904785156,-38275775.90942383,-47818729.400634766,-69084121.70410156,-69131500.24414062,-73770355.22460938,-58188369.75097656,-41255340.576171875,-35838733.6730957,-20283079.147338867,-20251380.920410156,-24075172.424316406,-28171556.47277832,-38141971.588134766,-41283382.415771484,-18950485.229492188,-22281915.66467285,-14448697.090148926,-12530332.565307617,-13641803.741455078,-15305689.811706543,-14654947.280883789,-21940784.454345703,-28918020.248413086,-8683594.703674316,-9381591.796875,-4854629.039764404,-6620005.6076049805,-2153847.2175598145,-7533088.207244873,-11403545.379638672,-8165353.775024414,-2362906.2175750732,3697032.928466797,3358007.6694488525,127175.28641223907,740722.0602035522,-489001.8403530121,-8450116.157531738,2871413.7077331543,197757.89976119995,7418462.753295898,11364987.37335205,12867995.262145996,18055143.356323242,-1261288.4044647217,-1276300.1918792725,11644354.820251465,14070831.298828125,17029834.747314453,16510709.762573242,15829016.68548584,19397724.151611328,19136558.532714844
0.075,-169137588.50097656,-171646087.64648438,-179994812.01171875,-83200759.88769531,-111545753.4790039,-58969146.728515625,-59150554.65698242,-50031402.587890625,-40467029.5715332,-46022972.106933594,-56566902.16064453,-80858673.09570312,-80799652.09960938,-86287666.32080078,-59263851.165771484,-42739837.646484375,-40798851.013183594,-25283546.447753906,-27264596.939086914,-31575643.53942871,-36525772.09472656,-47180923.46191406,-50592731.47583008,-17824678.421020508,-22197149.2767334,-16318727.493286133,-16039476.39465332,-18762086.868286133,-20204843.521118164,-18869409.561157227,-27684177.39868164,-34525520.32470703,-7286386.013031006,-8927392.959594727,-4474895.477294922,-7763855.934143066,-2334018.4688568115,-7879798.412322998,-12857460.975646973,-9049649.238586426,-4495122.909545898,4876739.978790283,4475039.958953857,2055101.6330718994,1438845.5152511597,-472445.011138916,-5987347.602844238,5980145.9312438965,3263835.668563843,10286614.418029785,12423927.307128906,13732482.91015625,19041519.165039062,-1192848.9208221436,-491102.9040813446,13602725.982666016,16435806.274414062,17984607.696533203,17797615.05126953,16609230.041503906,20226530.075073242,19719226.837158203
0.08,-170814819.3359375,-172386138.91601562,-179771072.3876953,-84668006.89697266,-112578147.8881836,-58823055.267333984,-60182769.775390625,-50487426.7578125,-42217353.82080078,-49060642.24243164,-58142353.05786133,-81320121.76513672,-81067962.64648438,-85047515.86914062,-59160636.90185547,-42014526.3671875,-40756896.97265625,-26426544.189453125,-28876634.59777832,-32974765.77758789,-37659408.56933594,-47390289.306640625,-50211833.95385742,-18747797.0123291,-21663829.803466797,-16910297.393798828,-16898628.23486328,-19358917.236328125,-19837951.66015625,-18211784.36279297,-27836103.439331055,-33386638.641357422,-8385401.725769043,-10006568.908691406,-4430924.892425537,-7906060.695648193,-2205637.4549865723,-7114548.683166504,-12172492.027282715,-8533792.495727539,-6603165.626525879,1713779.2110443115,1438339.9486541748,779920.756816864,464179.78405952454,-571218.9674377441,-4123632.4310302734,6262029.17098999,3463311.4337921143,7393293.857574463,8396513.938903809,9049776.077270508,14303552.627563477,-1220810.6517791748,-2692098.1407165527,10236070.63293457,12738886.833190918,13169315.338134766,13269385.33782959,12229980.46875,14925717.3538208,14350978.85131836
0.085,-144322341.9189453,-142387252.8076172,-146969238.28125,-69602012.63427734,-93219215.3930664,-52622638.70239258,-51445629.11987305,-39845993.04199219,-33315887.451171875,-39951892.8527832,-46268074.03564453,-64151313.78173828,-63774120.33081055,-65856307.98339844,-52876964.5690918,-36535850.524902344,-31580919.26574707,-19595008.850097656,-19335292.81616211,-23598560.333251953,-27020633.697509766,-34945346.83227539,-37298564.91088867,-17865516.662597656,-19152576.446533203,-13614905.35736084,-12646889.686584473,-12968535.423278809,-12415221.214294434,-11396461.486816406,-20400808.334350586,-24787439.346313477,-9842281.341552734,-10535122.871398926,-4130400.1808166504,-6229213.237762451,-2000617.265701294,-6113962.650299072,-9528196.334838867,-6688608.169555664,-6747172.3556518555,-2944081.3064575195,-2943709.135055542,-2640518.1884765625,-2041512.7277374268,-805029.8690795898,-4670372.009277344,3143597.8412628174,316780.9844017029,1507698.655128479,1810831.5467834473,2116423.3684539795,6750038.623809814,-1567287.3258590698,-6982161.998748779,3240379.0950775146,5581959.7244262695,5550158.500671387,5562085.6285095215,5474873.5427856445,6779994.487762451,6136710.166931152
0.09,-102031112.67089844,-100408767.70019531,-105236694.3359375,-48019077.30102539,-70220497.13134766,-36870529.17480469,-33400253.295898438,-25709125.518798828,-22085828.78112793,-28707073.211669922,-33454681.396484375,-46580810.546875,-46239665.98510742,-48912391.662597656,-37062149.04785156,-27055135.72692871,-20915609.35974121,-12274463.653564453,-9338554.382324219,-14397170.066833496,-16835287.09411621,-23784996.032714844,-27365507.125854492,-11183535.5758667,-14068893.432617188,-8738361.358642578,-8411283.493041992,-7243562.2215271,-6384132.862091064,-5994006.633758545,-14449554.443359375,-19471149.444580078,-8054829.5974731445,-8379208.564758301,-2765908.4796905518,-4106531.6200256348,-1930826.4255523682,-6468794.345855713,-7776154.518127441,-5708854.675292969,-6959005.355834961,-4136551.3801574707,-3877577.304840088,-4197038.173675537,-3262968.5401916504,-927695.7511901855,-5090451.717376709,909220.6358909607,-1869227.7669906616,-2462346.5538024902,-1403287.649154663,-646367.3710823059,2695863.2469177246,-1899771.9287872314,-9278822.898864746,-1389773.6072540283,1101044.774055481,1453190.3266906738,1149276.852607727,1668512.3443603516,2180728.4355163574,1309305.191040039
0.095,-75124786.37695312,-82062561.03515625,-93696830.74951172,-36095634.46044922,-66706733.70361328,-14542952.537536621,-13440952.30102539,-17664567.947387695,-18067943.572998047,-27447719.57397461,-34071338.65356445,-49715270.99609375,-49489578.24707031,-58520935.05859375,-14783635.139465332,-15721036.911010742,-16636114.120483398,-11255903.244018555,-10153354.64477539,-16429418.563842773,-19952384.94873047,-29803323.74572754,-38006423.95019531,1354254.6033859253,-6217033.386230469,-4834915.637969971,-8009381.294250488,-8343005.180358887,-9180715.560913086,-9409414.291381836,-20089164.73388672,-28488258.361816406,-1384065.6280517578,-3192641.9734954834,525231.0037612915,-2641489.7441864014,-1930072.7844238281,-8501554.489135742,-10368979.454040527,-9174373.626708984,-11899641.036987305,-122385.09953022003,279376.9836425781,-1236588.3588790894,-1678677.5588989258,-754096.6272354126,-4630831.718444824,115388.46045732498,-2542751.7890930176,-4900776.8630981445,1369450.8075714111,2889319.896697998,4379621.505737305,-1809253.8118362427,-9613243.103027344,-2001893.7587738037,408591.3300514221,3082353.115081787,2632697.582244873,1915654.0632247925,2000203.8478851318,1005323.4100341797
0.1,-78738395.69091797,-98520668.02978516,-121012405.39550781,-36611629.486083984,-83587318.42041016,5007617.950439453,663933.0387115479,-15573914.527893066,-18606706.619262695,-33112071.990966797,-44982635.498046875,-71832695.00732422,-71670356.75048828,-92973945.61767578,4713543.891906738,-5143602.37121582,-16534143.447875977,-12683680.534362793,-17433441.162109375,-25557281.494140625,-32624446.868896484,-50372364.04418945,-66251312.255859375,14141782.760620117,2666486.2632751465,-1567587.6140594482,-8252857.208251953,-12256154.06036377,-17203216.552734375,-19298994.064331055,-35304542.541503906,-49007938.385009766,7009530.544281006,2564645.528793335,5118796.348571777,-1501732.4686050415,-1845448.613166809,-10589041.709899902,-17201263.427734375,-17544265.747070312,-22310258.865356445,5573053.359985352,6011261.463165283,4026061.534881592,492546.29015922546,-420631.85572624207,-6240064.1441345215,-3406613.349914551,-5973195.552825928,-9481522.560119629,6190576.553344727,7859008.7890625,7628822.326660156,-1449098.5870361328,-12075315.475463867,-2791500.5683898926,-799490.0941848755,6273485.18371582,5956192.970275879,2463999.5098114014,1550394.6542739868,957916.9154167175
0.105,-97990638.73291016,-126141311.64550781,-157224197.3876953,-39937725.06713867,-101407417.29736328,13095244.407653809,5708816.5283203125,-13707779.884338379,-15850781.440734863,-34454177.85644531,-52143329.62036133,-92255386.35253906,-92088775.63476562,-126174697.87597656,12886248.588562012,1159828.543663025,-14385875.701904297,-9864647.86529541,-19337488.174438477,-30082176.208496094,-41378303.52783203,-68329917.90771484,-91611480.71289062,19937170.028686523,8147181.510925293,1348660.4690551758,-5302251.815795898,-12070410.72845459,-21646862.030029297,-26968160.62927246,-48507305.14526367,-67133613.58642578,11068189.62097168,4922644.61517334,8097685.813903809,-638193.4285163879,-1721974.3728637695,-10853952.407836914,-23906188.96484375,-26322559.356689453,-33065349.578857422,7606325.149536133,8021043.77746582,6343411.445617676,236096.18842601776,-241660.13300418854,-10536952.018737793,-10410656.929016113,-13093277.931213379,-16313720.703125,7024245.262145996,8047874.450683594,7277526.378631592,-1346514.344215393,-17445470.809936523,-6699992.1798706055,-5156403.541564941,5928738.594055176,5784599.304199219,189780.71212768555,-1973883.5096359253,-1766254.9018859863
0.11,-111587196.35009766,-139894470.21484375,-173706115.72265625,-40826087.951660156,-107649581.90917969,8873776.43585205,2776048.6602783203,-11967911.720275879,-11136196.13647461,-30449012.756347656,-51385192.87109375,-98815200.80566406,-98638023.37646484,-139172409.0576172,8848746.299743652,314272.403717041,-11268882.751464844,-5223665.237426758,-14983318.328857422,-28167861.938476562,-42141151.428222656,-74046211.24267578,-101034317.01660156,16555463.790893555,6615523.815155029,1488734.3645095825,-1997553.5869598389,-9026661.87286377,-20892498.016357422,-28574850.08239746,-53115509.033203125,-74391540.52734375,7759333.13369751,2022039.4134521484,6756834.983825684,-1166169.7626113892,-1699348.4497070312,-9683590.88897705,-26460151.67236328,-30648754.119873047,-39007049.560546875,4363792.896270752,4756874.561309814,3494080.3050994873,-1760790.8248901367,-342860.07285118103,-12995530.128479004,-15163634.300231934,-18170579.91027832,-21266239.166259766,2848315.477371216,3256237.506866455,3370692.9683685303,-1625843.88256073,-20843494.415283203,-10860609.05456543,-9860749.244689941,2106817.2454833984,2021489.143371582,-3500096.321105957,-5826801.300048828,-5171462.535858154
0.115,-115784454.34570312,-140398376.46484375,-172963027.95410156,-43422801.97143555,-108367210.3881836,-829331.636428833,-4615153.3126831055,-15205013.275146484,-12631219.863891602,-30395336.151123047,-51296253.2043457,-98539588.92822266,-98353378.29589844,-137568237.3046875,-753792.1667098999,-6469284.0576171875,-13410226.821899414,-6591847.896575928,-14072802.543640137,-28056707.38220215,-42478694.915771484,-73528854.37011719,-100519638.06152344,8803645.133972168,-137922.77872562408,-2772591.5908813477,-3691492.3191070557,-9878280.639648438,-20830003.73840332,-27978630.06591797,-53148918.15185547,-74891418.45703125,444941.31207466125,-3384593.4867858887,2356580.2574157715,-3224047.4224090576,-1740086.555480957,-9611503.601074219,-25205831.52770996,-30308271.408081055,-40190120.697021484,-422539.8302078247,2607.919042930007,-591528.4156799316,-1704439.9976730347,-524810.5525970459,-10411178.588867188,-13254024.505615234,-16505075.454711914,-21805328.369140625,-1584883.3322525024,-986641.3474082947,372102.17118263245,-1809660.1963043213,-18641899.10888672,-11173010.82611084,-11077971.458435059,-822602.2124290466,-849070.9662437439,-5203633.3084106445,-6421071.0525512695,-6233571.0525512695
0.12,-117919624.32861328,-140609848.02246094,-171907577.51464844,-49242263.79394531,-111597290.0390625,-7699482.440948486,-11073591.232299805,-22455291.748046875,-20448194.50378418,-37080394.74487305,-56497287.75024414,-100549888.61083984,-100317977.90527344,-135244644.16503906,-7696748.25668335,-13132288.932800293,-20307725.90637207,-13788848.876953125,-19846946.716308594,-32954982.75756836,-46523197.174072266,-74469879.15039062,-100363235.47363281,3821953.773498535,-5527751.922607422,-7729827.880859375,-9023715.97290039,-15356378.555297852,-24181377.410888672,-28837467.193603516,-53955284.118652344,-75256698.60839844,-4251802.444458008,-5981523.9906311035,-175151.13949775696,-4509697.437286377,-1702429.5330047607,-12056859.016418457,-23280138.01574707,-28532636.642456055,-39742206.57348633,-1713701.7250061035,-1246811.2707138062,-221048.2656955719,1936533.9279174805,-532764.9712562561,-6525183.67767334,-8204865.455627441,-11369640.350341797,-19974224.090576172,-1955958.9624404907,-572218.8353538513,1126028.7761688232,-1534116.268157959,-13884049.415588379,-8416166.305541992,-9214199.06616211,-86370.17756700516,32896.868884563446,-4221982.955932617,-4446528.911590576,-5294629.5738220215
0.125,-118296875.0,-141614395.14160156,-173286727.90527344,-51012416.83959961,-113267677.3071289,-7157043.45703125,-11082232.475280762,-24998943.328857422,-24125738.1439209,-41133190.1550293,-59602672.5769043,-101821945.19042969,-101513717.65136719,-134361175.53710938,-7307705.879211426,-13234367.370605469,-22926824.56970215,-17218307.495117188,-23388647.079467773,-35688678.74145508,-48301872.25341797,-74928466.796875,-100185386.65771484,5402250.289916992,-4206728.935241699,-7162040.233612061,-10586220.741271973,-18282159.80529785,-26276744.842529297,-29384401.321411133,-54390892.028808594,-75074348.44970703,-2467712.40234375,-2962473.154067993,2550404.3102264404,-2857608.3183288574,-1627045.750617981,-15127211.570739746,-22579305.64880371,-27486509.323120117,-39123847.96142578,1787879.9438476562,2193075.8953094482,5156247.615814209,5760305.404663086,-390287.8761291504,-7235113.143920898,-6810368.061065674,-9678708.07647705,-18977132.79724121,1040000.7963180542,2930282.3543548584,3925735.2352142334,-1141099.5721817017,-12042531.01348877,-6854516.983032227,-7724833.4884643555,2669783.8306427,2864486.6943359375,-2928216.4573669434,-3142781.972885132,-4583927.631378174
0.13,-112306076.04980469,-136697235.10742188,-169236099.24316406,-44152156.829833984,-107352912.90283203,-31018.71907711029,-3972006.08253479,-18313634.872436523,-17673194.885253906,-35660865.783691406,-54070167.541503906,-96606414.79492188,-96248916.62597656,-130075714.11132812,-284416.1093235016,-6163596.630096436,-16221824.645996094,-11510489.463806152,-17952131.271362305,-30840635.299682617,-43063957.21435547,-70752494.81201172,-95311637.87841797,12099403.381347656,2716648.3402252197,-321603.56640815735,-5327401.161193848,-14347369.194030762,-23204175.94909668,-27126615.524291992,-51655788.42163086,-71555572.50976562,3972687.4828338623,3118226.2897491455,8174571.0372924805,358220.6070423126,-1701837.658882141,-15931383.13293457,-22855215.072631836,-27081996.91772461,-37977470.39794922,6868367.1951293945,7108430.3855896,10256734.848022461,5588002.2048950195,-361175.4775047302,-12261613.845825195,-10303939.819335938,-12980045.318603516,-19326902.389526367,4030254.84085083,5652884.483337402,5803110.122680664,-1230371.8328475952,-13850646.97265625,-8108356.475830078,-8090172.76763916,4550180.435180664,4598718.166351318,-3062538.8622283936,-3402587.1753692627,-4344708.9195251465
0.135,-104073112.48779297,-129243713.37890625,-161604827.88085938,-36188636.779785156,-99471923.828125,8352392.196655273,3733591.318130493,-9745996.475219727,-8937491.416931152,-27389743.80493164,-45910007.47680664,-89459098.81591797,-89132385.25390625,-124511947.63183594,8069334.983825684,1770170.2117919922,-7260238.170623779,-3652937.889099121,-9914574.62310791,-23950899.124145508,-36413177.490234375,-65533546.447753906,-88864387.51220703,19055738.44909668,8946764.945983887,6045276.641845703,707559.1683387756,-8778861.045837402,-18428319.931030273,-24079574.584960938,-48083271.02661133,-67227676.39160156,9877760.887145996,6984697.8187561035,10980081.558227539,1412745.2373504639,-1933114.767074585,-14399951.934814453,-23494398.11706543,-26960166.931152344,-36710559.8449707,9547631.26373291,9673791.885375977,10343525.886535645,1805706.7394256592,-579486.1912727356,-15629371.643066406,-13794019.69909668,-16471687.316894531,-19426366.806030273,5512052.059173584,6370750.427246094,6349446.773529053,-1787422.1801757812,-15489241.600036621,-9527621.269226074,-8423648.834228516,5090778.827667236,4903956.890106201,-3671184.0629577637,-3259068.489074707,-3032942.533493042
0.14,-104829711.9140625,-130908660.88867188,-162060363.76953125,-37809848.78540039,-100589439.39208984,11559338.569641113,4025631.904602051,-9733208.656311035,-9185769.081115723,-27528390.884399414,-46091243.743896484,-89824836.73095703,-89634429.93164062,-124735816.9555664,11277064.323425293,3370809.79347229,-6490099.906921387,-3717011.2133026123,-9862655.639648438,-23973199.84436035,-36889530.181884766,-66037773.13232422,-88136589.05029297,21823350.90637207,9436755.180358887,5400360.584259033,260013.49091529846,-9148794.174194336,-17981731.414794922,-24025316.23840332,-48150726.318359375,-66819267.27294922,11741831.77947998,6094802.379608154,8361906.051635742,-1086433.4106445312,-2083266.258239746,-13263021.469116211,-24290866.85180664,-27260541.915893555,-36330783.84399414,9066327.095031738,9213348.388671875,6543941.020965576,-1322562.9329681396,-842839.777469635,-13756354.331970215,-13347437.858581543,-16061166.763305664,-18200355.529785156,6407876.968383789,6554481.506347656,7046388.149261475,-2145847.0821380615,-14557642.936706543,-8493185.997009277,-6790296.0777282715,5693709.373474121,5433031.5589904785,-3029105.1864624023,-1454147.5772857666,-450201.3623714447
0.145,-116673934.93652344,-143524169.921875,-173797637.93945312,-48307155.60913086,-111356437.68310547,7946125.507354736,-3339875.2212524414,-18422828.674316406,-18228292.46520996,-36658851.623535156,-55676334.381103516,-98161636.35253906,-98191429.1381836,-130551696.77734375,7702092.64755249,-1748290.8964157104,-14181111.335754395,-11658066.749572754,-18008874.893188477,-31207639.694213867,-44274162.29248047,-71752479.55322266,-92638244.62890625,20438880.920410156,5524294.376373291,-697817.9216384888,-5813431.739807129,-15317604.064941406,-22322542.190551758,-26987892.150878906,-51465950.01220703,-69428688.0493164,11031138.42010498,3152251.2435913086,3637128.8299560547,-4425940.036773682,-2002477.4074554443,-14363550.186157227,-24863334.65576172,-27589994.430541992,-36141853.33251953,8279128.074645996,8468816.757202148,3873569.0116882324,-1033265.233039856,-858044.7435379028,-9486468.315124512,-10215459.823608398,-12899226.188659668,-15735430.717468262,7815288.543701172,7596138.954162598,8678581.237792969,-1851613.998413086,-12546482.08618164,-5518214.225769043,-3610967.3976898193,7224737.167358398,7076532.363891602,-821462.2735977173,1153866.6486740112,2079678.5354614258
0.15,-127564384.46044922,-155051834.1064453,-185687545.7763672,-56502922.05810547,-120863594.05517578,3297050.4760742188,-9766995.429992676,-25844524.383544922,-25487066.2689209,-44716278.076171875,-64657852.17285156,-105196792.60253906,-105413993.83544922,-133867935.18066406,3164093.7328338623,-6472485.065460205,-20514942.169189453,-18066410.064697266,-24680398.94104004,-37589698.791503906,-50421356.201171875,-75409149.16992188,-94383903.50341797,19643013.00048828,3230865.478515625,-4629589.080810547,-10193287.84942627,-20385522.842407227,-26397163.39111328,-29428178.787231445,-53272495.26977539,-69730537.41455078,12125376.70135498,2839751.720428467,1958649.5161056519,-5310258.865356445,-1825695.0378417969,-16477390.28930664,-24686616.897583008,-27075756.072998047,-34198558.80737305,10268237.113952637,10414083.480834961,5199195.861816406,1130649.209022522,-605264.1272544861,-7636309.623718262,-7881660.461425781,-10507913.589477539,-12498752.59399414,10062704.086303711,9792137.145996094,10987566.947937012,-1228759.8848342896,-11530128.479003906,-2545385.1222991943,-392249.5245933533,9592144.966125488,9548235.893249512,2265489.101409912,3735832.929611206,4449312.686920166
0.155,-125940383.91113281,-154852996.82617188,-186295349.12109375,-54777912.13989258,-120054611.20605469,4467825.412750244,-7928107.261657715,-24571613.311767578,-23780792.236328125,-43907558.44116211,-64368019.104003906,-103776206.97021484,-103978546.14257812,-129878967.28515625,4465025.901794434,-4537976.7417907715,-18451379.776000977,-16549848.556518555,-23257572.174072266,-37048286.43798828,-49568531.03637695,-72664260.86425781,-89527656.55517578,22859508.514404297,5935365.200042725,-2124696.731567383,-8688430.786132812,-19995300.29296875,-26318975.4486084,-28902698.516845703,-51036209.10644531,-65952400.20751953,16226079.940795898,6043694.972991943,4284551.14364624,-3856984.6153259277,-1743542.194366455,-17185804.36706543,-23664207.458496094,-25669685.36376953,-30476596.83227539,14399638.175964355,14479604.721069336,8374361.038208008,2023730.754852295,-334874.0339279175,-9170420.64666748,-7532818.31741333,-10088461.875915527,-9325135.231018066,12769009.590148926,12522386.55090332,13497563.362121582,-905465.0664329529,-11158060.073852539,-387247.35379219055,2096606.2545776367,12314857.482910156,12259602.546691895,5532333.3740234375,6626962.184906006,7789186.954498291
0.16,-114337448.12011719,-144960098.26660156,-176095703.125,-46622016.90673828,-110667831.42089844,10385925.29296875,-689244.2107200623,-17746055.603027344,-16631517.41027832,-36391468.0480957,-56325351.71508789,-95908370.97167969,-95859161.37695312,-122180076.5991211,10398884.773254395,1659751.057624817,-11713150.978088379,-10645259.857177734,-17008451.461791992,-31476881.02722168,-43629207.611083984,-66381996.154785156,-82794021.60644531,26782775.87890625,10020996.09375,2969542.7417755127,-4716133.117675781,-16752817.153930664,-23082612.991333008,-26225870.13244629,-46888008.11767578,-61719230.65185547,18868330.001831055,8530527.114868164,6624538.421630859,-2932436.227798462,-1754642.6057815552,-15774384.498596191,-21949440.002441406,-24172803.87878418,-27503736.49597168,16414554.595947266,16470720.291137695,9111510.276794434,677404.8209190369,-251031.5477848053,-11113327.980041504,-7623458.385467529,-10097557.067871094,-7502514.839172363,14448933.601379395,13951801.300048828,15234655.380249023,-1036477.9233932495,-9849218.368530273,1066275.2389907837,3596299.648284912,14217646.598815918,14127271.65222168,7995043.2777404785,9695694.923400879,11362103.462219238
0.165,-104551788.33007812,-134550048.828125,-164266036.9873047,-40035995.48339844,-100961456.29882812,13410956.382751465,3238659.620285034,-13374047.27935791,-11608852.38647461,-29327283.85925293,-48512359.619140625,-88485382.08007812,-88150672.91259766,-116546348.57177734,13282820.701599121,4367554.664611816,-8411794.662475586,-7621174.8123168945,-12968956.94732666,-26840692.5201416,-38247558.59375,-61738639.83154297,-79636497.4975586,25566457.748413086,9758291.244506836,4341471.6720581055,-3769836.664199829,-15351433.753967285,-20188102.72216797,-23705648.42224121,-43931423.18725586,-60010929.107666016,15841134.071350098,6473861.217498779,5319520.950317383,-4213368.4158325195,-1755948.3051300049,-13622220.993041992,-19799627.30407715,-23078245.162963867,-27060323.71520996,13524280.548095703,13508243.560791016,5868350.982666016,-1385625.1239776611,-327734.0829372406,-10835618.97277832,-6722891.330718994,-9228742.599487305,-7600055.21774292,13481459.617614746,12264873.504638672,14969585.418701172,-1267244.6966171265,-7379218.101501465,1688575.7446289062,3788604.974746704,13936084.747314453,13873442.649841309,8568185.806274414,11549824.714660645,12341856.002807617
0.17,-102404121.39892578,-128656799.31640625,-157543411.2548828,-37842643.73779297,-96231018.06640625,10468299.865722656,1142844.4385528564,-14081363.677978516,-10906218.528747559,-26402250.289916992,-45966312.408447266,-85523872.37548828,-85134552.00195312,-114186614.99023438,10174283.981323242,1128417.8495407104,-10363188.743591309,-9190059.661865234,-13383367.538452148,-26274417.877197266,-36602027.893066406,-60376373.291015625,-79292076.11083984,19966257.095336914,5498405.933380127,1397164.3447875977,-6314640.045166016,-16629823.684692383,-19668352.127075195,-22745338.439941406,-42763790.130615234,-59513366.69921875,10102136.611938477,2071831.464767456,1728620.6483840942,-6289978.504180908,-1737031.2213897705,-12325580.596923828,-17931829.45251465,-22146537.78076172,-27771789.55078125,8674686.431884766,8505539.894104004,1588738.7990951538,-2414309.501647949,-435970.0381755829,-8762787.818908691,-5135576.7250061035,-7884001.731872559,-8377444.267272949,10766235.3515625,8686546.325683594,13189113.61694336,-1316922.4262237549,-4963032.7224731445,1531573.2955932617,3094885.82611084,12059152.603149414,12020827.293395996,7582274.913787842,11377504.348754883,9905932.426452637
0.175,-102538734.43603516,-125349212.64648438,-154754791.25976562,-36928947.44873047,-95058135.98632812,7612611.293792725,-1019404.7689437866,-15661653.518676758,-11033288.955688477,-25995340.34729004,-46886302.94799805,-85513465.88134766,-85349945.06835938,-112424522.39990234,7289657.5927734375,-2088057.9948425293,-12302809.715270996,-11099035.263061523,-15054752.349853516,-27951515.197753906,-37462936.40136719,-60142192.84057617,-77802947.99804688,17416576.385498047,3530535.6979370117,-753325.7007598877,-8214074.13482666,-17997821.807861328,-20763437.271118164,-23036460.876464844,-42113891.6015625,-57924278.259277344,8873805.99975586,1275992.751121521,511556.9233894348,-6731266.021728516,-1758927.7029037476,-12151999.473571777,-17259099.96032715,-21091386.795043945,-27136144.638061523,7719735.145568848,7508019.44732666,737273.4546661377,-1871788.501739502,-513910.11476516724,-7182661.533355713,-3892007.1125030518,-6892352.58102417,-8012748.718261719,9755048.751831055,7401859.760284424,12572840.690612793,-1279219.150543213,-3551747.5605010986,1448123.6934661865,2994524.9557495117,11441688.537597656,11337095.260620117,7008658.885955811,10250413.89465332,7155027.866363525
0.18,-100379714.96582031,-123264778.13720703,-152996047.9736328,-35500099.182128906,-94429405.21240234,10213084.22088623,1097139.0008926392,-14867619.514465332,-9685631.75201416,-25774263.381958008,-47410518.646240234,-85541244.50683594,-85671531.6772461,-110122886.65771484,10004075.050354004,-136152.4909734726,-10535620.68939209,-10184059.143066406,-14915966.987609863,-28604423.52294922,-38070201.8737793,-59146488.189697266,-74876037.59765625,21561218.26171875,7165351.390838623,1191353.3210754395,-6795141.220092773,-17750494.0032959,-21572586.059570312,-23400894.165039062,-41370582.580566406,-55948848.724365234,13845417.022705078,5906463.623046875,3636740.9229278564,-4982219.219207764,-1831110.2390289307,-12222756.385803223,-17832351.684570312,-20193286.895751953,-25097850.799560547,12185813.903808594,12163812.637329102,4521678.447723389,-300984.35282707214,-574494.9579238892,-7650681.018829346,-3466297.8649139404,-6397201.5380859375,-6567646.503448486,12096526.145935059,10452841.758728027,14714544.296264648,-1351416.3494110107,-3246279.239654541,2027336.597442627,4230042.934417725,13681684.494018555,13473333.358764648,7985490.322113037,9567742.347717285,7187672.6150512695
0.185,-102269401.55029297,-126962333.67919922,-155351791.38183594,-36882362.365722656,-95738449.09667969,13934272.766113281,3102231.26411438,-14359159.469604492,-9085344.314575195,-26235998.153686523,-47608360.290527344,-86276878.3569336,-86521865.84472656,-110089393.61572266,13858060.836791992,3488967.6570892334,-7974779.12902832,-8251310.348510742,-13634774.208068848,-27725578.30810547,-37902713.775634766,-58601299.28588867,-74411148.07128906,26685810.089111328,11913939.476013184,4462346.55380249,-3854451.1795043945,-16737251.281738281,-21436904.907226562,-23393938.064575195,-41430332.18383789,-56194103.2409668,18597105.026245117,10922755.241394043,7845493.316650391,-2617169.8570251465,-1915721.1780548096,-11705878.257751465,-18715475.08239746,-20133602.142333984,-24160892.486572266,17106035.232543945,17282583.236694336,9358234.405517578,1190147.2806930542,-648150.2652168274,-9827214.241027832,-3932777.8816223145,-6493513.107299805,-6207385.063171387,14756453.514099121,14272279.739379883,17301748.275756836,-1545473.0987548828,-4133776.1878967285,2347101.6883850098,5244919.776916504,16318017.959594727,16091270.446777344,8926518.440246582,9085055.351257324,8873620.03326416
0.19,-114141525.26855469,-138607681.27441406,-165120346.06933594,-43097766.8762207,-101417640.68603516,11780505.180358887,-240059.36086177826,-17351842.880249023,-11312824.249267578,-28493276.596069336,-49971275.329589844,-90142890.93017578,-90272308.34960938,-114573867.79785156,11779176.712036133,2493857.8605651855,-8769136.428833008,-8190810.203552246,-13551610.946655273,-27376699.447631836,-38566059.11254883,-60614738.46435547,-78377357.48291016,25998479.84313965,12106211.66229248,4915592.670440674,-2317081.4514160156,-16252418.518066406,-21300460.815429688,-23719644.54650879,-43074012.756347656,-59230476.37939453,17342773.4375,11044605.255126953,9055227.279663086,-1203973.650932312,-1993052.7210235596,-10699207.305908203,-19149589.53857422,-21180627.822875977,-25944068.908691406,17172487.258911133,17317686.080932617,10809250.831604004,1590830.683708191,-755143.5232162476,-12169640.54107666,-5367546.558380127,-7656299.591064453,-8382010.459899902,13695531.845092773,13821211.814880371,16686714.172363281,-1758816.3614273071,-6473504.543304443,1018765.5687332153,3856321.096420288,15609018.325805664,15471930.503845215,7438986.778259277,7580062.8662109375,8481230.735778809
0.195,-121922012.32910156,-144644927.97851562,-170856140.13671875,-46441661.8347168,-105026603.69873047,7054862.976074219,-3852577.4478912354,-19940658.569335938,-12692728.042602539,-29666749.954223633,-52243831.634521484,-93643203.73535156,-93576927.1850586,-118534294.12841797,7112516.403198242,-1441335.678100586,-10941693.305969238,-8810267.448425293,-14376500.129699707,-27877124.786376953,-39489765.16723633,-63088184.35668945,-82382598.87695312,21192356.10961914,9055144.309997559,3411278.9630889893,-2056102.7526855469,-15994688.034057617,-21420063.018798828,-24288045.88317871,-44740871.42944336,-62199451.4465332,12070177.07824707,7457364.082336426,7706004.1427612305,-748077.8098106384,-2039964.6759033203,-9929150.581359863,-18900817.87109375,-22306535.720825195,-28899374.00817871,12841039.657592773,12900993.347167969,8602723.121643066,771913.5284423828,-868262.4697685242,-13268316.268920898,-7283839.702606201,-9648272.514343262,-11708018.30291748,8998529.434204102,8806688.30871582,12454358.100891113,-1942355.5135726929,-9811781.883239746,-1897376.6565322876,110115.92298746109,11204093.933105469,11176335.334777832,3335514.3070220947,4637269.973754883,4296218.395233154
0.2,-98946578.97949219,-122197723.38867188,-149596008.30078125,-34080089.5690918,-92419143.67675781,11185375.213623047,3462250.7095336914,-13739841.46118164,-6217339.515686035,-23574098.587036133,-46573928.83300781,-86803863.52539062,-86628326.41601562,-111712295.53222656,11345949.172973633,258409.2617034912,-8088219.64263916,-5797288.417816162,-12393920.8984375,-25721361.16027832,-36218826.29394531,-59731388.092041016,-79485855.10253906,19251762.39013672,8862458.229064941,4718088.150024414,-402253.4489631653,-14520361.90032959,-19897359.84802246,-22972635.26916504,-43152965.5456543,-61593738.5559082,8399220.46661377,5461619.3771362305,7767436.981201172,-237848.47557544708,-1999587.6550674438,-9728092.193603516,-17685855.865478516,-21817798.614501953,-30309484.481811523,8578913.688659668,8819787.02545166,6508231.639862061,-559889.2569541931,-892204.1654586792,-13044574.737548828,-8671625.137329102,-11284223.556518555,-13774805.068969727,4014157.772064209,3217216.730117798,7336676.597595215,-2096629.3811798096,-13031895.637512207,-5155191.898345947,-3939769.0296173096,5953125.476837158,5988976.47857666,-1590338.2301330566,738381.4454078674,-2296002.149581909
0.205,-42260162.353515625,-68785011.2915039,-97035720.82519531,-5094186.305999756,-60255733.489990234,27562103.271484375,23089532.85217285,2490760.326385498,9271833.419799805,-8448110.580444336,-29833259.58251953,-66124687.19482422,-65951271.057128906,-91850990.29541016,27847047.805786133,10886248.588562012,1673466.2055969238,2420445.203781128,-4976271.152496338,-18103384.017944336,-26223623.275756836,-48270378.11279297,-68979774.47509766,22380535.125732422,13615406.036376953,10597475.051879883,3919714.92767334,-11066778.182983398,-15227525.71105957,-18377389.907836914,-37464572.90649414,-57286563.873291016,7788937.091827393,7064293.86138916,10829892.1585083,836543.619632721,-1866415.26222229,-9606585.502624512,-15544165.61126709,-19587785.720825195,-29813617.706298828,6728337.76473999,7303697.58605957,7138977.527618408,-1974701.7621994019,-772355.6756973267,-12910573.959350586,-9438068.389892578,-12209816.932678223,-14444976.806640625,505631.14881515503,-341161.6384983063,3160159.3494415283,-2222835.5407714844,-15740039.825439453,-8156261.444091797,-7049702.167510986,1718925.2376556396,1789983.0341339111,-6063264.3699646,-3776131.1531066895,-9301953.315734863
0.21,12334409.713745117,-15980533.599853516,-44248226.165771484,22804599.76196289,-27287010.192871094,44872905.73120117,41987384.79614258,18428962.70751953,25022001.266479492,7973036.766052246,-11335876.46484375,-43913444.51904297,-43761234.283447266,-71671897.8881836,45213550.56762695,22855049.13330078,12022846.221923828,11634422.302246094,4882050.99105835,-8341013.9083862305,-14744872.093200684,-35984111.78588867,-58692745.208740234,26021820.068359375,18803644.18029785,16846872.329711914,8706385.612487793,-6682130.336761475,-9576703.071594238,-13126526.832580566,-31552682.876586914,-53156673.431396484,7377625.942230225,9024249.076843262,13614235.877990723,1902059.4358444214,-1732858.419418335,-8927054.405212402,-13704034.805297852,-17874685.287475586,-29721670.150756836,5516254.425048828,6186233.997344971,8561995.506286621,-3747548.1033325195,-618213.5343551636,-14104752.540588379,-10811306.953430176,-13634909.629821777,-15853911.399841309,-2629040.9564971924,-2876601.219177246,-751360.3568077087,-2335870.7427978516,-18555511.474609375,-11267102.241516113,-9845787.048339844,-2220074.6536254883,-2110313.1771087646,-10129998.207092285,-8741462.707519531,-15762377.738952637
0.215,25523529.052734375,-446524.08361434937,-29021488.189697266,29970098.4954834,-17300300.59814453,49882518.76831055,46910057.067871094,22595361.709594727,30270200.729370117,14719915.390014648,-4576567.17300415,-37019859.313964844,-36846858.978271484,-66569900.51269531,50137508.392333984,26594755.172729492,15376648.902893066,15705685.61553955,10448105.812072754,-3534086.4658355713,-10506286.62109375,-32622287.75024414,-56648712.158203125,26128200.53100586,19616098.403930664,18328163.146972656,10531087.875366211,-3682768.8217163086,-7144032.4783325195,-11662213.325500488,-30155204.77294922,-53050098.41918945,5626429.557800293,8120756.149291992,12458509.44519043,2057369.9474334717,-1672225.3561019897,-7820324.420928955,-13563511.848449707,-18683946.60949707,-31709625.244140625,2910464.7636413574,3419229.26902771,7377067.565917969,-5814998.149871826,-597970.9625244141,-15915323.257446289,-13251142.501831055,-16084733.963012695,-18914188.385009766,-5919566.631317139,-5525726.795196533,-4770692.348480225,-2433872.2229003906,-21387228.01208496,-14199604.034423828,-12706466.674804688,-6269761.562347412,-6124426.364898682,-13521997.451782227,-13190117.835998535,-20833374.0234375
0.22,-1276860.8331680298,-23599103.927612305,-52917224.8840332,16622543.334960938,-31743053.436279297,42164569.85473633,38820941.92504883,15232588.768005371,24031696.319580078,9713957.786560059,-11359888.076782227,-46615001.6784668,-46412742.614746094,-76299018.85986328,42215854.64477539,21608629.22668457,11753425.598144531,13259156.227111816,8891724.586486816,-5864253.044128418,-14880855.560302734,-38229358.6730957,-61687561.03515625,23821935.653686523,16587337.493896484,15315565.10925293,8791150.093078613,-3384490.966796875,-8641388.893127441,-14295325.27923584,-32901435.85205078,-56095016.47949219,4140884.8762512207,5401450.634002686,8528510.093688965,1214424.2525100708,-1649522.4237442017,-7115579.128265381,-14595192.909240723,-20852626.80053711,-34289978.02734375,-65412.335097789764,406833.5294723511,3763820.8866119385,-7243168.354034424,-708940.8040046692,-16714515.686035156,-15154306.411743164,-17888755.798339844,-21468223.571777344,-7603509.426116943,-7064572.811126709,-7115248.203277588,-2444252.2525787354,-22676021.575927734,-15597249.031066895,-14329922.676086426,-8612074.851989746,-8453279.495239258,-14936998.36730957,-15481314.659118652,-23117734.909057617
0.225,-32411918.64013672,-53684246.06323242,-82723152.16064453,884656.1312675476,-49519306.18286133,31843612.670898438,28984443.66455078,6784541.130065918,15848891.258239746,1973970.890045166,-20071926.11694336,-57365657.806396484,-57156208.03833008,-85994583.12988281,31703344.345092773,15333958.625793457,8058112.144470215,9166356.086730957,5060184.478759766,-9523415.565490723,-19800174.713134766,-43148220.06225586,-65473587.03613281,22213138.580322266,13710798.263549805,12820992.469787598,6653869.62890625,-4257493.019104004,-9887915.61126709,-16278676.986694336,-34622943.87817383,-57514938.35449219,4201137.065887451,3925072.193145752,6338174.819946289,305550.6944656372,-1622527.7185440063,-7169191.837310791,-14627039.909362793,-21356571.197509766,-34481540.67993164,-999107.5396537781,-333999.9318122864,1119428.9922714233,-7682403.564453125,-793316.9603347778,-16710002.899169922,-14968619.346618652,-17467311.85913086,-20946435.928344727,-6447677.135467529,-6313648.700714111,-6278120.994567871,-2321786.642074585,-21520586.013793945,-14877064.70489502,-13481573.104858398,-7679404.735565186,-7533342.8382873535,-13725442.886352539,-14901379.585266113,-21930839.53857422
0.23,-45092346.19140625,-67439567.56591797,-94595260.62011719,-4631686.210632324,-55012538.90991211,26064096.450805664,23998701.095581055,4290367.126464844,13882732.391357422,32742.556184530258,-21177095.413208008,-58231441.497802734,-57989078.521728516,-86038612.36572266,25867366.790771484,12999804.496765137,8871995.92590332,8591474.533081055,5331919.6701049805,-8494597.434997559,-18525539.39819336,-41170806.884765625,-63425304.4128418,22088003.158569336,13066972.732543945,13903588.29498291,7282930.374145508,-3427485.942840576,-7463863.372802734,-14239315.032958984,-32227546.69189453,-54575923.919677734,4846798.419952393,4285936.8324279785,7584523.2009887695,140526.83115005493,-1629126.9063949585,-7179714.679718018,-12759920.120239258,-19455137.252807617,-31435501.098632812,440306.1270713806,1170103.7883758545,982644.4387435913,-8588322.639465332,-787788.6295318604,-17871381.759643555,-13735829.35333252,-16060388.565063477,-17778329.849243164,-4009937.7632141113,-4655378.341674805,-3591551.0654449463,-2191092.4911499023,-19586059.5703125,-13326108.932495117,-11033368.110656738,-4800332.069396973,-4715960.0257873535,-11133936.882019043,-12530173.301696777,-18392034.53063965
0.235,-50512348.17504883,-72849662.78076172,-97957771.30126953,-5681788.444519043,-54761249.54223633,23086944.580078125,20394353.86657715,4045531.749725342,15559245.109558105,1716125.726699829,-18522144.317626953,-55198280.334472656,-54865245.8190918,-82591949.46289062,22933813.095092773,12488512.03918457,10901049.613952637,10549841.88079834,8909791.946411133,-4794283.866882324,-14404090.881347656,-37120796.20361328,-59583053.58886719,22278079.986572266,13039294.242858887,15744495.391845703,9481108.665466309,-834976.851940155,-3778496.503829956,-10901914.596557617,-28544136.04736328,-49996128.08227539,5032581.806182861,4366876.602172852,8913309.097290039,146623.70085716248,-1681507.1105957031,-6273376.46484375,-10497516.632080078,-17433727.264404297,-27165533.0657959,2305916.7861938477,2761691.5702819824,1068629.1456222534,-11387677.192687988,-786012.3515129089,-20234409.33227539,-13351120.948791504,-15739377.975463867,-14465964.317321777,-2357145.7862854004,-3986217.737197876,-1436688.5423660278,-2205444.097518921,-18890239.715576172,-12091855.0491333,-8626599.311828613,-2437277.07862854,-2501848.6976623535,-8707525.253295898,-9781392.097473145,-14344923.01940918
0.24,-65969276.428222656,-86567153.93066406,-110799949.6459961,-13421627.99835205,-62113494.873046875,18639110.565185547,13077666.282653809,-1040751.0995864868,12575087.547302246,-1337879.0616989136,-21770488.739013672,-59366878.509521484,-58969276.428222656,-85673126.22070312,18468021.392822266,9241615.295410156,7957284.927368164,9195390.701293945,8524699.211120605,-5661870.002746582,-15552331.924438477,-38784420.013427734,-59813491.82128906,21981813.430786133,11128383.63647461,13587989.807128906,8583703.994750977,-545218.1100845337,-4205280.303955078,-11269607.543945312,-28084083.557128906,-48257884.97924805,5351603.031158447,2897548.6755371094,6780165.672302246,-1139600.396156311,-1680234.1938018799,-5223379.135131836,-9470676.42211914,-17013566.970825195,-23859382.62939453,3380305.528640747,3491654.396057129,-536068.6182975769,-14588221.549987793,-806296.169757843,-20533908.84399414,-13003153.800964355,-15547304.153442383,-11870661.735534668,-832872.748374939,-3363644.599914551,284164.04128074646,-2246058.225631714,-18215662.002563477,-9986224.174499512,-5964144.229888916,-602293.6105728149,-865497.5295066833,-6017575.263977051,-6431371.688842773,-10369376.182556152
0.245,-86298149.10888672,-105939674.3774414,-130046813.96484375,-26959203.720092773,-76155342.10205078,12707100.868225098,3419351.100921631,-10886613.845825195,2958920.2404022217,-11324071.884155273,-32207305.908203125,-70133995.05615234,-69781242.37060547,-94369628.90625,12414490.699768066,3024054.527282715,-388689.2795562744,1771983.26587677,372137.1293067932,-13566285.133361816,-23549982.07092285,-45900226.59301758,-63921062.46948242,21218229.293823242,7260487.5564575195,7354003.429412842,2468193.769454956,-5946105.95703125,-10049054.145812988,-15901425.3616333,-31156717.30041504,-49955001.83105469,6630171.775817871,1306952.714920044,2531253.8146972656,-3971461.296081543,-1570614.8147583008,-6110334.396362305,-9560522.079467773,-17226663.58947754,-21734930.03845215,4744041.442871094,4710171.699523926,-1799684.5245361328,-14696208.953857422,-719963.3717536926,-16743345.260620117,-10175555.229187012,-12687537.19329834,-8513401.985168457,2790866.8518066406,-206372.75278568268,3726441.3833618164,-2016270.8759307861,-14396196.365356445,-5150370.121002197,-1456113.576889038,2809981.107711792,2435083.6277008057,-1404297.113418579,-1197785.0198745728,-5626902.103424072
0.25,-95232048.03466797,-115868415.83251953,-139749908.44726562,-35922908.782958984,-85151969.90966797,8116136.55090332,-3333881.8550109863,-18668558.12072754,-6266682.6248168945,-21236803.05480957,-41709587.09716797,-77553787.23144531,-77279067.99316406,-100074249.26757812,7778431.8923950195,-2266599.8935699463,-7921266.078948975,-7071900.844573975,-10089809.41772461,-22752754.21142578,-31791492.462158203,-51672542.572021484,-67318016.0522461,19932445.526123047,3825255.3939819336,2047958.6124420166,-4909466.26663208,-14369043.350219727,-16783554.077148438,-20655717.849731445,-34398334.50317383,-51896091.46118164,8046099.662780762,1329634.5472335815,504427.7310371399,-6400253.2958984375,-1488339.0665054321,-9523169.51751709,-9994172.096252441,-16893903.732299805,-20274929.04663086,7376566.410064697,7298064.231872559,82905.3521156311,-10732797.622680664,-526337.206363678,-12225504.875183105,-5521608.829498291,-7805807.113647461,-4206183.910369873,8016706.466674805,4983214.855194092,8874048.233032227,-1542475.1043319702,-7871142.864227295,981506.0496330261,4041455.7456970215,7824514.389038086,7515673.637390137,4607734.680175781,5177338.123321533,-242603.48081588745
0.255,-91155639.6484375,-112612838.74511719,-136329925.53710938,-35578464.50805664,-84377090.45410156,5649774.551391602,-5172373.294830322,-19865230.560302734,-8433163.6428833,-24104331.970214844,-43948104.85839844,-76948471.06933594,-76645668.02978516,-99555625.91552734,5480970.859527588,-4099229.335784912,-9394666.67175293,-10616625.785827637,-14525767.32635498,-26398883.819580078,-34211902.6184082,-52483234.40551758,-68085586.54785156,17664785.385131836,2572720.2892303467,1338713.8843536377,-7798616.409301758,-19156711.57836914,-19413665.771484375,-22241851.806640625,-35772247.314453125,-52298313.14086914,7523755.5503845215,1936701.6553878784,1857821.9413757324,-6310008.525848389,-1580725.6698608398,-12787008.285522461,-10765045.166015625,-17184249.877929688,-20500745.77331543,9216576.57623291,9092185.974121094,3342680.6926727295,-6225219.249725342,-485206.57420158386,-12072131.156921387,-3668985.8436584473,-5788155.078887939,-2357522.72605896,10472243.309020996,7397593.4982299805,11751953.125,-1310772.0613479614,-4207521.438598633,3494460.5827331543,6214894.2947387695,10562125.205993652,10405384.063720703,8086284.637451172,8657185.554504395,2842825.8895874023
0.26,-87157707.21435547,-107430244.44580078,-131393280.02929688,-31849143.981933594,-80860885.62011719,3306787.9676818848,-4977847.576141357,-17272199.630737305,-5237126.82723999,-21128442.764282227,-41411216.735839844,-73847831.72607422,-73444488.52539062,-98334754.94384766,3349762.439727783,-4251792.430877686,-6459212.779998779,-8114163.398742676,-11750564.575195312,-24358345.03173828,-31910911.560058594,-51574665.06958008,-69214653.01513672,14084095.001220703,2348816.8716430664,3169050.931930542,-5468803.882598877,-17512290.954589844,-17777557.373046875,-21519813.537597656,-36750133.5144043,-53510463.71459961,3943224.1916656494,392504.84108924866,3123001.81388855,-4151658.058166504,-1753256.4401626587,-12464253.425598145,-11953644.752502441,-19931795.120239258,-24376249.313354492,6942985.534667969,6984605.312347412,3210511.6844177246,-5231661.796569824,-771082.878112793,-16059972.763061523,-7521233.081817627,-9694377.899169922,-6522679.805755615,6606664.657592773,3296555.995941162,8691825.866699219,-1665289.6404266357,-7968411.445617676,-674081.2659263611,1907014.3699645996,7441323.757171631,7350152.015686035,5594875.812530518,5649151.802062988,203686.10322475433
0.265,-90433891.29638672,-109152465.8203125,-133352310.18066406,-31353437.423706055,-81312980.65185547,-57251.930236816406,-5800824.6421813965,-16212619.78149414,-2874680.995941162,-18214149.475097656,-40078208.923339844,-74522628.78417969,-74129089.35546875,-101552680.96923828,-36649.033427238464,-5529335.021972656,-4361591.339111328,-4608919.620513916,-7783459.663391113,-21616548.538208008,-29936748.504638672,-52983577.728271484,-73434005.73730469,9965384.483337402,1042380.9289932251,3375365.734100342,-2360261.6786956787,-13517083.168029785,-15524679.183959961,-20952135.08605957,-39175445.556640625,-57944984.436035156,-1101229.4292449951,-3568679.3327331543,1440815.5679702759,-2558023.9295959473,-1775669.813156128,-8602973.937988281,-12742597.579956055,-24332433.700561523,-31363510.131835938,1065435.8863830566,1596313.1189346313,-1065870.6426620483,-7544313.907623291,-1136205.9116363525,-18869115.829467773,-13939088.821411133,-16281454.086303711,-15013717.651367188,-1211718.201637268,-4481831.073760986,1651403.9039611816,-2262948.0361938477,-16543315.887451172,-8260782.241821289,-6006669.998168945,454371.95897102356,315567.2550201416,-910879.5523643494,-1941898.8227844238,-7089979.17175293
0.27,-94975112.91503906,-114397224.42626953,-138473007.20214844,-33253723.14453125,-83823631.2866211,-2702906.1317443848,-7244909.763336182,-17844003.677368164,-3419605.493545532,-17724273.681640625,-41411010.7421875,-77869285.5834961,-77641670.22705078,-107051940.91796875,-2908272.5048065186,-7613782.4058532715,-4948118.209838867,-3688752.6512145996,-7032024.383544922,-21203235.626220703,-30538677.215576172,-55867404.93774414,-78556526.18408203,7400418.758392334,-938016.4742469788,1605196.8336105347,-1891561.3889694214,-12200137.1383667,-15248700.141906738,-21117952.346801758,-42045215.60668945,-63267536.16333008,-4164651.870727539,-6549049.854278564,-1406226.5157699585,-3083350.419998169,-1610921.3829040527,-4980448.7228393555,-12424963.95111084,-27334997.177124023,-37161273.95629883,-3226017.475128174,-2270998.71635437,-4492055.892944336,-9528895.378112793,-1171497.3449707031,-17546333.31298828,-17363044.73876953,-19825645.446777344,-21326322.555541992,-6353135.108947754,-8910894.393920898,-3001300.33493042,-2441760.0631713867,-22643009.185791016,-12656449.317932129,-10749466.896057129,-4065516.948699951,-4235011.100769043,-5201112.747192383,-7570600.509643555,-12769300.46081543
0.275,-95134429.93164062,-116816711.42578125,-140833602.90527344,-33900096.89331055,-84058380.12695312,-2867848.6347198486,-7663724.422454834,-19772689.819335938,-4347666.263580322,-17790468.215942383,-42844615.9362793,-79277877.80761719,-79184272.76611328,-109742980.95703125,-3201400.9952545166,-8414418.22052002,-6137325.286865234,-4349910.259246826,-8134326.934814453,-22072252.27355957,-32214572.90649414,-56988170.6237793,-80247367.85888672,7831125.259399414,-1366319.7755813599,624718.1296348572,-3195441.246032715,-13592308.044433594,-16478149.4140625,-21165281.295776367,-43018424.98779297,-64597503.662109375,-3451378.82232666,-5816035.747528076,-2116242.6471710205,-4530192.852020264,-1442867.636680603,-4625546.455383301,-11723289.489746094,-27327367.782592773,-37705142.974853516,-2120229.482650757,-1251367.449760437,-3217758.1787109375,-9000872.611999512,-837385.892868042,-14905991.554260254,-16380760.192871094,-18868787.76550293,-21020881.65283203,-5279122.352600098,-6955522.060394287,-1683688.0445480347,-2042399.6448516846,-22466339.111328125,-11266956.329345703,-9176513.671875,-2624277.353286743,-2748656.0344696045,-3765001.058578491,-7140014.6484375,-11904853.820800781
0.28,-94635116.57714844,-116805572.50976562,-140937377.9296875,-34142414.09301758,-82994308.47167969,-2193754.196166992,-7825237.274169922,-21217126.846313477,-4835308.074951172,-17924652.099609375,-43469467.16308594,-78074531.55517578,-77927368.1640625,-109036384.58251953,-2445204.973220825,-8315573.692321777,-7015146.255493164,-5181990.623474121,-8901461.601257324,-23044769.287109375,-33605606.07910156,-56133468.62792969,-78222862.24365234,9509128.57055664,-330692.7680969238,981452.465057373,-4351264.476776123,-14717426.300048828,-17806419.372558594,-21121494.29321289,-42070041.65649414,-61464775.08544922,-1324115.1571273804,-3334858.6559295654,-1037202.3582458496,-4978773.11706543,-1378733.1581115723,-6575360.298156738,-11882842.063903809,-25909999.84741211,-34211399.07836914,1664299.726486206,2079948.6637115479,63660.75575351715,-7252394.199371338,-501599.90787506104,-14256055.83190918,-14347650.527954102,-16799263.00048828,-16766963.958740234,-1492533.6837768555,-2949267.864227295,2273403.6445617676,-1546253.6811828613,-18963039.39819336,-7906527.519226074,-5247140.884399414,1365661.382675171,1255003.571510315,40667.83934831619,-3544839.382171631,-7128132.8201293945
0.285,-99434440.61279297,-119487716.67480469,-143090072.63183594,-37686588.287353516,-84988945.00732422,-3856987.237930298,-10010297.775268555,-24112928.39050293,-7410613.536834717,-20506509.78088379,-45457698.822021484,-78063476.5625,-77757591.2475586,-109366188.0493164,-4036787.0330810547,-9739048.957824707,-9451158.52355957,-7394477.367401123,-10714346.885681152,-25227626.80053711,-35513935.08911133,-56513256.07299805,-77199813.84277344,9149713.516235352,-518839.2996788025,198775.7831811905,-5644254.207611084,-15129117.965698242,-19198236.4654541,-22052225.11291504,-41873996.73461914,-59250137.32910156,-1321276.1878967285,-2953048.9444732666,-1268094.6588516235,-4434315.204620361,-1330245.9716796875,-8154853.820800781,-12891043.663024902,-25490983.963012695,-31887159.34753418,2857860.565185547,2965847.0153808594,621898.9491462708,-6212773.323059082,-449228.7039756775,-14574688.911437988,-14006055.83190918,-16406690.59753418,-14452255.249023438,-261245.2208995819,-2094170.331954956,3627870.0828552246,-1375616.6696548462,-16701784.133911133,-6904652.118682861,-4264406.681060791,2653667.92678833,2445676.08833313,1018229.2461395264,-2004353.5232543945,-4855452.537536621
0.29,-107880577.08740234,-126304069.51904297,-148616088.8671875,-43766780.853271484,-90382720.94726562,-7038495.5406188965,-13464600.563049316,-28575521.46911621,-12254285.81237793,-25526851.654052734,-49429382.32421875,-81348617.55371094,-80938690.18554688,-113140281.6772461,-7306115.15045166,-12111372.947692871,-13614108.085632324,-11384979.248046875,-14901768.684387207,-29014881.134033203,-38382080.078125,-59550037.3840332,-80045593.26171875,7116168.49899292,-2272688.865661621,-2337172.9850769043,-7790045.261383057,-16910970.68786621,-21199970.245361328,-23951211.92932129,-43770252.2277832,-61523731.23168945,-2552155.4946899414,-4381927.967071533,-3416105.031967163,-4446681.976318359,-1230987.9064559937,-8828888.893127441,-13480628.01361084,-26009731.29272461,-32780555.725097656,1571510.7917785645,1670094.4900512695,-1043832.7789306641,-5864768.028259277,-575224.6975898743,-13435901.641845703,-14014200.210571289,-16412456.512451172,-15077176.094055176,-1079647.421836853,-3097750.9021759033,2706732.2731018066,-1394453.0487060547,-16057935.71472168,-7066221.714019775,-5423536.777496338,1634008.288383484,1321861.3862991333,-187490.3291463852,-2451897.382736206,-5772006.511688232
0.295,-112979270.9350586,-132617233.27636719,-154464447.02148438,-46724906.92138672,-94344367.98095703,-6653782.844543457,-13991147.0413208,-31003904.342651367,-14849242.210388184,-28403081.8939209,-52102535.247802734,-85011604.30908203,-84567604.0649414,-116260795.59326172,-6982232.570648193,-11308207.511901855,-15931247.71118164,-14005959.510803223,-18427434.92126465,-31783172.607421875,-40352249.14550781,-62091865.53955078,-82732215.88134766,7920621.395111084,-1988379.5976638794,-3656539.6785736084,-9466968.536376953,-20150835.037231445,-23183559.41772461,-25171308.517456055,-45312713.623046875,-64226684.5703125,-268927.27613449097,-3547648.4298706055,-4652644.157409668,-5705181.59866333,-1170063.7340545654,-9956503.868103027,-12855084.419250488,-25317413.330078125,-32762752.532958984,2956051.5880584717,3054786.443710327,-650150.3586769104,-5454659.938812256,-621371.9844818115,-11770018.577575684,-11799705.505371094,-14269882.202148438,-13810947.41821289,1111074.2092132568,-790829.6585083008,4489789.4859313965,-1250960.5884552002,-14352023.124694824,-4127985.954284668,-3365472.5551605225,3354931.354522705,3069489.002227783,1889513.4925842285,-198665.84241390228,-3898082.733154297
0.3,-111700172.4243164,-133467132.56835938,-156795455.9326172,-43859855.65185547,-93294265.74707031,-509322.8220939636,-9730062.484741211,-28878469.467163086,-12174292.56439209,-25936475.75378418,-50648841.857910156,-85130607.60498047,-84665565.49072266,-113150863.64746094,-689937.2339248657,-5943246.364593506,-13881132.125854492,-12548771.858215332,-17516458.51135254,-31165777.2064209,-39636108.3984375,-60600894.927978516,-79473731.9946289,13611014.366149902,2329470.39604187,-1796703.577041626,-8948928.833007812,-22108684.539794922,-23908903.121948242,-24622579.57458496,-43602569.580078125,-61228080.74951172,6811390.8767700195,845611.9894981384,-3221760.9882354736,-7089262.008666992,-1212726.11618042,-11796868.324279785,-11652864.456176758,-22546419.143676758,-27734901.428222656,8811149.597167969,8781382.56072998,2706138.3724212646,-5272436.618804932,-520212.0542526245,-12347681.045532227,-7905388.832092285,-10421869.277954102,-7765300.273895264,7617877.006530762,5371786.117553711,10506155.967712402,-939702.1532058716,-10997947.692871094,2065752.5062561035,3352453.9470672607,9344558.715820312,9178624.153137207,8871370.315551758,6093867.778778076,3410052.537918091
0.305,-107322349.54833984,-129154693.60351562,-154233825.68359375,-39383956.90917969,-89190673.828125,6286183.3572387695,-4697971.820831299,-24890861.51123047,-7676299.095153809,-21389547.34802246,-47022514.34326172,-81821746.82617188,-81390640.25878906,-104726402.28271484,6283014.297485352,-691640.1982307434,-10097748.756408691,-9190913.200378418,-13749874.114990234,-28795663.833618164,-37372497.55859375,-56275920.86791992,-71418350.21972656,19610914.23034668,6990142.822265625,956602.0965576172,-6934392.929077148,-21416387.5579834,-23408781.051635742,-23332338.333129883,-39708297.72949219,-53714000.7019043,13100996.017456055,4725030.899047852,-1038998.007774353,-7245503.4255981445,-1245743.6323165894,-13072342.872619629,-10987645.149230957,-19638805.389404297,-20356586.456298828,14034390.449523926,13972081.184387207,5319985.866546631,-5758152.008056641,-382116.04952812195,-15023656.845092773,-5551796.436309814,-7945528.030395508,-1109081.745147705,13065720.558166504,9909900.665283203,15660238.265991211,-748646.8553543091,-8672547.340393066,6511952.877044678,9380393.028259277,14474930.763244629,14375146.865844727,15132961.27319336,11363215.446472168,9801578.521728516
0.31,-103761306.76269531,-124152496.33789062,-148558563.23242188,-38526477.8137207,-86277015.68603516,7352602.481842041,-3916420.2213287354,-23617975.23498535,-6729735.851287842,-20320119.857788086,-45496093.75,-78353569.03076172,-78071601.86767578,-97897262.57324219,7283680.9158325195,-406110.2867126465,-9009266.85333252,-8235726.356506348,-12356397.62878418,-28185024.26147461,-36202701.568603516,-53387092.59033203,-65706901.55029297,20401956.55822754,7345825.1953125,1443860.2924346924,-5793265.342712402,-20327789.306640625,-23010250.091552734,-22845710.75439453,-37216831.20727539,-48867671.966552734,12991376.876831055,4396110.534667969,-708484.7688674927,-6451020.71762085,-1137943.983078003,-13419129.371643066,-10924721.717834473,-18602878.57055664,-16730028.15246582,13779476.165771484,13894857.406616211,4958266.258239746,-6060344.219207764,-271262.0496749878,-16653514.862060547,-5996463.298797607,-8115862.846374512,674997.4489212036,12752036.094665527,9289178.848266602,15271536.827087402,-765270.1139450073,-8977458.953857422,6174767.971038818,10093668.937683105,14087458.610534668,13972859.382629395,15420916.557312012,11269002.914428711,8720924.377441406
0.315,-101827293.3959961,-121827270.5078125,-143212554.93164062,-40913028.717041016,-85925018.31054688,3500834.4650268555,-6804867.744445801,-25608942.03186035,-9521583.557128906,-23270177.841186523,-47216789.24560547,-76572952.27050781,-76446502.68554688,-96860481.26220703,3220749.855041504,-3597456.455230713,-11158901.21459961,-10299702.644348145,-14963592.529296875,-29932302.474975586,-36772716.5222168,-53333808.89892578,-65675582.88574219,17213804.244995117,4389199.256896973,-54302.90102958679,-6572629.928588867,-21496505.737304688,-23487697.60131836,-23093524.932861328,-37057067.87109375,-49573699.951171875,8565476.417541504,1823760.6287002563,-2104359.1499328613,-6280038.833618164,-961399.5552062988,-14104871.74987793,-10542397.499084473,-18625829.696655273,-17791358.947753906,10408391.952514648,10630638.122558594,3834933.042526245,-5156741.619110107,-156134.63521003723,-15465490.341186523,-6657160.28213501,-8538711.547851562,-1216594.2192077637,9317960.739135742,6884613.513946533,11876249.313354492,-756102.7407646179,-9717729.568481445,4411676.406860352,8156209.945678711,10793600.082397461,10681745.529174805,12275231.36138916,8678838.729858398,3755638.837814331
0.32,-101278144.83642578,-121788635.25390625,-140766830.44433594,-42671066.28417969,-86663070.67871094,1126962.661743164,-8581143.379211426,-27649873.733520508,-12074093.81866455,-26180465.698242188,-49835689.544677734,-75756553.64990234,-75606674.19433594,-98406852.72216797,827266.8123245239,-5319013.595581055,-13643109.321594238,-12480713.844299316,-18076492.309570312,-31726348.876953125,-37630306.243896484,-53479156.494140625,-66797317.50488281,15782503.128051758,2814036.1309051514,-1191000.9384155273,-8315538.40637207,-24493515.014648438,-24309640.884399414,-23098281.860351562,-36776660.91918945,-50920097.35107422,6522434.711456299,1354138.8511657715,-3378042.221069336,-7527878.284454346,-911339.4618034363,-15736882.209777832,-9581488.609313965,-17606552.124023438,-18615060.806274414,9677400.588989258,9673716.54510498,4237544.536590576,-3698916.435241699,-45016.810297966,-13027554.512023926,-5005377.769470215,-6810277.938842773,-1128794.78931427,8701729.774475098,7497088.90914917,11474766.731262207,-573131.7400932312,-8181607.246398926,5730476.379394531,9026904.106140137,10610179.901123047,10549267.768859863,12015647.888183594,9364610.67199707,3821491.003036499
0.325,-100584724.42626953,-120182197.57080078,-139286087.0361328,-41648284.912109375,-86459739.6850586,3704391.2410736084,-6484258.17489624,-27337806.701660156,-12175828.93371582,-26440502.166748047,-51118751.525878906,-74636421.20361328,-74292434.69238281,-96577720.64208984,3618343.3532714844,-4033562.660217285,-14439940.452575684,-13058531.761169434,-18721561.431884766,-32201469.42138672,-37718517.3034668,-51559116.36352539,-63788848.876953125,17908302.307128906,4237386.226654053,-1115092.7543640137,-9655372.619628906,-26864057.540893555,-24651922.22595215,-22731399.536132812,-34845069.885253906,-48299095.153808594,9002195.358276367,3578188.65776062,-3539240.3602600098,-8983538.627624512,-1025344.8486328125,-16949501.037597656,-9093015.670776367,-15579982.75756836,-16349533.081054688,12520661.354064941,12169523.239135742,5201515.197753906,-3122529.7451019287,-19375.067204236984,-11646593.09387207,-2422747.6119995117,-4232203.006744385,2107511.520385742,11742051.124572754,10365916.25213623,14948359.489440918,-397856.3845157623,-5293761.730194092,8919398.307800293,12483977.317810059,14305787.086486816,14249949.45526123,15464082.717895508,13337005.615234375,9718519.21081543
0.33,-93043876.64794922,-110730941.77246094,-131025619.50683594,-36852241.51611328,-82219558.71582031,9520401.954650879,-961147.0699310303,-24230754.852294922,-10171950.340270996,-24398115.158081055,-49832180.02319336,-71667709.35058594,-71173645.01953125,-88905792.23632812,9568624.496459961,-1440311.7895126343,-13319487.571716309,-12490728.378295898,-17570236.206054688,-31764858.24584961,-36664356.23168945,-47926574.70703125,-57332298.278808594,20122541.427612305,6443350.791931152,-167356.74440860748,-9655694.007873535,-27174360.275268555,-24111583.709716797,-22156820.29724121,-32513534.545898438,-43876319.885253906,11886229.515075684,5695897.102355957,-2554096.460342407,-8716751.098632812,-1101661.5629196167,-16322074.890136719,-9776057.243347168,-14440014.839172363,-14090211.868286133,14788443.565368652,14414682.388305664,5526248.455047607,-3382728.5766601562,-93004.42785024643,-11866162.300109863,-2126129.8656463623,-3906469.3450927734,3567391.872406006,13807462.692260742,11170227.05078125,17310815.811157227,-444977.2238731384,-4326991.558074951,9059101.104736328,13223139.762878418,16741180.419921875,16589223.861694336,17231855.392456055,14805538.177490234,12606385.231018066
0.335,-69124313.35449219,-87365074.15771484,-107592552.1850586,-25450654.983520508,-69215286.25488281,17137287.139892578,8062747.955322266,-17518596.649169922,-5093339.920043945,-19406909.942626953,-43823101.04370117,-63884147.64404297,-63414451.599121094,-76658332.82470703,17085639.95361328,2643735.885620117,-9651757.24029541,-10229371.070861816,-15417940.139770508,-29698562.622070312,-32985904.693603516,-42811275.482177734,-51036804.19921875,20365154.266357422,8314134.59777832,2237023.35357666,-7651593.208312988,-25473098.754882812,-22208679.19921875,-20186923.98071289,-30570795.0592041,-41894927.978515625,11612111.09161377,6294867.038726807,-572650.9094238281,-6515741.82510376,-946492.5527572632,-14249505.043029785,-10295351.028442383,-14423657.417297363,-15231808.66241455,13741491.317749023,13752259.254455566,6343476.295471191,-3425286.054611206,-146167.65081882477,-12885681.15234375,-4268473.148345947,-6036010.7421875,130818.4415102005,11602961.540222168,8497019.76776123,14800564.765930176,-635951.2805938721,-6446340.084075928,4894962.310791016,8984841.346740723,14122531.89086914,13850138.664245605,13642744.064331055,10291298.866271973,6691164.016723633
0.34,-29364633.560180664,-51078830.71899414,-70126373.29101562,-6432390.6898498535,-46293350.21972656,27112960.815429688,20916240.692138672,-6810168.266296387,4817979.81262207,-9486383.438110352,-31601705.55114746,-49703479.7668457,-49321132.65991211,-62494884.4909668,26967306.13708496,9807332.038879395,-2910408.0200195312,-4540978.908538818,-10679216.384887695,-24025741.577148438,-25164274.215698242,-35198383.33129883,-45707469.94018555,20735401.153564453,10943120.002746582,6528610.2294921875,-3764123.9166259766,-21956081.39038086,-18492870.330810547,-15500050.54473877,-27596841.81213379,-41951396.94213867,9029435.157775879,6217738.151550293,1371502.8762817383,-4290588.855743408,-658756.0176849365,-11968783.378601074,-8729911.804199219,-13573877.334594727,-18357719.42138672,10573520.66040039,10988855.361938477,7996316.432952881,-3632560.4915618896,-97433.03805589676,-13915291.786193848,-5999620.43762207,-7891704.559326172,-5095570.087432861,6339067.459106445,4385595.798492432,8728362.083435059,-794592.2017097473,-9983780.860900879,-37854.69755530357,3193254.7092437744,7878208.637237549,7559253.215789795,6842430.591583252,2588789.463043213,-3314799.5471954346
0.345,7277996.54006958,-15982888.221740723,-34713069.915771484,12602550.506591797,-22512891.76940918,36698432.92236328,33407154.083251953,4010367.3934936523,16716361.999511719,3140483.1409454346,-17333276.748657227,-34245552.06298828,-33855091.0949707,-50882545.471191406,36690059.661865234,17465324.40185547,4458509.44519043,3395742.177963257,-3175296.0681915283,-15810938.835144043,-15666934.0133667,-26689603.805541992,-40774700.16479492,22362648.010253906,13696982.383728027,10686326.98059082,437740.2067184448,-17247922.897338867,-14008956.909179688,-9839200.973510742,-23444654.46472168,-41227317.810058594,5904458.522796631,5552655.6968688965,1329547.1668243408,-3738706.588745117,-577507.3170661926,-10030323.028564453,-5771369.457244873,-11452219.96307373,-20489208.221435547,6926668.643951416,7418548.107147217,7701169.013977051,-5596673.965454102,-70995.92685699463,-14598951.33972168,-6292420.387268066,-8405690.19317627,-8178703.308105469,483738.9290332794,39120.65178155899,2212160.110473633,-1000426.7692565918,-13582974.433898926,-3215656.280517578,-784097.3734855652,1249987.7214431763,969062.6263618469,586227.6554107666,-3797339.2009735107,-9848100.662231445
0.35,16639781.951904297,-2704461.5745544434,-22535146.713256836,18817684.173583984,-12953166.961669922,38904762.268066406,37684585.57128906,7917434.215545654,22933315.27709961,10573378.562927246,-10127641.677856445,-27528245.92590332,-27048465.728759766,-47579544.06738281,39108860.01586914,19385551.45263672,7878944.873809814,8513523.10180664,2629610.061645508,-10512224.197387695,-10816840.171813965,-22864748.001098633,-38405094.146728516,22459880.828857422,13663401.60369873,11813448.905944824,2834732.2940826416,-13594641.68548584,-11513082.504272461,-7531591.892242432,-21400575.637817383,-40334835.052490234,2156407.356262207,3429327.2495269775,-1168001.5325546265,-4453908.920288086,-893333.9715003967,-8814846.03881836,-4658755.779266357,-10591246.604919434,-21835094.451904297,3101599.931716919,3435013.0558013916,3775408.983230591,-9093177.795410156,-256351.38154029846,-14978164.672851562,-7314067.363739014,-9556430.81665039,-9662735.939025879,-4564187.526702881,-4659948.825836182,-2950749.397277832,-1433869.481086731,-17183021.545410156,-5637872.695922852,-3294561.1476898193,-3961221.218109131,-4151011.4669799805,-3759547.9488372803,-7311280.727386475,-11717928.886413574
0.355,-6266230.10635376,-20311153.411865234,-40764869.689941406,7454862.117767334,-24074712.7532959,30782316.207885742,30796049.118041992,2061495.304107666,18876068.115234375,7018379.688262939,-15062623.977661133,-34175003.05175781,-33648860.931396484,-54468406.677246094,30987058.639526367,13599872.589111328,5429862.976074219,7077230.930328369,1900925.9939193726,-12364350.318908691,-14208731.651306152,-27147138.595581055,-41229763.03100586,19077899.932861328,10295778.274536133,9820969.581604004,2488692.045211792,-13593411.445617676,-12865077.97241211,-10480875.968933105,-23949901.580810547,-42044734.954833984,-1623085.2603912354,866200.32787323,-3738749.0272521973,-4988811.96975708,-1361032.6051712036,-9250556.945800781,-7013816.356658936,-12590958.595275879,-23843511.5814209,280620.42593955994,541121.1848258972,-295055.00197410583,-11412170.41015625,-598299.5629310608,-15350255.966186523,-9940262.794494629,-12140872.00164795,-11458232.879638672,-7086592.197418213,-7940429.6875,-5285010.814666748,-1924320.6977844238,-19709175.10986328,-7812531.9480896,-5014900.207519531,-6347059.24987793,-6400361.061096191,-5723706.7222595215,-8231442.451477051,-11807712.55493164
0.36,-42551990.5090332,-57180019.37866211,-75847381.59179688,-12368940.353393555,-46345443.72558594,18650638.580322266,18868701.934814453,-8512742.99621582,8690698.623657227,-3870314.359664917,-26987060.546875,-47758193.96972656,-47269248.962402344,-66470970.153808594,18650009.155273438,5664034.843444824,-56196.000427007675,1320528.9840698242,-4087819.5762634277,-18889762.87841797,-21995122.9095459,-35522163.39111328,-47416664.123535156,15182010.650634766,7134878.635406494,7500870.704650879,351558.0892562866,-16895460.12878418,-16536874.771118164,-15385277.74810791,-28548910.14099121,-45848922.72949219,-2537673.9501953125,549582.1833610535,-3809885.7402801514,-4920007.228851318,-1539932.9662322998,-11402494.430541992,-10407462.120056152,-15180471.420288086,-25215808.868408203,745303.6308288574,1091102.6000976562,18343.834206461906,-10878547.668457031,-798017.2038078308,-15808030.128479004,-11464612.96081543,-13586364.74609375,-12274365.425109863,-5247588.157653809,-6933109.283447266,-3392436.981201172,-2037433.385848999,-19173404.693603516,-7702742.576599121,-4470532.8941345215,-4501862.049102783,-4411075.115203857,-4300133.228302002,-6520426.273345947,-10371849.060058594
0.365,-72631423.95019531,-94362205.5053711,-109174736.02294922,-28682550.43029785,-65434585.57128906,10523447.036743164,9466077.80456543,-16927268.981933594,237848.38616847992,-13159048.080444336,-36653331.7565918,-58906494.140625,-58477424.62158203,-77312461.85302734,10346296.310424805,1462629.795074463,-4704792.9763793945,-3241446.2566375732,-9343157.768249512,-23910564.422607422,-27530345.916748047,-41416057.58666992,-52727481.842041016,14652755.737304688,7024236.679077148,6849177.360534668,-1641926.7654418945,-19896615.982055664,-19176477.432250977,-17813034.057617188,-30950193.405151367,-48512832.64160156,966963.2315635681,2991388.0825042725,-1890312.4332427979,-4819538.116455078,-1339446.9022750854,-13253768.920898438,-11639921.188354492,-15542320.251464844,-23837020.874023438,4471371.650695801,4809363.36517334,3699043.2739257812,-9289034.843444824,-715379.5957565308,-16032430.648803711,-9980582.237243652,-12112990.379333496,-10081758.499145508,-128701.03120803833,-2301530.599594116,1396375.298500061,-1718092.7991867065,-16213239.669799805,-4640427.112579346,-1319251.8949508667,348237.3654842377,476745.27764320374,-334918.0519580841,-3006262.0639801025,-6003241.539001465
0.37,-93966575.6225586,-121744087.21923828,-132683670.04394531,-38420402.52685547,-76143669.12841797,6603152.275085449,3351587.2955322266,-21519809.72290039,-3391582.0121765137,-16565687.17956543,-40651584.62524414,-65013755.798339844,-64631584.16748047,-85363357.54394531,6362082.481384277,323548.97260665894,-7412803.173065186,-4030422.2106933594,-10437208.17565918,-24816144.943237305,-28856340.408325195,-43516609.19189453,-56046226.501464844,16395462.036132812,8303206.443786621,7192800.998687744,-2118471.622467041,-19753501.892089844,-19293403.62548828,-17317625.045776367,-30788858.41369629,-49121204.3762207,5716070.175170898,5418029.78515625,-634029.0904045105,-4752797.603607178,-1134703.9937973022,-12600656.509399414,-10828208.923339844,-14471644.401550293,-21110870.361328125,8011414.527893066,8091026.306152344,5684349.060058594,-9254877.090454102,-606889.4267082214,-15822709.083557129,-7946634.769439697,-10101099.967956543,-6765730.381011963,4059278.0113220215,1366585.373878479,4794282.43637085,-1489480.3762435913,-14513494.491577148,-1825623.7506866455,1304806.7092895508,3968779.0870666504,3950625.419616699,2440384.864807129,-422781.2588214874,-1068408.9660644531
0.375,-109643867.49267578,-135876724.24316406,-144368881.22558594,-44155117.03491211,-80502380.37109375,2149446.2490081787,-2515990.972518921,-24371061.325073242,-4688524.7230529785,-16736585.61706543,-41672065.73486328,-67668144.22607422,-67349594.11621094,-90166450.50048828,1837409.0194702148,-1774341.344833374,-8982873.916625977,-3116907.3581695557,-9251468.658447266,-23929796.21887207,-28576066.970825195,-44454689.025878906,-58497035.98022461,15922667.503356934,7736710.548400879,7096392.1546936035,-1361899.1374969482,-17561374.66430664,-18085504.53186035,-16392230.987548828,-30402711.868286133,-49404895.7824707,6683601.856231689,5407382.965087891,-1332179.1887283325,-4112493.9918518066,-1226679.801940918,-9913932.800292969,-10241425.514221191,-14545769.691467285,-20594997.40600586,8252030.372619629,8053932.189941406,4122758.8653564453,-10359395.980834961,-770180.1061630249,-15432621.002197266,-8479825.019836426,-10520102.500915527,-6323306.083679199,4314515.590667725,911037.1470451355,4029283.046722412,-1757714.3907546997,-15862887.382507324,-2347505.0926208496,529254.4960975647,3481413.3644104004,3224416.732788086,1374872.9228973389,-837121.9635009766,-634464.7407531738
0.38,-111484687.80517578,-130979324.34082031,-138171646.11816406,-44703319.54956055,-77517509.46044922,-2882055.2825927734,-7232820.510864258,-25621002.197265625,-5881724.834442139,-16665464.401245117,-41144313.81225586,-64929512.02392578,-64695938.11035156,-87435607.91015625,-3311019.1822052,-5135396.0037231445,-9502894.401550293,-3335519.0753936768,-8477689.743041992,-23358301.162719727,-27861932.7545166,-43779514.31274414,-58342391.96777344,11962965.01159668,5156402.111053467,6360058.784484863,-957189.6195411682,-16373935.69946289,-16850259.78088379,-15731625.5569458,-29588104.248046875,-49262226.10473633,2655103.6834716797,3649602.4131774902,-2861778.736114502,-2878081.798553467,-1388598.918914795,-7764679.431915283,-10168559.074401855,-15470122.337341309,-22608339.309692383,5683502.674102783,5523283.004760742,2169776.678085327,-9938551.902770996,-1050209.403038025,-14947453.498840332,-10222436.904907227,-12046662.330627441,-9174663.543701172,1741638.7796401978,-2095503.568649292,966877.2220611572,-2179011.583328247,-17212755.20324707,-4893474.578857422,-2264939.308166504,577288.2699966431,184252.93266773224,-1661537.528038025,-3019811.3918304443,-5643519.401550293
0.385,-92871246.33789062,-108264587.40234375,-114154403.68652344,-38359840.393066406,-65917602.5390625,-4233527.183532715,-7723952.770233154,-24303058.624267578,-6708438.873291016,-16177022.933959961,-38082981.10961914,-55060707.092285156,-54869884.4909668,-75646850.5859375,-4690266.6091918945,-6972217.559814453,-9004096.031188965,-5130461.692810059,-8379262.924194336,-22637708.66394043,-25617923.736572266,-39063438.415527344,-53105163.57421875,7980428.695678711,2745368.003845215,5326761.245727539,-2077885.389328003,-17321151.733398438,-15743849.754333496,-14000061.03515625,-26377618.78967285,-46788387.298583984,-2789633.5124969482,2070022.3445892334,-3799165.4872894287,-1913641.4527893066,-1211209.8932266235,-7568800.449371338,-8847940.444946289,-14704094.886779785,-23730649.948120117,2975243.091583252,3118628.978729248,2528573.513031006,-7070785.5224609375,-995328.6051750183,-13884860.99243164,-9473947.525024414,-11165131.568908691,-11699883.460998535,-721956.729888916,-4249016.284942627,-718158.3642959595,-2076647.9969024658,-15057958.602905273,-5897695.064544678,-3649427.652359009,-1142838.0012512207,-1484434.723854065,-2876182.3177337646,-4032862.663269043,-10952116.012573242
0.39,-72677307.12890625,-90086273.19335938,-94300537.109375,-32788642.88330078,-55534915.924072266,-2705465.793609619,-6623169.422149658,-23381719.5892334,-7714355.945587158,-15775689.125061035,-35192958.83178711,-46130409.240722656,-45899707.79418945,-65173820.49560547,-3028480.052947998,-7414409.160614014,-9405837.059020996,-7542475.700378418,-9056398.391723633,-22142116.54663086,-23534618.377685547,-33743198.39477539,-46858009.338378906,6947980.880737305,1215676.3076782227,3659795.045852661,-4204493.522644043,-19212533.950805664,-15444746.017456055,-11983417.510986328,-22635522.842407227,-43363368.98803711,-5554182.052612305,1069770.2169418335,-3996942.5201416016,-1835031.9862365723,-771362.4835014343,-8327293.395996094,-6342812.061309814,-12323124.885559082,-22047592.163085938,1819183.2304000854,2133217.0963287354,3929797.649383545,-3884520.0538635254,-529629.5881271362,-12056336.402893066,-6228769.302368164,-7948456.764221191,-11318850.51727295,-1588766.8132781982,-4221490.383148193,120352.81956195831,-1384998.9175796509,-10704988.479614258,-4329501.152038574,-2665891.8857574463,-471820.32465934753,-680756.2708854675,-1230093.4791564941,-2679300.7850646973,-11398582.458496094
0.395,-80993400.57373047,-102365661.62109375,-105527069.09179688,-39321109.771728516,-61405559.53979492,-4776722.9080200195,-10279528.617858887,-27442569.732666016,-10824817.657470703,-18257249.83215332,-38384300.231933594,-50266334.533691406,-49972183.22753906,-69534828.18603516,-4929415.225982666,-9560694.694519043,-12517882.347106934,-9889475.82244873,-11703374.862670898,-24180233.001708984,-25880950.927734375,-35616188.049316406,-47941024.78027344,7650652.4085998535,-427588.1052017212,1200007.2002410889,-5794012.546539307,-20810045.24230957,-17277513.50402832,-12781377.792358398,-23285802.841186523,-43694076.53808594,-4871083.2595825195,57407.65482187271,-3929759.2639923096,-2345402.240753174,-605318.7847137451,-8544026.374816895,-5339273.452758789,-11647706.031799316,-19906591.415405273,2034585.952758789,2190332.8895568848,4009128.0937194824,-2857144.355773926,-168471.7833995819,-10294776.916503906,-4398089.408874512,-6191065.788269043,-9405907.63092041,-1097045.1831817627,-2931762.6953125,1837082.7436447144,-802113.2349967957,-8382967.948913574,-2212316.9898986816,-1130942.940711975,1045119.5240020752,902158.9159965515,1140082.7169418335,-360190.39154052734,-7773582.458496094
0.4,-115053672.79052734,-137168609.61914062,-141236557.00683594,-54874679.56542969,-81570022.58300781,-11316032.409667969,-17509460.44921875,-34371547.69897461,-14997913.360595703,-23485441.207885742,-47180461.88354492,-65601875.30517578,-65309730.529785156,-85849967.95654297,-11400736.808776855,-13125082.015991211,-16221786.499023438,-11341313.362121582,-15477334.022521973,-28524372.100830078,-32186622.619628906,-44936637.87841797,-56996879.57763672,7518848.896026611,-1841168.1652069092,-698424.3392944336,-5966457.843780518,-21673534.393310547,-20534837.72277832,-16730651.85546875,-28713050.842285156,-48940368.65234375,-3004802.2270202637,-667275.0115394592,-3702794.313430786,-2793739.080429077,-989328.8612365723,-8029748.916625977,-7283591.747283936,-14413577.07977295,-20600002.28881836,2435926.914215088,2383250.2365112305,2759549.140930176,-4136011.1236572266,-379502.9819011688,-9706105.23223877,-6318321.704864502,-8115076.065063477,-9049151.420593262,-224422.79756069183,-1927212.8343582153,2493131.8759918213,-949756.6223144531,-9572526.931762695,-1689606.5473556519,-973970.9496498108,1546619.7729110718,1386950.0160217285,1879438.877105713,651658.1773757935,-5498947.1435546875
0.405,-133683349.609375,-154204986.57226562,-161148223.87695312,-61371860.50415039,-93705741.88232422,-13280467.03338623,-18370292.66357422,-35835132.59887695,-15523717.880249023,-26109157.56225586,-52260513.30566406,-74912269.59228516,-74664634.70458984,-95223724.36523438,-13375361.442565918,-13077285.766601562,-16138408.660888672,-10706453.323364258,-16875303.268432617,-30830307.006835938,-35648090.36254883,-51505943.298339844,-64001831.0546875,7037296.295166016,-822209.894657135,-268549.0846633911,-5120136.737823486,-21522897.720336914,-22264482.498168945,-19827547.073364258,-33015033.721923828,-54044273.376464844,-2073571.2051391602,-163574.30815696716,-3153546.094894409,-2889225.2445220947,-1559763.1931304932,-7553209.7816467285,-10230361.938476562,-18209032.05871582,-24159938.81225586,1967475.0566482544,1992268.8007354736,1781247.854232788,-5850764.751434326,-927456.6769599915,-10517308.235168457,-10078037.26196289,-11856745.719909668,-11459076.881408691,-214146.09253406525,-2330896.1391448975,1479101.8962860107,-1642690.0625228882,-12031757.354736328,-3108961.1053466797,-2662953.1383514404,491033.673286438,321977.31733322144,464061.08140945435,-657469.8090553284,-7846696.853637695
0.41,-109256713.8671875,-130546737.67089844,-140500183.10546875,-49070663.45214844,-82228645.32470703,-4313254.356384277,-8372736.930847168,-28979930.877685547,-10348669.052124023,-22386819.83947754,-47221565.24658203,-67643157.95898438,-67356628.41796875,-86806762.6953125,-4415282.249450684,-7198216.915130615,-12194553.37524414,-8274963.37890625,-15023615.837097168,-28577428.817749023,-32299613.95263672,-48049743.65234375,-60911361.69433594,8663867.950439453,3158767.2233581543,1957777.3809432983,-4246176.719665527,-20642322.540283203,-21416059.494018555,-19229381.561279297,-32088180.541992188,-54123840.33203125,-2053558.8264465332,1336424.9467849731,-2450603.723526001,-2915122.2705841064,-1764095.1871871948,-7650390.148162842,-11573193.550109863,-19739814.75830078,-27380006.790161133,726868.4506416321,1019024.9681472778,1899218.9168930054,-6293169.021606445,-1116659.8796844482,-11967614.17388916,-12379335.403442383,-14224366.188049316,-14682597.160339355,-1638371.229171753,-3978097.915649414,-402477.7412414551,-2133866.786956787,-13645357.131958008,-4987161.636352539,-4907921.314239502,-1291214.108467102,-1429680.585861206,-1887380.3615570068,-2945562.6010894775,-11929574.966430664
0.415,-64097671.50878906,-88917350.76904297,-99600723.26660156,-29850345.611572266,-57553371.42944336,8019930.839538574,3192569.7326660156,-21388656.616210938,-3381834.030151367,-15335721.015930176,-36909168.2434082,-52832851.40991211,-52388004.302978516,-70151176.45263672,7893342.971801758,-965029.4184684753,-9688601.49383545,-6146614.074707031,-13723560.333251953,-24883749.00817871,-26562656.40258789,-39476333.61816406,-50987243.65234375,11840417.861938477,6898663.9976501465,3090898.7522125244,-3924197.196960449,-20177616.119384766,-20537145.614624023,-17019853.591918945,-28621891.021728516,-50019332.88574219,-2280538.558959961,1989703.0591964722,-2257742.404937744,-3441771.984100342,-1462752.8190612793,-8092002.868652344,-10896207.809448242,-18418361.66381836,-27168586.73095703,-339020.7290649414,48899.151384830475,2494911.6706848145,-5538375.8544921875,-645791.232585907,-13051300.048828125,-11899029.731750488,-13891654.014587402,-15509021.759033203,-3724775.0759124756,-5568910.598754883,-1985783.338546753,-1965931.77318573,-14637337.684631348,-5216235.160827637,-5393439.292907715,-2733094.9306488037,-2867330.551147461,-3645703.3157348633,-3872943.878173828,-12801344.871520996
0.42,-36354644.775390625,-61522853.85131836,-69688636.77978516,-18913352.966308594,-37978157.04345703,10983592.03338623,5548183.917999268,-19613924.026489258,1912500.023841858,-8598329.544067383,-28266054.153442383,-42388004.302978516,-41840702.056884766,-57115066.52832031,10759391.784667969,-875549.5548248291,-11232095.718383789,-4673777.103424072,-14385187.149047852,-22419420.24230957,-22907938.00354004,-32935554.50439453,-40864303.58886719,12103636.741638184,6799418.926239014,1734932.1842193604,-3451949.8348236084,-19933382.034301758,-20804525.37536621,-15649224.281311035,-25833877.563476562,-44716293.33496094,-3862473.0110168457,108585.03729104996,-3225470.3044891357,-4532542.705535889,-951480.0310134888,-7910821.914672852,-8884087.562561035,-15537151.336669922,-23368844.985961914,-1475767.731666565,-1258534.9082946777,2084039.4496917725,-5432835.578918457,25229.591876268387,-13202217.102050781,-9725057.601928711,-11850653.648376465,-13199461.936950684,-5926208.019256592,-6937811.851501465,-3606317.5201416016,-1440683.0072402954,-16083902.359008789,-3576962.2325897217,-3512519.8364257812,-4351108.074188232,-4541605.9494018555,-4938550.4722595215,-3445144.8917388916,-10902715.682983398
0.425,-28892078.399658203,-46680274.963378906,-50284866.33300781,-13838005.065917969,-23949630.737304688,3254201.650619507,1152409.0766906738,-19064022.064208984,7976946.3539123535,147777.87029743195,-19245389.938354492,-32532947.540283203,-32142574.310302734,-43829978.942871094,2921773.4336853027,-5614211.559295654,-11695280.075073242,-797293.7226295471,-11410777.09197998,-17667421.340942383,-17544239.044189453,-25768575.66833496,-30005620.9564209,6523401.737213135,3307363.986968994,519338.54818344116,-1115772.6049423218,-17204362.869262695,-18511440.27709961,-13018501.281738281,-21211706.161499023,-38108879.08935547,-8708712.577819824,-3865606.3079833984,-5126932.621002197,-5086061.954498291,-587271.9883918762,-6097203.731536865,-5558441.638946533,-12016866.683959961,-18801063.537597656,-4643340.110778809,-4595920.562744141,-545550.1675605774,-7621517.181396484,223509.62460041046,-12683016.777038574,-8231911.659240723,-10399637.222290039,-11142939.567565918,-9490262.985229492,-10139986.038208008,-7277533.054351807,-1246741.533279419,-18259029.388427734,-3112385.5113983154,-2417088.9854431152,-8196986.198425293,-8422384.262084961,-7798735.618591309,-4855100.631713867,-12313036.918640137
0.43,-20101156.23474121,-26659498.21472168,-25945278.16772461,-4933992.862701416,-6742789.745330811,-5578984.260559082,-684793.9491271973,-13062481.880187988,16848640.44189453,12715845.108032227,-5915772.914886475,-15267855.644226074,-15218466.758728027,-23392917.63305664,-5913186.550140381,-8835464.477539062,-6160868.167877197,6701928.615570068,-954982.9363822937,-7542244.911193848,-6142740.249633789,-12879199.028015137,-15978466.033935547,-1905571.699142456,58801.25239491463,2516827.344894409,3378818.988800049,-10941124.91607666,-10922483.444213867,-6640080.451965332,-11982656.478881836,-29432760.23864746,-15650353.43170166,-7363491.535186768,-6663406.848907471,-3862540.4834747314,-544153.4519195557,-3121463.2987976074,-1476702.9285430908,-8509071.350097656,-16371887.20703125,-10039794.921875,-9960910.79711914,-4442652.702331543,-11075984.001159668,-187768.29540729523,-12443391.799926758,-9096639.633178711,-11191365.242004395,-12753863.334655762,-14924702.644348145,-15786621.09375,-13109925.270080566,-1674114.465713501,-20335424.423217773,-6406462.1925354,-5237853.527069092,-14174839.01977539,-14331143.379211426,-12779709.815979004,-9694601.058959961,-19577331.54296875
0.435,-11187717.43774414,-11043852.806091309,-7927156.925201416,2414238.691329956,6575611.114501953,-10233516.693115234,-314854.4728755951,-6720303.058624268,22449542.999267578,21595350.26550293,4728562.831878662,576675.295829773,428319.2455768585,-5948617.935180664,-10484773.635864258,-9064352.989196777,410886.7049217224,12445933.34197998,9480400.085449219,1694302.5588989258,4637078.285217285,-569386.899471283,-4603243.827819824,-7317850.112915039,-952418.6253547668,6019549.84664917,6972438.335418701,-5750094.413757324,-3071896.3146209717,-191171.42260074615,-2872970.3426361084,-21759309.768676758,-19747125.62561035,-7894253.730773926,-6705181.121826172,-1545297.8610992432,-773961.9016647339,-1278650.9990692139,992170.2146530151,-6134793.758392334,-15760055.541992188,-13522684.097290039,-13346971.51184082,-6286022.663116455,-12580134.391784668,-729323.148727417,-13133065.223693848,-11112010.955810547,-13023455.619812012,-15868158.340454102,-18634752.27355957,-19636016.845703125,-16634534.83581543,-2276768.445968628,-20509817.123413086,-10516727.447509766,-9208993.911743164,-17607122.42126465,-17655221.939086914,-16078598.022460938,-13722986.221313477,-25724105.834960938
0.44,-26217794.41833496,-26867900.848388672,-23400405.883789062,-6127424.716949463,-867258.0122947693,-14981507.301330566,-6534110.069274902,-10953729.629516602,17279027.938842773,17495018.005371094,1555593.729019165,-1994219.5415496826,-2036956.0718536377,-8020172.119140625,-15212242.126464844,-10875071.52557373,-1282603.7406921387,10106965.065002441,8907702.445983887,729390.1443481445,3796756.7443847656,-547557.7116012573,-4222515.58303833,-7364283.084869385,-1084336.4000320435,6199978.828430176,6059000.492095947,-7165858.268737793,-2605953.2165527344,79165.0116443634,-1212296.962738037,-18898675.9185791,-17386167.526245117,-5385964.393615723,-5733143.8064575195,-550884.1276168823,-1030243.992805481,-2191569.3283081055,78492.03050136566,-5274912.357330322,-13714862.823486328,-10741339.683532715,-10638068.199157715,-4034782.4096679688,-10824713.706970215,-888880.5508613586,-14177874.565124512,-10896776.19934082,-12572032.928466797,-14521329.879760742,-15851732.25402832,-16732601.165771484,-13134660.720825195,-2396242.141723633,-17152801.513671875,-9356700.897216797,-7821147.441864014,-13865154.266357422,-13902101.516723633,-13138734.817504883,-11191288.948059082,-22182605.743408203
0.445,-65052413.94042969,-68990928.64990234,-66041763.30566406,-27609516.143798828,-25373332.977294922,-22396608.352661133,-19445463.180541992,-24138530.731201172,5457578.182220459,4795603.7521362305,-11943613.052368164,-20198715.209960938,-20079757.690429688,-24951354.98046875,-22713558.197021484,-15792156.219482422,-10437132.835388184,2310275.7930755615,-713787.5556945801,-8159020.42388916,-6606785.774230957,-10971647.262573242,-11283573.150634766,-4413680.553436279,-1576123.1184005737,2443730.115890503,1858353.1379699707,-13037900.924682617,-8383771.896362305,-4911100.8644104,-5615323.066711426,-19011226.654052734,-10695651.054382324,-1959751.7251968384,-5136561.870574951,-1811323.881149292,-1035256.9818496704,-4342117.3095703125,-2490745.0675964355,-4597683.906555176,-8401036.262512207,-3416340.8279418945,-3576235.055923462,-181608.61730575562,-8761264.80102539,-632934.9875450134,-14516068.458557129,-7421996.593475342,-8916119.575500488,-7472862.243652344,-7493227.005004883,-8765631.675720215,-4621822.834014893,-1948387.5036239624,-11346955.299377441,-2354118.585586548,-252580.1658630371,-5239943.981170654,-5369864.463806152,-5367317.676544189,-3183555.6030273438,-10911273.956298828
0.45,-93922355.65185547,-98351844.78759766,-95378677.36816406,-41642440.79589844,-41816097.259521484,-27044536.590576172,-27463649.74975586,-32247505.18798828,-526012.122631073,-1784700.7513046265,-19467905.044555664,-31990774.154663086,-31958311.080932617,-34073661.80419922,-27406801.223754883,-18776309.967041016,-15970803.260803223,-1472412.347793579,-6034843.444824219,-12552641.868591309,-12438942.909240723,-16944393.157958984,-13279685.020446777,-1340544.581413269,-1238415.9564971924,-126977.02646255493,-140887.051820755,-15257139.205932617,-11325871.467590332,-7468542.098999023,-7392174.243927002,-16967876.434326172,-4905335.903167725,464022.8748321533,-5221699.7146606445,-3229166.5077209473,-771437.3469352722,-4872797.012329102,-3392145.6336975098,-2916228.0559539795,-2342446.0887908936,2056277.0366668701,1607371.44947052,1041991.9490814209,-9861692.428588867,-320381.19435310364,-14181746.482849121,-4089818.4776306152,-5525214.195251465,-926651.5374183655,-232195.31774520874,-2880590.6772613525,1605650.782585144,-1467372.179031372,-7026245.1171875,3796537.8761291504,6387392.044067383,898798.4657287598,704426.2886047363,561015.3675079346,3013392.686843872,-2366879.2247772217
0.455,-93711082.4584961,-96656982.421875,-92698448.18115234,-39742931.3659668,-38716266.63208008,-25235137.939453125,-24983938.217163086,-29380208.96911621,2671295.8812713623,2189057.8269958496,-15119270.324707031,-27747543.334960938,-27935487.747192383,-27325727.462768555,-25482242.584228516,-16665388.107299805,-12765001.29699707,1798683.0472946167,-1809030.0559997559,-7888140.678405762,-8040569.305419922,-12315995.216369629,-7195625.782012939,875690.9966468811,675002.5153160095,1534324.7652053833,2246912.0025634766,-11428851.127624512,-7835390.090942383,-4388169.288635254,-3550274.8489379883,-12669038.772583008,-2510514.736175537,1573660.0160598755,-5108239.17388916,-2809860.944747925,-517042.5772666931,-3682862.7586364746,-1990458.8460922241,-1009120.9411621094,584142.2080993652,2578257.0838928223,1979605.5555343628,-675195.6939697266,-12926453.590393066,-222821.04194164276,-13986971.855163574,-3753217.2203063965,-5201865.196228027,-14379.43521887064,1658683.4192276,-2412917.8524017334,2271825.3135681152,-1341154.69455719,-6439355.850219727,4592311.382293701,7101429.9392700195,1524478.554725647,1339931.9648742676,1314541.3398742676,3856940.984725952,-1265110.2542877197
0.46,-87497238.15917969,-90636116.02783203,-85632156.37207031,-37317775.72631836,-34110790.25268555,-23394754.40979004,-22126483.917236328,-26615724.563598633,4262463.092803955,4453662.872314453,-11997903.823852539,-23614906.311035156,-23766710.28137207,-22458053.588867188,-23479314.80407715,-14607510.566711426,-9609753.608703613,4017690.658569336,1392038.106918335,-4459662.914276123,-4657858.848571777,-8679267.883300781,-4356790.065765381,1311525.2256393433,1587072.730064392,3048282.1464538574,4184406.7573547363,-8929942.13104248,-5272899.150848389,-1670317.1730041504,-942811.0122680664,-11608443.260192871,-2377760.887145996,1648453.5932540894,-4686835.765838623,-1915198.3261108398,-500392.3177719116,-3656332.9696655273,-615822.1960067749,-224694.83315944672,92015.52718877792,1373055.2196502686,854962.2893333435,-1653460.6218338013,-13350420.951843262,-269144.0284252167,-13662184.715270996,-3771857.0232391357,-5220296.859741211,-1522569.179534912,976582.407951355,-3211303.7109375,1774197.4592208862,-1331815.0043487549,-6765151.9775390625,4242870.330810547,6188739.776611328,1234355.2112579346,1000404.1194915771,926844.596862793,3887900.3524780273,-1324604.0344238281
0.465,-102006233.21533203,-107007514.95361328,-101962768.5546875,-48347000.12207031,-45735050.201416016,-29255174.63684082,-29640146.255493164,-34521507.263183594,-4076522.3503112793,-4743247.985839844,-21279319.763183594,-34727355.95703125,-34523448.9440918,-34406162.26196289,-29335826.873779297,-18934770.584106445,-15708950.04272461,-1900401.1154174805,-6086230.278015137,-11434160.232543945,-12550997.734069824,-16577903.747558594,-12692077.63671875,-1482594.8476791382,-1421694.278717041,-975407.7792167664,785787.2247695923,-13877066.612243652,-10369874.000549316,-4962316.513061523,-4979500.293731689,-16033435.821533203,-3440320.2533721924,466180.80139160156,-5210977.077484131,-3181948.184967041,-643251.359462738,-6322186.9468688965,-833739.161491394,-341349.2143154144,-761616.1108016968,2043238.639831543,1808666.5868759155,-11669.134721159935,-9646181.106567383,-254473.80542755127,-11924925.804138184,-82950.8900642395,-1520555.9730529785,475653.737783432,2109462.9764556885,-940492.7492141724,4647246.360778809,-1068822.741508484,-3983741.283416748,8426383.972167969,9769280.433654785,4406629.0855407715,3972752.809524536,4020080.089569092,7721368.312835693,3523046.4935302734
0.47,-126812988.28125,-132164535.52246094,-127929779.05273438,-64010581.970214844,-63621864.318847656,-39662227.630615234,-42738735.19897461,-47147602.08129883,-15612173.080444336,-17618541.717529297,-34785499.572753906,-51449390.41137695,-50977100.37231445,-52388717.65136719,-39889648.4375,-27365505.21850586,-26648267.74597168,-11289974.212646484,-18057407.37915039,-22745532.989501953,-24954347.610473633,-28995887.756347656,-24301897.048950195,-6665059.566497803,-6945649.62387085,-8237804.412841797,-5253448.963165283,-21623731.61315918,-18776180.267333984,-11026784.896850586,-11394160.270690918,-21037925.720214844,-6011531.829833984,-1947561.9792938232,-7338079.452514648,-6179419.51751709,-757531.464099884,-9480758.666992188,-1861171.9608306885,-635237.6341819763,-431675.2254962921,3431196.451187134,3461641.0732269287,1717630.386352539,-5638885.974884033,-152110.5021238327,-8977266.311645508,5140492.4392700195,3659729.9575805664,4777032.852172852,4503603.935241699,2445326.089859009,8757498.741149902,-723745.6440925598,761653.2444953918,14466684.341430664,15414516.44897461,8623009.68170166,7987513.542175293,8853911.399841309,12558140.754699707,9704848.289489746
0.475,-133557510.37597656,-137157791.1376953,-133477432.25097656,-67773239.13574219,-67178390.50292969,-44692195.892333984,-48599437.71362305,-51790752.41088867,-18974985.122680664,-20960075.37841797,-37995967.864990234,-55186748.50463867,-54830291.748046875,-57251010.89477539,-44988948.822021484,-31969371.795654297,-31251768.112182617,-14690776.824951172,-22134952.545166016,-26491401.67236328,-28629331.588745117,-32604640.96069336,-27460933.685302734,-10438810.348510742,-10574149.131774902,-11536090.850830078,-7337925.910949707,-23526456.832885742,-21737634.658813477,-13260089.874267578,-13527237.892150879,-21815208.435058594,-9442215.919494629,-4409061.908721924,-9781420.707702637,-7765965.461730957,-824885.0107192993,-10289293.28918457,-2797313.451766968,-1907134.2945098877,-820522.2487449646,2691161.3941192627,2668935.775756836,921581.1491012573,-5008131.504058838,-92261.35164499283,-7212269.306182861,5262814.044952393,3678349.733352661,4771070.0035095215,4749689.102172852,2678920.9842681885,9393177.032470703,-768278.4795761108,2212181.806564331,14895002.365112305,15724667.5491333,9175008.773803711,8551840.782165527,10572484.970092773,12851521.492004395,10539639.472961426
0.48,-118289810.18066406,-121052673.33984375,-117240043.64013672,-59653491.97387695,-55981090.5456543,-41384510.0402832,-44284030.91430664,-47183166.50390625,-14064519.882202148,-14882811.546325684,-31195482.25402832,-46006916.04614258,-45911998.7487793,-48963851.92871094,-41554107.666015625,-30062744.140625,-27481668.47229004,-11005629.539489746,-17339086.532592773,-21862688.064575195,-22988521.575927734,-27219850.540161133,-23083263.397216797,-10389153.480529785,-10522068.02368164,-8785217.28515625,-4326489.448547363,-19147804.260253906,-18445251.46484375,-11354690.551757812,-12000298.500061035,-20124099.731445312,-11594167.709350586,-5500637.054443359,-10760753.631591797,-6551954.746246338,-893758.1777572632,-8868474.006652832,-3946657.419204712,-5067982.6736450195,-3670291.1853790283,428196.60902023315,-2431.2937166541815,-1065893.4116363525,-6439621.448516846,-97982.54817724228,-8078564.643859863,-895938.2772445679,-2572741.746902466,-1045280.0989151001,2558081.62689209,115101.38213634491,6698091.983795166,-1176658.1535339355,-1494533.7772369385,8907867.431640625,9999806.40411377,6468782.901763916,6035837.173461914,8489183.42590332,8905458.450317383,6721741.199493408
0.485,-103371978.75976562,-107710708.61816406,-103971305.84716797,-52975574.4934082,-47410518.646240234,-36473285.67504883,-38425167.083740234,-42624553.68041992,-9682540.893554688,-9857379.913330078,-26397430.419921875,-40041801.45263672,-39967384.338378906,-43479183.197021484,-36490806.579589844,-26695030.212402344,-23262426.376342773,-7128378.868103027,-12906366.348266602,-17883401.87072754,-18655288.696289062,-23847496.032714844,-21245199.20349121,-8506653.785705566,-9142146.110534668,-5059139.728546143,-1275840.0440216064,-15407715.797424316,-15330199.241638184,-10176471.710205078,-11958104.133605957,-20436094.284057617,-11432024.955749512,-5027668.476104736,-10102931.97631836,-4548707.008361816,-851974.5469093323,-7382569.789886475,-5336021.423339844,-8465165.138244629,-7334098.815917969,-303184.03244018555,-1176465.630531311,-1317932.6057434082,-6333892.345428467,-19358.31643640995,-9719506.26373291,-6379250.526428223,-8077173.233032227,-6320939.540863037,1025277.7338027954,-1192701.2205123901,4868276.119232178,-1354723.6919403076,-5959162.23526001,3886668.4436798096,5547904.014587402,4795381.546020508,4469690.799713135,6239691.257476807,5994161.605834961,4349278.450012207
0.49,-106712821.96044922,-112376861.57226562,-109589859.00878906,-54913761.138916016,-51287769.31762695,-36351482.39135742,-38200214.38598633,-43651912.689208984,-10190908.432006836,-10592555.046081543,-28858375.549316406,-45625125.885009766,-45382083.892822266,-49316493.98803711,-36403938.29345703,-26780929.565429688,-24031208.038330078,-7216559.410095215,-13704216.003417969,-19180673.599243164,-21049272.537231445,-27835577.0111084,-26086032.86743164,-7908721.446990967,-8889642.715454102,-4831150.531768799,-1626198.172569275,-15922873.497009277,-15880796.432495117,-11665454.864501953,-14591864.585876465,-23172666.549682617,-10117674.827575684,-3937201.976776123,-9184938.430786133,-4009678.363800049,-578408.420085907,-6889585.018157959,-5973931.312561035,-9295114.517211914,-8795838.356018066,1314803.0042648315,278538.7933254242,298236.07206344604,-4253540.0390625,210530.5790901184,-9389359.474182129,-5470234.394073486,-7124161.720275879,-5782846.927642822,1864791.6316986084,384817.57044792175,5678275.585174561,-983826.8160820007,-6485188.961029053,5100850.582122803,7149574.279785156,5708890.438079834,5270968.914031982,6137523.174285889,6637065.410614014,5567799.091339111
0.495,-124355972.29003906,-128575363.15917969,-126716987.60986328,-61169467.92602539,-60894760.13183594,-39737678.52783203,-41951324.462890625,-47167922.97363281,-12430065.155029297,-12761687.278747559,-32776317.596435547,-55101585.388183594,-54860374.450683594,-59399406.43310547,-39948184.967041016,-29285385.131835938,-27237192.153930664,-9009092.330932617,-16076023.10180664,-21907728.19519043,-25257663.72680664,-33661163.330078125,-32005092.62084961,-8325842.85736084,-9450851.440429688,-7022069.931030273,-3580083.8470458984,-17719463.348388672,-17616714.477539062,-13228860.855102539,-16774230.95703125,-25254940.032958984,-8963606.834411621,-3162167.0722961426,-9227193.832397461,-4793481.826782227,-280736.89341545105,-6709076.404571533,-5481550.693511963,-7644643.783569336,-7601624.488830566,2976819.2768096924,2031949.2816925049,1458296.0605621338,-2908423.1853485107,367455.45268058777,-7312440.395355225,-1190064.549446106,-2756394.624710083,-1978898.286819458,3383520.6031799316,2419972.1813201904,6736513.614654541,-557305.0379753113,-4028424.7398376465,9342165.94696045,11057356.834411621,6626725.196838379,6014816.2841796875,6897067.546844482,8148078.918457031,6895403.3851623535
