time,Fp1,Fpz,Fp2,AF3,AF4,F7,F5,F3,F1,Fz,F2,F4,F6,F8,FT7,FC5,FC3,FC1,FCz,FC2,FC4,FC6,FT8,T7,C5,C3,C1,Cz,C2,C4,C6,T8,TP7,CP5,CP3,CP1,CPz,CP2,CP4,CP6,TP8,P7,P5,P3,P1,Pz,P2,P4,P6,P8,PO7,PO5,PO3,POz,PO4,PO6,PO8,CB1,O1,Oz,O2,CB2
0.0,21386285.78186035,20826993.942260742,20634366.989135742,9351237.297058105,9331197.738647461,7709515.09475708,8239998.817443848,6182962.894439697,4353993.892669678,5337205.410003662,2833985.5670928955,8610026.359558105,8251421.928405762,7704714.298248291,7637736.3204956055,4786328.7925720215,2580016.1361694336,2618298.7689971924,2589983.4632873535,1871589.183807373,3291925.4302978516,4985532.760620117,5996183.395385742,3357004.165649414,2851006.9847106934,2384563.684463501,1423387.885093689,1759683.1321716309,2675635.576248169,1274920.94039917,2785090.684890747,860268.8312530518,1727522.373199463,2412610.7692718506,1525305.0327301025,403394.34146881104,86491.59967899323,-291936.0101222992,1221829.6527862549,717395.8420753479,-2442569.4942474365,318855.345249176,517991.24479293823,912677.9437065125,-1960.6093410402536,-7183.85074287653,-1831809.7591400146,-483947.66449928284,-471145.3318595886,1566385.7460021973,-745716.92943573,-644083.1422805786,-782969.4151878357,-14017.077162861824,-560076.8327713013,328917.7417755127,446685.4929924011,-527399.0035057068,-530206.3822746277,620887.279510498,-249289.8404598236,170432.09075927734
0.005,11319332.122802734,7057693.004608154,11632692.337036133,12976236.343383789,10151180.267333984,7481636.524200439,11459670.066833496,15618946.075439453,14508526.802062988,12856383.323669434,8127175.331115723,12187323.570251465,11648715.97290039,9193983.07800293,7403861.045837402,13009850.50201416,10564160.346984863,14721134.185791016,13181839.942932129,10867555.618286133,11949987.411499023,10232955.932617188,7395778.656005859,6693377.494812012,12760475.158691406,12930365.562438965,11218405.723571777,6175834.178924561,7839424.133300781,6218557.357788086,7863660.3355407715,-6362080.097198486,7487776.756286621,14130083.084106445,8077289.581298828,4918443.202972412,895202.0406723022,-1997338.4141921997,5922976.970672607,8032029.151916504,-9009275.436401367,4298488.140106201,5329999.923706055,7692759.5138549805,3457121.1338043213,256198.7042427063,-11224557.876586914,-2310077.19039917,-1405038.3567810059,9148092.269897461,121996.03766202927,1560880.184173584,-529250.1449584961,27139.419689774513,-6452223.300933838,39100.09562969208,730200.1118659973,729621.5891838074,1139396.4290618896,6539552.688598633,577370.5840110779,8149041.175842285
0.01,7402708.053588867,1996741.4140701294,6737980.842590332,13320116.04309082,8772141.456604004,10176255.226135254,14196396.827697754,19305755.615234375,17921758.6517334,14576293.9453125,7896074.7718811035,14652503.967285156,13142128.944396973,8732080.459594727,10129233.360290527,17832134.246826172,14076668.739318848,19417400.360107422,15950371.742248535,12791371.34552002,13481911.659240723,11665001.86920166,8998394.012451172,10060096.740722656,18050582.885742188,17510656.356811523,15334187.507629395,7509600.639343262,8831009.864807129,5762957.0960998535,8957562.446594238,-9913925.170898438,10207466.125488281,18514059.06677246,11056264.877319336,7224207.401275635,1096336.6031646729,-3240318.2983398438,6564334.869384766,9091926.574707031,-13513262.748718262,5516749.858856201,7020225.048065186,10515062.33215332,4566330.432891846,148650.1395702362,-15627278.327941895,-3724990.8447265625,-2557205.6770324707,12231804.847717285,-803040.5044555664,1500209.5699310303,-2057466.5069580078,-163119.64392662048,-9261105.53741455,395101.72605514526,1070001.1253356934,-368746.19126319885,64560.16004085541,8900025.367736816,-290444.19527053833,9385929.107666016
0.015,4233605.38482666,-151791.5427684784,2535875.7972717285,8771155.35736084,3610857.7251434326,13245580.673217773,14492175.102233887,16240518.569946289,13976797.103881836,9782553.672790527,2528421.16355896,13062891.006469727,10458720.207214355,6334742.069244385,13231296.53930664,18069818.4967041,12255185.1272583,16350545.883178711,11239283.561706543,8048788.070678711,8316198.348999023,8660334.587097168,9438372.611999512,11760519.981384277,17663276.67236328,15583596.229553223,13312239.646911621,5370232.582092285,5380631.446838379,983765.6021118164,5964715.480804443,-9832386.016845703,9700810.432434082,15991100.311279297,10195865.631103516,6922875.40435791,894318.1037902832,-3865285.1581573486,3619207.1437835693,5189253.330230713,-14223798.751831055,4523731.708526611,6128427.028656006,9132432.93762207,3673640.727996826,-96921.83881998062,-14860479.354858398,-4220306.873321533,-3293367.624282837,10889802.932739258,-2095455.4080963135,205088.39190006256,-3495582.103729248,-403175.35400390625,-8092818.260192871,1496882.7962875366,1654089.9276733398,-1908870.4586029053,-1781139.612197876,9035886.764526367,-1552832.6034545898,6175620.555877686
0.02,-3485093.593597412,-6893937.587738037,-3594069.242477417,2589500.1888275146,-2290513.753890991,12631320.95336914,11743389.129638672,10948614.120483398,8439023.0178833,3369314.9089813232,-1866934.6570968628,7416905.403137207,4838110.92376709,4134164.810180664,12606677.055358887,15599964.141845703,8430647.850036621,11394173.622131348,5774641.036987305,3161255.359649658,3281919.240951538,4568727.493286133,7958617.687225342,10391976.356506348,14340735.43548584,11551773.071289062,9445803.64227295,2136477.23197937,811726.6893386841,-2166518.211364746,2615266.799926758,-8257729.530334473,8056701.66015625,12551372.528076172,7975291.728973389,5442990.303039551,853227.972984314,-3658986.5684509277,1159205.5559158325,2962047.338485718,-11272486.686706543,3557835.817337036,5092051.982879639,6421464.920043945,2788544.178009033,-31913.73124718666,-12048198.699951172,-3471608.4003448486,-2722266.912460327,8409754.753112793,-1588421.7023849487,64909.54011678696,-2264080.762863159,-373722.5532531738,-4849377.155303955,2484354.4960021973,2207322.835922241,-895956.2182426453,-1015247.2257614136,9907468.795776367,-1204384.207725525,5058774.471282959
0.025,-6816195.964813232,-9978677.749633789,-4207088.947296143,1739128.4704208374,-1502808.4516525269,9501256.942749023,9020303.726196289,9000275.611877441,7367845.058441162,1026428.5802841187,77633.38088989258,3689080.7151794434,2235146.7609405518,4131569.8623657227,9450559.616088867,13539889.335632324,6769256.591796875,9670662.879943848,4266717.433929443,2905741.2147521973,3570406.436920166,3504149.6753692627,6335317.134857178,7265999.794006348,11530079.84161377,9497219.08569336,7740429.401397705,392708.0035209656,-1758104.8011779785,-345203.9659023285,2267932.415008545,-6335250.377655029,6671274.185180664,11514745.712280273,6461666.584014893,4450240.612030029,999072.9689598083,-2423579.454421997,1677020.6689834595,5482062.816619873,-7445706.844329834,2960063.4574890137,4336341.381072998,4757511.615753174,2741668.939590454,283981.2636375427,-9187948.226928711,-2028471.7082977295,-1191984.4150543213,6570860.385894775,-441035.27069091797,873466.6109085083,146806.2400817871,-123646.43812179565,-2667837.619781494,2002371.7880249023,1741490.125656128,1366987.2283935547,1289767.5037384033,10414007.186889648,-284770.2205181122,6458325.386047363
0.03,6658400.058746338,4519962.310791016,9675880.432128906,9508694.648742676,9201290.130615234,8991891.860961914,10062159.538269043,11896986.961364746,11449329.376220703,4167730.8082580566,7332926.273345947,7198665.142059326,6715610.980987549,6084402.084350586,8961249.351501465,13491948.127746582,8450675.010681152,11362979.888916016,5802330.017089844,6108739.852905273,7830637.9318237305,5997878.551483154,6508188.724517822,5035778.999328613,10560226.440429688,9808537.483215332,8620729.446411133,760246.0980415344,-1957165.8372879028,3469273.090362549,4180264.472961426,-4888813.018798828,5049901.008605957,10880273.818969727,5888659.954071045,4574270.248413086,964283.287525177,-772296.3690757751,3240085.1249694824,8439394.9508667,-6261670.112609863,1372195.0054168701,2500229.597091675,4133280.2772521973,2691843.9865112305,422906.0709476471,-6635754.585266113,-1551400.5422592163,-630168.080329895,4329550.743103027,-1836363.5540008545,123248.04812669754,-308774.2030620575,39687.99114227295,-3429816.961288452,-463953.31621170044,-420065.4923915863,766072.5712776184,891633.0933570862,7135027.4085998535,-1693321.3472366333,5145081.043243408
0.035,33566665.64941406,34154811.85913086,34673946.380615234,21725278.854370117,23705373.764038086,13647567.749023438,15467079.162597656,17519971.84753418,17386741.638183594,10377455.711364746,14534809.112548828,15662251.472473145,15176969.528198242,8634971.618652344,13693378.448486328,15443516.731262207,11874736.785888672,14514319.41986084,8259934.425354004,9461096.76361084,11829057.693481445,9173866.271972656,7858811.378479004,4939121.723175049,11065938.949584961,11125286.102294922,10542874.336242676,2527701.3778686523,-783584.9523544312,4637562.7517700195,4957213.401794434,-5949649.333953857,2791864.1567230225,8742953.300476074,6084864.139556885,5589757.442474365,810668.8261032104,127730.8315038681,2613594.7704315186,6367582.79800415,-9150353.43170166,-1127023.9353179932,-185028.89573574066,3686960.458755493,1978848.5765457153,326279.4017791748,-5673388.0043029785,-3585944.414138794,-2772325.277328491,808840.9304618835,-6171032.905578613,-3105324.9835968018,-4530452.728271484,71035.2286696434,-6554989.337921143,-3940455.436706543,-3675301.0749816895,-3534674.4060516357,-3273654.9377441406,763142.1089172363,-5873220.920562744,-340194.0166950226
0.04,57097480.77392578,60585334.77783203,56819175.720214844,31732198.71520996,33186176.300048828,20781682.96813965,22812288.284301758,23906435.012817383,22848760.6048584,17093507.766723633,18326089.85900879,22651815.41442871,21572673.797607422,11259061.813354492,20915447.235107422,19157598.4954834,15483321.189880371,18652107.23876953,11936203.956604004,12240214.347839355,14179727.554321289,10953237.533569336,8574515.342712402,6455421.924591064,12660460.472106934,13188815.116882324,12673241.61529541,5213541.030883789,1536503.1957626343,3047190.9046173096,3237282.0377349854,-10456564.903259277,1088005.542755127,7180447.578430176,7374202.251434326,7039942.741394043,1010116.5771484375,176547.87003993988,-1595.48653755337,258455.39569854736,-14722872.734069824,-2705339.4317626953,-1636761.0692977905,3448752.8800964355,1031013.1311416626,384216.0701751709,-8018301.963806152,-7601870.536804199,-6975412.368774414,-2735595.703125,-10427714.347839355,-6893979.549407959,-9173578.262329102,219550.9970188141,-9963133.811950684,-6979745.864868164,-6795730.113983154,-8012359.619140625,-7732797.145843506,-3578533.64944458,-10161026.954650879,-5048227.787017822
0.045,65099945.068359375,69544036.86523438,64897918.701171875,35948753.356933594,34668025.970458984,25412752.151489258,28534360.885620117,29588153.839111328,27111663.818359375,22444486.618041992,19187656.40258789,25332284.927368164,23741020.20263672,13281000.137329102,25591905.59387207,23442668.914794922,18402740.478515625,23408952.713012695,16775264.739990234,15098902.702331543,16056510.925292969,11883173.942565918,8251567.840576172,8543488.502502441,14804364.204406738,15997573.852539062,14647897.720336914,8316288.948059082,4927642.822265625,2331782.341003418,1267132.28225708,-15460996.627807617,1187949.299812317,8662962.913513184,9283241.271972656,8192399.024963379,1565279.0069580078,634581.7446708679,-1159256.100654602,-3657259.225845337,-19982591.62902832,-2759622.097015381,-1238687.8728866577,3721071.243286133,262469.5301055908,722067.4157142639,-12490904.808044434,-10789966.583251953,-10312332.153320312,-4390160.56060791,-12399884.223937988,-9345006.942749023,-11330791.473388672,497588.6046886444,-11890979.766845703,-8827822.6852417,-9008479.118347168,-9837387.084960938,-9582077.026367188,-2957719.087600708,-12254915.237426758,-5106597.900390625
0.05,56459674.83520508,59952468.87207031,56376255.03540039,32958782.196044922,29720911.026000977,23751594.54345703,28694938.65966797,31172861.099243164,28022388.458251953,23689353.942871094,17724897.384643555,24583791.732788086,22695178.985595703,11913763.046264648,23883117.67578125,24707321.166992188,18953584.671020508,25917072.296142578,19410335.540771484,16563041.687011719,17052719.116210938,12317358.97064209,7321933.269500732,9820574.760437012,15801204.681396484,17701225.28076172,15204415.321350098,10276002.883911133,7787215.709686279,4026359.0812683105,1419556.975364685,-16582529.067993164,2409860.372543335,11410980.224609375,9931469.917297363,8087759.971618652,1816178.321838379,1996168.851852417,1041061.1629486084,-1882844.8057174683,-21786272.048950195,-2816051.0063171387,-849042.6540374756,3869065.999984741,-626586.3180160522,914883.1963539124,-15374372.482299805,-10752570.152282715,-10403530.12084961,-3627085.2088928223,-12857266.426086426,-10548551.559448242,-11433256.149291992,533814.013004303,-11996133.804321289,-9341645.240783691,-9907049.179077148,-9744658.470153809,-9538701.057434082,64887.58325576782,-12085045.81451416,-2409792.423248291
0.055,35985881.80541992,38525604.248046875,35866123.19946289,22850412.368774414,19911928.176879883,15984162.330627441,21766141.891479492,25851408.004760742,23315834.045410156,19196346.282958984,13214445.114135742,20845674.514770508,18761890.411376953,5204339.981079102,15956085.205078125,20177057.26623535,15768716.812133789,23519515.991210938,16914464.950561523,14470280.647277832,15241467.475891113,10978679.656982422,5778245.449066162,9043521.881103516,14256389.617919922,16314996.719360352,13406187.057495117,9710398.67401123,8196352.958679199,5620185.852050781,3068495.750427246,-13128719.329833984,3297393.560409546,11779569.625854492,8360651.969909668,6618479.7286987305,1398427.7248382568,2748383.7604522705,4387440.204620361,2522889.1372680664,-18723476.40991211,-3545489.549636841,-1497966.7663574219,3207016.944885254,-1703659.8920822144,642566.5020942688,-15392142.295837402,-8298563.003540039,-7997599.124908447,-1239541.5306091309,-12854006.76727295,-10927656.173706055,-10878513.33618164,148219.48111057281,-11308363.914489746,-8497955.322265625,-9028108.596801758,-9205677.98614502,-9089753.150939941,2018389.7018432617,-10264356.61315918,97631.64073228836
0.06,13910911.560058594,16578302.383422852,14698550.2243042,10926198.959350586,8611360.549926758,7736680.507659912,12646762.84790039,17331089.01977539,15767765.998840332,12405345.916748047,6843992.233276367,14984987.258911133,12884202.95715332,-3089345.4551696777,7522538.661956787,13230176.92565918,11047608.375549316,18542026.51977539,11951901.43585205,10256422.996520996,11321120.262145996,7948163.986206055,4357218.265533447,7113679.4090271,11775411.605834961,13384700.775146484,10876141.548156738,7750816.345214844,6749090.671539307,4851958.274841309,4153412.8189086914,-8559602.737426758,4184447.765350342,10094650.268554688,6621003.150939941,5310160.160064697,875066.6379928589,1474428.653717041,5692307.949066162,4696587.085723877,-13053590.774536133,-3067005.6343078613,-1329640.8653259277,2666934.2517852783,-2143729.2098999023,232717.23091602325,-15565806.38885498,-6524201.393127441,-6039986.133575439,1685048.1033325195,-11598765.37322998,-9698537.826538086,-9596077.919006348,-258855.46207427979,-11214045.524597168,-6660723.686218262,-6470121.86050415,-7895785.808563232,-7840385.437011719,3117965.4598236084,-7129241.466522217,3081783.5330963135
0.065,4500926.0177612305,7468133.926391602,5947994.232177734,5890017.509460449,2172464.13230896,5884134.769439697,9391330.71899414,13508353.233337402,11667632.102966309,8992633.819580078,2096114.6354675293,10495031.356811523,8580317.497253418,-6252523.899078369,5626511.573791504,11014513.01574707,9089200.973510742,16038105.010986328,9680485.725402832,7696436.882019043,8567297.93548584,5909385.681152344,4783956.527709961,6846436.977386475,11649592.399597168,12684807.777404785,10224491.119384766,6909006.595611572,5802345.752716064,2855098.9627838135,4121967.315673828,-6213636.875152588,6463331.22253418,10283119.201660156,7423326.49230957,5772293.567657471,983325.2429962158,-805654.9429893494,4795979.022979736,3836546.8978881836,-9725612.64038086,60002.38284468651,1416746.735572815,3940623.5218048096,-1256191.9689178467,200700.0595331192,-18177555.084228516,-6915021.896362305,-6077007.77053833,4174773.693084717,-8540132.522583008,-6497947.692871094,-7429306.0302734375,-207357.257604599,-11992777.824401855,-4732962.608337402,-3447636.365890503,-5521402.359008789,-5410570.6214904785,5289941.310882568,-3877889.1563415527,7708363.056182861
0.07,10801234.245300293,13047827.72064209,9850438.117980957,8253564.834594727,1888800.7402420044,9816105.842590332,12338820.457458496,15137937.545776367,11440691.947937012,8163022.041320801,-777724.6236801147,8821786.880493164,7051278.114318848,-4130945.2056884766,9729054.45098877,14381834.030151367,9680807.113647461,15871430.397033691,9526196.479797363,6581189.155578613,7170165.061950684,5638907.432556152,6295770.645141602,8660605.430603027,13665088.653564453,14169557.571411133,10663000.106811523,6882827.281951904,5313662.528991699,1345473.8855361938,3412221.4317321777,-6682255.268096924,9261531.829833984,13265769.958496094,9724469.184875488,7088725.566864014,1578950.1667022705,-1914389.3718719482,3810285.806655884,2591798.3055114746,-11379339.218139648,3773328.5427093506,5009361.743927002,6690048.694610596,430043.45893859863,507513.28468322754,-20299528.121948242,-7409543.991088867,-6354272.365570068,5772583.484649658,-5353825.569152832,-2989668.369293213,-5556756.496429443,196356.44555091858,-12077871.322631836,-3018378.257751465,-968125.9393692017,-3468710.8993530273,-3254415.988922119,8369599.342346191,-2114330.768585205,11776593.208312988
0.075,14769892.692565918,15625801.086425781,9058000.564575195,6230442.047119141,-1214788.0792617798,10281585.693359375,11388535.499572754,12824994.087219238,7288219.451904297,2189221.3821411133,-6619702.8160095215,4907412.528991699,3090783.8344573975,-5094774.7230529785,10437635.42175293,15006547.927856445,6899417.877197266,11884831.428527832,5210906.505584717,2051946.4015960693,2738677.501678467,3200347.661972046,4343989.372253418,8470111.846923828,12992159.843444824,12749300.003051758,8090295.791625977,4191653.251647949,2186616.1823272705,-713159.2631340027,1300387.0248794556,-9091954.231262207,9331381.797790527,14613546.371459961,9181470.87097168,6294897.556304932,1835232.4962615967,-1427672.9822158813,3485016.345977783,2383267.641067505,-14989154.815673828,4695893.76449585,6083545.207977295,8202922.821044922,1820448.5177993774,672285.9144210815,-17580091.47644043,-5204796.79107666,-4202879.905700684,7051277.637481689,-3889341.115951538,-1107495.3079223633,-4698714.256286621,445791.3041114807,-9515769.958496094,-539178.5502433777,1559037.446975708,-2643778.3241271973,-2449338.19770813,10834506.034851074,-1282136.4402770996,12820328.712463379
0.08,-2164886.236190796,-1949720.6211090088,-10277567.863464355,-8682272.911071777,-14765179.634094238,1035361.647605896,-504314.8994445801,529796.7195510864,-5101006.507873535,-11436041.831970215,-17521133.422851562,-5769709.11026001,-7610149.383544922,-14761025.428771973,1316225.4095077515,6598330.974578857,-2259664.77394104,1651663.064956665,-5048464.298248291,-7269608.974456787,-6416719.436645508,-4324922.561645508,-3472839.832305908,2902330.6369781494,6546123.504638672,5469275.47454834,1182736.873626709,-2233292.3412323,-4428416.728973389,-4731079.1015625,-2987910.032272339,-12346796.035766602,5322202.682495117,10720263.481140137,3959218.2636260986,2321528.673171997,1387848.973274231,-648058.3548545837,2686191.7972564697,2169796.4668273926,-15617410.659790039,2573696.8517303467,4093969.3450927734,6647741.317749023,2510751.485824585,508333.08696746826,-11159978.866577148,-643888.533115387,276543.0808067322,8781813.621520996,-3568180.799484253,-619243.6218261719,-3614904.1652679443,371462.8517627716,-4599320.411682129,3277238.607406616,4991798.877716064,-1672546.2675094604,-1636613.6074066162,12555718.421936035,1097109.6754074097,12520915.031433105
0.085,-29881282.806396484,-28944526.67236328,-35896980.28564453,-26048896.78955078,-30425981.521606445,-11175780.296325684,-14966296.195983887,-12846858.978271484,-17010633.46862793,-22380081.176757812,-26260753.631591797,-17011936.18774414,-18674720.764160156,-26468088.150024414,-10903108.596801758,-4743875.503540039,-11311503.410339355,-7271796.703338623,-13213189.125061035,-14410169.60144043,-13906298.637390137,-12237295.150756836,-11825089.454650879,-4690589.904785156,-1488029.0031433105,-2780099.630355835,-5067423.8204956055,-7614370.346069336,-9709963.79852295,-8477766.036987305,-7324162.006378174,-14715098.38104248,290439.57591056824,4561188.697814941,-2004171.371459961,-1784179.925918579,792601.1681556702,-206536.74006462097,1203148.0073928833,1308770.6565856934,-12976941.108703613,351719.6774482727,1762246.9663619995,3576007.604598999,2773260.5934143066,328612.41698265076,-7046792.507171631,2921856.641769409,3980031.0134887695,10257057.189941406,-2818337.917327881,-79487.144947052,-1347308.0396652222,296802.43134498596,-289099.782705307,6667408.9431762695,8072105.407714844,584379.9710273743,516948.6403465271,14199100.494384766,5203706.741333008,13960469.245910645
0.09,-38570892.333984375,-36589408.87451172,-42245380.40161133,-27304073.333740234,-31694623.947143555,-14232651.710510254,-17269542.694091797,-13414466.857910156,-16162282.943725586,-18879880.905151367,-23695243.83544922,-17286895.751953125,-18766582.489013672,-28782764.434814453,-13988208.770751953,-7495897.29309082,-11413645.74432373,-5903025.150299072,-10791174.88861084,-11882453.918457031,-12173311.233520508,-12705593.10913086,-12797317.504882812,-7354062.557220459,-3919972.4197387695,-4590847.969055176,-4888309.478759766,-6689078.330993652,-8446694.374084473,-8129569.053649902,-7885128.021240234,-14469928.741455078,-1665498.13747406,2236244.4400787354,-3500197.410583496,-2183033.9431762695,742777.5263786316,359744.0719604492,481126.0402202606,915610.9690666199,-11425990.104675293,163579.5682668686,1358349.9193191528,2076457.9772949219,2738280.5347442627,399216.77112579346,-8315999.0310668945,2982269.763946533,4289401.531219482,9763461.112976074,-1708885.7889175415,828960.3590965271,663347.7210998535,458903.7895202637,958958.9834213257,7098035.81237793,8451718.3303833,2587043.046951294,2592317.819595337,15188431.739807129,7485609.05456543,16265224.45678711
0.095,-19655464.17236328,-17757404.327392578,-25413518.90563965,-11368369.102478027,-17092845.916748047,-6635057.44934082,-6179706.09664917,-1492934.7038269043,-3838090.181350708,-4391497.611999512,-11949424.743652344,-6188928.127288818,-7705509.662628174,-20489526.748657227,-6415011.882781982,-86873.47173690796,-3464785.33744812,3632351.1600494385,-763754.2486190796,-2404553.6518096924,-3286080.837249756,-5535450.9353637695,-6237328.52935791,-3510609.8651885986,430144.7868347168,299603.52182388306,549167.2158241272,-1136619.0910339355,-2535869.836807251,-4061410.427093506,-4111007.2135925293,-11899424.55291748,-1089.9510234594345,5220869.064331055,-468098.1934070587,903891.6826248169,1209368.109703064,744803.8458824158,936011.0759735107,1711998.1050491333,-13163311.958312988,1405160.903930664,2579378.604888916,3193261.3849639893,2345210.075378418,575681.0307502747,-11412648.20098877,465069.2045688629,1875428.6766052246,7573091.03012085,-1058987.9751205444,1715270.4000473022,863871.3955879211,669697.8211402893,207381.06966018677,4958640.098571777,6485752.105712891,2615538.3586883545,2729945.659637451,14841477.394104004,5621903.896331787,16269207.000732422
0.1,688968.4796333313,1439614.4151687622,-9320384.979248047,2183258.533477783,-4447100.1625061035,896867.9904937744,3933501.958847046,8068636.894226074,5392090.797424316,4992234.706878662,-3828361.5112304688,2976579.189300537,1361213.6840820312,-11928744.316101074,1027556.5385818481,7413529.396057129,2577454.090118408,10016603.469848633,5346495.151519775,3453702.688217163,2621135.711669922,788719.892501831,-174649.71542358398,1184626.579284668,5573629.856109619,4948868.751525879,4423071.86126709,2128276.3481140137,667497.5156784058,-1076359.6296310425,-66367.18660593033,-9307212.829589844,2721796.0357666016,9264379.501342773,2435880.8994293213,3512697.696685791,1594214.5586013794,-333608.9253425598,777487.8144264221,2532451.1528015137,-14844635.009765625,2897153.13911438,4258906.841278076,5318130.970001221,1844692.1110153198,613828.5398483276,-11682832.717895508,-1777124.047279358,-426255.9413909912,6792165.756225586,-89912.19103336334,3289911.7469787598,603565.6929016113,683911.4427566528,540064.5732879639,3687448.740005493,5685657.024383545,2152297.019958496,2232660.5319976807,14524129.867553711,2653772.5925445557,14443028.450012207
0.105,-2182441.7114257812,-1902855.634689331,-12199384.689331055,-1156134.9630355835,-7457279.205322266,280985.8024120331,2306021.213531494,5533496.856689453,2079274.6543884277,340773.19502830505,-7365381.717681885,629515.7670974731,-889893.9490318298,-11135178.565979004,293030.5600166321,7268324.851989746,660322.1297264099,7057147.50289917,1785698.7714767456,373530.41768074036,184798.9559173584,200244.4565296173,-78702.53175497055,1868081.5696716309,6518583.77456665,4743228.435516357,3047838.2110595703,-75377.54625082016,-2235396.146774292,-1998055.338859558,614838.3617401123,-8330045.700073242,4785896.301269531,10698265.075683594,2172622.4422454834,3079742.193222046,1507351.1600494385,-2910722.9709625244,-1169983.7446212769,2215181.1122894287,-12830994.606018066,4670958.995819092,6112908.363342285,6733896.732330322,1662860.39352417,526704.3709754944,-9637570.38116455,-2247099.3995666504,-944680.2139282227,9415487.289428711,2409369.468688965,6359414.100646973,2169052.1240234375,566779.5538902283,2703424.6921539307,5196882.724761963,7969938.278198242,3758555.4122924805,3736590.86227417,15822676.658630371,2949281.692504883,14372570.037841797
0.11,-18536952.97241211,-16988084.79309082,-23311983.108520508,-12916175.842285156,-18289756.774902344,-4459239.482879639,-5320372.104644775,-2484810.1139068604,-7329504.96673584,-10278740.882873535,-16556837.08190918,-6935089.588165283,-8281119.346618652,-15197287.559509277,-4451471.328735352,3010195.016860962,-4621692.180633545,353030.9200286865,-5439370.155334473,-6013105.869293213,-5257556.438446045,-3946508.6460113525,-2855346.6796875,413413.76304626465,4945421.6957092285,2570466.0415649414,-226751.1934041977,-3828356.5044403076,-6720360.75592041,-4306017.3988342285,-1088558.9122772217,-8702892.303466797,6631291.86630249,10515283.584594727,632247.8652000427,1251074.3141174316,1112169.3849563599,-5012780.666351318,-3315747.022628784,1479027.0328521729,-9157752.990722656,6690499.782562256,7930319.309234619,7352122.3068237305,1795631.0510635376,425059.55696105957,-9059242.248535156,-2023982.5248718262,-722292.0656204224,12521195.411682129,5069093.227386475,9298245.429992676,4577992.4392700195,485688.80558013916,3883848.6671447754,6923078.0601501465,10315984.725952148,6426373.00491333,6441928.863525391,17145435.333251953,5514211.654663086,16232925.415039062
0.115,-22788797.37854004,-19831912.994384766,-23815999.98474121,-16321035.385131836,-21338308.334350586,-5448540.687561035,-7327459.812164307,-4880208.492279053,-11196374.893188477,-14338580.131530762,-20622249.603271484,-8557830.810546875,-9940343.856811523,-17786632.537841797,-5324931.621551514,1864957.6902389526,-6005661.964416504,-1841558.4564208984,-7886139.869689941,-7933923.721313477,-6542343.616485596,-5692222.595214844,-3791440.963745117,1119238.8534545898,5077028.274536133,3020597.457885742,-762374.4010925293,-4522537.2314453125,-7216430.6640625,-4748641.9677734375,-2311190.128326416,-9977417.945861816,8490947.723388672,11222129.821777344,1138373.3749389648,882148.5638618469,769787.4903678894,-5020278.453826904,-3677960.3958129883,1475707.6501846313,-9135764.122009277,7661124.706268311,8644952.774047852,7801600.456237793,1897279.7393798828,251919.2099571228,-10782065.391540527,-2986154.794692993,-1751661.5390777588,11038160.32409668,4833827.018737793,9125809.669494629,4391675.4722595215,382255.07736206055,1602194.07081604,5268053.5316467285,8469975.471496582,6407551.7654418945,6585819.244384766,15203425.407409668,5292583.465576172,15690478.324890137
0.12,-11505930.90057373,-9653004.64630127,-16022096.633911133,-9389782.905578613,-15472039.222717285,-2137027.5020599365,-2278894.1860198975,-1052480.3400039673,-7509788.036346436,-10191307.067871094,-17469823.837280273,-4252254.486083984,-5809062.957763672,-18711938.858032227,-1980070.2333450317,4424194.3359375,-3026045.083999634,1117710.2327346802,-4734789.848327637,-5056676.864624023,-4203996.181488037,-5212701.320648193,-4032680.9883117676,3940461.8740081787,7275426.387786865,5633534.4314575195,1330240.1304244995,-2698197.603225708,-4296991.82510376,-4158421.516418457,-2900849.3423461914,-12443008.422851562,9088335.037231445,12557772.636413574,3980072.021484375,2125703.811645508,627293.4675216675,-3629409.074783325,-2878029.8233032227,1691687.9415512085,-14057778.358459473,6609746.45614624,7580686.569213867,8074529.647827148,1926933.8846206665,-59197.78347015381,-11805367.469787598,-5326787.47177124,-4215008.735656738,4612917.423248291,1219844.8181152344,5646355.152130127,880393.2666778564,114504.8439502716,-2611725.091934204,833679.6164512634,3008154.1538238525,2826624.631881714,3052994.728088379,10141462.326049805,893562.4361038208,10878318.786621094
0.125,-3135355.234146118,-4876878.261566162,-15332897.186279297,-3145429.3727874756,-11631300.926208496,861664.7720336914,2591024.63722229,2198251.485824585,-2752076.6258239746,-5046251.29699707,-13145780.563354492,-2153350.1148223877,-3679587.3641967773,-20919414.520263672,854363.8586997986,6640026.092529297,76034.32238101959,4525868.4158325195,-780735.3138923645,-2180431.127548218,-3199587.345123291,-6130422.592163086,-6692341.8045043945,5677238.941192627,8855264.663696289,7068854.808807373,3134335.0410461426,-1312160.849571228,-2266438.0073547363,-4970290.184020996,-4387753.963470459,-15312930.1071167,7688311.576843262,12613965.034484863,6847676.753997803,3076126.3370513916,629382.7295303345,-2589667.0818328857,-2713399.887084961,1011626.7204284668,-19334123.611450195,4644502.16293335,5807302.951812744,7800323.963165283,2147248.2681274414,-315341.8302536011,-10344578.742980957,-7108727.45513916,-5990160.942077637,-828710.675239563,-2620079.0405273438,2250248.1937408447,-2549044.609069824,-212045.52054405212,-4962466.239929199,-2080373.2872009277,-958234.1313362122,-737261.950969696,-661760.0321769714,6188954.3533325195,-3073688.507080078,6141489.505767822
0.13,-5745154.38079834,-10385629.653930664,-22007173.538208008,-2554545.4025268555,-13399060.249328613,2434072.0176696777,4013232.707977295,2874139.0705108643,-778642.475605011,-3041964.054107666,-11455715.17944336,-4019835.948944092,-5266330.242156982,-22761127.471923828,2247567.1768188477,7768921.375274658,1755581.9749832153,6373969.078063965,1303155.779838562,-1302730.3218841553,-4181668.281555176,-7726961.135864258,-9503555.297851562,5749256.610870361,9099173.545837402,6957864.761352539,3978847.5036621094,-538375.3776550293,-2359459.87701416,-6348307.132720947,-5826635.837554932,-16009599.685668945,5785332.202911377,11462531.089782715,8132742.881774902,3037473.9170074463,726820.4689025879,-2432799.5777130127,-2891450.1667022705,180016.83056354523,-20137172.69897461,3616174.2210388184,4928615.093231201,7083135.12802124,2471700.1914978027,-260935.30654907227,-8467394.828796387,-6419646.739959717,-5084665.775299072,79763.33051919937,-3847417.3545837402,1560686.1114501953,-3068866.968154907,-329549.78942871094,-4249649.524688721,-1052017.2119140625,-236333.32550525665,-1297004.6997070312,-1345044.3744659424,6110807.418823242,-2643480.3009033203,6018527.030944824
0.135,-7827441.215515137,-12108094.215393066,-21651348.114013672,-2145619.1539764404,-13619759.559631348,4622979.640960693,4916551.58996582,4305782.318115234,-52057.49720335007,-2578336.477279663,-10847086.906433105,-4050889.015197754,-5106083.869934082,-20590276.71813965,4470884.323120117,9939241.409301758,3313213.586807251,7875179.290771484,2087318.1819915771,-870932.2810173035,-3890872.4784851074,-6341701.507568359,-8018510.818481445,6315910.816192627,9544257.164001465,7416145.801544189,5090487.957000732,1111526.2508392334,-2350975.0366210938,-5650852.203369141,-4786085.12878418,-13577397.346496582,5240862.846374512,10923503.875732422,7959622.859954834,3056437.9692077637,900348.0076789856,-2386543.035507202,-1846575.4985809326,911142.1704292297,-16911550.521850586,3531524.896621704,4870802.402496338,6314629.077911377,2460440.8740997314,13993.353582918644,-8589563.369750977,-3826978.6834716797,-2235860.1093292236,5425796.031951904,-3132812.738418579,2177012.4435424805,-2045467.8535461426,-185247.31695652008,-3227647.304534912,1638171.0767745972,2713340.0440216064,-287582.1888446808,-239091.23241901398,7613801.002502441,99554.67283725739,8723710.060119629
0.14,-4249137.401580811,-5819092.750549316,-13224151.611328125,-240592.8522348404,-10553661.346435547,5478411.674499512,5218308.925628662,5713604.927062988,-341922.6408004761,-3290969.8486328125,-10826457.023620605,-1502853.512763977,-2628149.2710113525,-17652284.622192383,5493608.9515686035,11505836.486816406,3643230.91506958,8233299.255371094,1169183.850288391,-1009331.3455581665,-2573371.410369873,-3474778.890609741,-4622873.783111572,7065475.4638671875,9887166.976928711,8146844.863891602,5750747.6806640625,2486797.80960083,-1762053.0128479004,-3724511.6233825684,-2484273.910522461,-11502281.188964844,5549957.752227783,11189620.018005371,6765440.464019775,3526493.3109283447,1070289.8502349854,-1883623.6000061035,-294306.27822875977,2580054.28314209,-14159934.043884277,2758693.9334869385,4090817.451477051,5528026.580810547,2100787.401199341,165492.84756183624,-9810928.344726562,-2052225.112915039,-369265.3775215149,8430590.629577637,-2937901.258468628,1194147.7060317993,-2327098.3695983887,3008.3830934017897,-4765123.36730957,2452293.634414673,3553169.9657440186,-631588.5782241821,-427081.73394203186,6957616.806030273,632456.0046195984,9179472.923278809
0.145,-8212434.768676758,-7231964.111328125,-14158418.655395508,-3729418.2777404785,-12883295.059204102,307442.66510009766,327119.5888519287,1984550.7144927979,-4116328.239440918,-7374643.325805664,-13958945.274353027,-3348744.3923950195,-4556931.972503662,-21677263.259887695,336954.5042514801,8015947.341918945,-35350.289195775986,5115521.9078063965,-2588177.9193878174,-3746260.404586792,-4241481.781005859,-5166594.982147217,-6669289.588928223,4746068.954467773,7841947.555541992,6680864.8109436035,3887367.4869537354,947747.8265762329,-2887250.1850128174,-4381143.093109131,-3407875.0610351562,-14013414.38293457,4644765.377044678,10382843.971252441,4843812.942504883,3364762.306213379,1138306.3793182373,-1161506.7720413208,-847549.557685852,2434414.3867492676,-14894784.927368164,683156.3711166382,1968891.2630081177,4586819.171905518,1885355.4725646973,95176.70422792435,-9681307.792663574,-2826691.8659210205,-1223607.063293457,5897005.558013916,-4113672.2564697266,-1564047.09815979,-3955642.2233581543,68330.38479089737,-8209877.014160156,956422.9846000671,1579656.481742859,-2258326.0536193848,-2125304.937362671,4093667.984008789,-1574083.685874939,6430179.119110107
0.15,-24470748.901367188,-22154302.5970459,-28898889.541625977,-13201100.34942627,-22352088.928222656,-8309849.739074707,-8111421.585083008,-5438446.044921875,-9545149.803161621,-12622991.561889648,-18914985.65673828,-10579548.835754395,-11648430.824279785,-31182474.13635254,-8484322.547912598,1067516.565322876,-5706532.955169678,596059.7991943359,-6664265.155792236,-7542472.362518311,-8454001.426696777,-11352794.647216797,-13922220.230102539,-611646.5926170349,4087658.8821411133,3718569.040298462,588584.2442512512,-2496073.9612579346,-5912071.704864502,-7943052.291870117,-7947602.74887085,-19467979.431152344,2334426.6414642334,8080918.312072754,3375633.716583252,2177488.327026367,1102304.8162460327,-520317.07763671875,-3477671.6232299805,174059.86785888672,-17391820.907592773,-1198935.0318908691,-85415.67623615265,3864675.283432007,1924818.1581497192,59025.317430496216,-8083582.878112793,-4707589.149475098,-3239461.4219665527,1556643.1283950806,-5526329.99420166,-3708970.069885254,-4754935.264587402,62333.56148004532,-10656553.268432617,-636279.284954071,-398904.025554657,-2908829.2121887207,-3040652.5135040283,1985187.6497268677,-3291730.4039001465,4066274.642944336
0.155,-28271484.375,-25644828.79638672,-31149103.16467285,-14073397.636413574,-23029228.21044922,-8720567.70324707,-8103247.64251709,-5533862.113952637,-8338773.727416992,-10759723.663330078,-17376228.33251953,-11110541.343688965,-11976838.111877441,-31952407.836914062,-9060033.798217773,102863.49058151245,-5891985.893249512,1389689.564704895,-5403018.951416016,-6477599.143981934,-7738875.389099121,-12203673.362731934,-15005239.486694336,-2980984.687805176,3751635.5514526367,4031447.410583496,441171.5865135193,-3112084.38873291,-6790865.898132324,-9164265.632629395,-9321542.739868164,-20529628.75366211,1312111.8545532227,7042240.619659424,4273586.750030518,1592215.1803970337,1035748.6009597778,313306.4806461334,-4256155.967712402,-81938.08794021606,-17411058.42590332,-1207251.3103485107,-293184.7274303436,4127749.9198913574,1635350.9426116943,213386.52074337006,-7112208.843231201,-4815810.680389404,-3494758.8443756104,466004.1034221649,-6089767.932891846,-3837542.0570373535,-4028535.842895508,60900.82973241806,-10925775.527954102,-963965.4755592346,-546866.9533729553,-2065540.5521392822,-2314255.714416504,2038924.9324798584,-2816829.204559326,4119866.371154785
0.16,7548669.815063477,9336306.57196045,5172517.776489258,6887744.426727295,270126.074552536,6645479.202270508,9127026.557922363,9164171.21887207,4797997.47467041,2899392.1279907227,-3387404.680252075,5699491.500854492,4835641.860961914,-13408541.679382324,6388452.529907227,11390810.9664917,3728544.4736480713,10711974.143981934,3131579.637527466,2432024.7173309326,2975587.6064300537,34012.604504823685,-1419472.6943969727,2860569.477081299,10396890.640258789,10226033.210754395,5891784.66796875,1440238.9526367188,-2310679.4357299805,-3901503.086090088,-1691491.4846420288,-12803481.101989746,3908664.2265319824,9871252.059936523,8229984.283447266,3286919.593811035,979433.2385063171,1878171.2055206299,-459134.7873210907,5062670.707702637,-13331746.101379395,498631.20913505554,1448827.2666931152,5620916.366577148,739504.337310791,345505.2077770233,-7746370.315551758,-2499659.538269043,-1371539.7119522095,2595721.72164917,-5863635.540008545,-3013303.9951324463,-3387289.524078369,944.5599280297756,-10900875.091552734,-789613.9621734619,-118425.6300330162,-1554478.0492782593,-1592201.9481658936,2589650.6309509277,-1913564.3243789673,4456740.856170654
0.165,70648551.94091797,70886062.62207031,66513641.357421875,40960124.96948242,38147193.908691406,29900562.286376953,35298599.24316406,31045473.098754883,23651380.53894043,21614500.045776367,16834375.381469727,32340389.251708984,31353899.002075195,15787074.089050293,29848588.943481445,28683776.85546875,17898483.276367188,23187112.80822754,13788751.602172852,14137191.772460938,18084600.4486084,19288440.704345703,19478557.586669922,13826383.590698242,20551818.84765625,18522815.704345703,13635001.182556152,7854146.957397461,5046093.463897705,4770669.460296631,10939254.760742188,-1166973.9484786987,8787893.295288086,15199184.41772461,13546887.397766113,6599861.145019531,956891.0002708435,4207431.793212891,5180563.926696777,12537763.595581055,-8518371.58203125,2295961.380004883,3591012.954711914,7576495.64743042,40361.72479391098,232810.05024909973,-8870284.080505371,-250286.13209724426,683566.5702819824,3898682.5942993164,-5592446.804046631,-2950749.635696411,-4243762.493133545,-170109.70413684845,-12982128.143310547,-1230737.328529358,-1033846.8551635742,-2679454.3266296387,-2403452.6348114014,1607439.1603469849,-2722337.007522583,2609881.87789917
0.17,115828376.77001953,115900024.4140625,109945915.22216797,64098060.607910156,63518913.26904297,44843704.22363281,52038997.650146484,44757492.06542969,35840110.778808594,33230403.900146484,29743719.10095215,49622825.622558594,48653564.453125,35709751.12915039,44862335.205078125,39374114.990234375,26883630.752563477,30408458.709716797,19640138.626098633,20588714.599609375,26810699.462890625,31437471.389770508,31915819.16809082,21402690.887451172,26981744.76623535,23016546.24938965,18264173.50769043,11436040.878295898,9714753.150939941,9868385.314941406,18434385.299682617,5212929.725646973,12188425.064086914,18946355.81970215,17387987.13684082,9204905.50994873,1044618.1297302246,6308008.670806885,7537233.829498291,15387099.266052246,-7713431.358337402,2953048.7060546875,4643332.004547119,8776180.267333984,594779.372215271,32431.32308125496,-9603237.15209961,-698091.1493301392,190039.64960575104,2367212.0571136475,-5902397.155761719,-4113359.9281311035,-6196179.389953613,-316960.1857662201,-17201677.322387695,-2250980.854034424,-3097511.7683410645,-4714323.043823242,-4345161.437988281,-875576.9729614258,-5118371.00982666,-777431.7860603333
0.175,114377655.02929688,116839134.2163086,109798263.54980469,62858436.584472656,61322704.31518555,43556030.2734375,50160396.575927734,43347129.821777344,35112285.61401367,32077423.095703125,28376836.7767334,47828487.396240234,47044723.51074219,36623905.181884766,43473152.16064453,37960132.59887695,26175142.288208008,29240280.151367188,18386861.80114746,18952095.03173828,24983333.587646484,30035301.208496094,29704765.31982422,21028699.87487793,26320617.67578125,22046304.70275879,17790426.25427246,11096659.660339355,9083881.378173828,8378648.75793457,16349822.998046875,3041988.6112213135,12074632.64465332,18901645.66040039,17914037.704467773,9673495.292663574,1261883.25881958,6646252.155303955,5145458.698272705,11190915.10772705,-11239242.553710938,2608943.223953247,4443470.9548950195,8530402.183532715,2396287.679672241,50399.08364415169,-10425745.010375977,-3526500.463485718,-2435835.838317871,359594.31529045105,-6657725.3341674805,-5634940.624237061,-7822934.627532959,-250189.98980522156,-21137580.87158203,-3096526.861190796,-4519324.779510498,-6161070.823669434,-5938476.085662842,-3218688.2495880127,-7420866.012573242,-3283717.155456543
0.18,79890373.22998047,84773185.72998047,78630409.24072266,45201599.12109375,41392898.55957031,31523344.039916992,36284145.35522461,32410480.499267578,25351331.71081543,22158916.473388672,17639225.006103516,34309814.453125,33683753.967285156,25920967.10205078,31344652.17590332,29518104.553222656,19026588.439941406,22779439.92614746,12465468.406677246,12753108.978271484,17646091.46118164,21298318.86291504,20686355.590820312,15647230.14831543,21235219.955444336,18258062.3626709,14170387.268066406,8701392.17376709,5092110.633850098,3437428.7128448486,9984859.466552734,-2603841.781616211,9947066.307067871,16583827.97241211,15269365.310668945,8490158.081054688,1414529.4427871704,4735737.8005981445,1119856.595993042,5087284.088134766,-14276018.142700195,2221609.115600586,3915695.1904296875,7148898.601531982,4307362.079620361,269361.7641925812,-11410241.12701416,-6014098.644256592,-4563569.068908691,813965.9762382507,-6831554.412841797,-6162108.421325684,-7825242.042541504,358.2153585739434,-22207878.11279297,-3211454.6298980713,-4271294.116973877,-6010362.62512207,-5931644.439697266,-3766534.8052978516,-8056124.687194824,-3337677.240371704
0.185,43675373.07739258,47535694.12231445,44001682.28149414,26605228.424072266,22104907.989501953,18550476.07421875,21986419.677734375,20893480.30090332,14392987.251281738,11107692.71850586,6756799.697875977,21558090.209960938,20977174.758911133,15367626.190185547,18384216.30859375,21604682.92236328,11387012.481689453,15803676.60522461,5734266.757965088,6911857.128143311,11528559.684753418,14459039.688110352,14536470.413208008,10696194.648742676,16151432.037353516,14463984.489440918,10265512.466430664,6067547.798156738,1184991.955757141,-331214.3683433533,6525007.247924805,-5550919.055938721,8560557.36541748,14781002.044677734,11343905.448913574,7049615.859985352,1275943.5176849365,2113597.631454468,-1188751.8167495728,3257512.5694274902,-12858963.012695312,2451350.688934326,3931495.6665039062,5648492.813110352,5135446.548461914,400379.6875476837,-11492464.065551758,-6400737.285614014,-4679754.734039307,3324509.382247925,-5690124.034881592,-4944397.449493408,-5789019.584655762,183737.75482177734,-20143274.307250977,-2639603.37638855,-3143705.129623413,-4082303.524017334,-3991769.0753936768,-1984760.6420516968,-6570645.332336426,-979987.5020980835
0.19,21738403.3203125,21821744.918823242,20942205.42907715,14714774.131774902,11452871.322631836,10083953.857421875,13027300.834655762,13458676.3381958,7563020.706176758,4388816.356658936,717704.2961120605,14984681.129455566,14429939.270019531,9080810.546875,9939919.471740723,17274490.356445312,7075970.17288208,11776463.508605957,1772531.0325622559,4132371.425628662,8929841.995239258,12315786.361694336,12732484.817504883,8606263.160705566,13393080.711364746,12011440.27709961,8078437.805175781,4549382.209777832,-395413.99478912354,-1177730.679512024,7092996.120452881,-5293039.798736572,8807353.973388672,14578213.691711426,8630608.558654785,6518307.685852051,946859.7769737244,973197.6389884949,-1217561.3641738892,5784985.542297363,-9084294.319152832,2933441.400527954,4349603.176116943,4900462.627410889,4479604.721069336,334475.96430778503,-10529332.160949707,-5845789.909362793,-4147296.905517578,4974694.728851318,-4324636.936187744,-2947006.4640045166,-3143624.3057250977,113884.73212718964,-17564992.904663086,-2261107.4447631836,-2856880.4264068604,-1659437.5371932983,-1482302.0696640015,801697.4329948425,-4428333.759307861,2105477.809906006
0.195,13169960.021972656,10832391.738891602,11027397.155761719,9813217.163085938,7563065.528869629,7217404.365539551,9864819.526672363,11117224.69329834,6325212.001800537,3740487.575531006,-513670.32527923584,13582489.013671875,13054895.401000977,5571881.7710876465,6996785.640716553,15957649.230957031,6807726.860046387,12137899.398803711,2632004.0225982666,4730003.833770752,8808072.090148926,12357845.306396484,11886803.62701416,8611907.958984375,13081136.703491211,11743553.161621094,8487000.465393066,5428747.653961182,778232.9320907593,-154701.8140554428,8224265.098571777,-5341412.544250488,9314582.824707031,15013037.68157959,8336000.442504883,7229441.165924072,802147.5076675415,1697551.6080856323,-34484.315663576126,8080908.77532959,-8230093.955993652,2535767.7936553955,4092658.042907715,4820417.404174805,2785743.474960327,256717.83089637756,-10185863.494873047,-6502413.272857666,-5083833.694458008,3959603.5480499268,-4851271.152496338,-2447062.7307891846,-2711933.6128234863,-127527.47535705566,-17609067.916870117,-3336603.879928589,-4454422.950744629,-1272490.7398223877,-1056369.1854476929,2070903.5396575928,-4395424.842834473,3133605.0033569336
0.2,14127853.393554688,12407421.112060547,11989545.822143555,10850026.13067627,7910956.859588623,8839629.173278809,11420109.748840332,12985498.428344727,8864467.62084961,6973093.032836914,1033964.2763137817,15295458.793640137,14692979.81262207,4144480.7052612305,8513295.17364502,16364772.79663086,8737383.842468262,15206200.59967041,6458733.558654785,6954295.635223389,9796529.769897461,12458562.850952148,10865783.69140625,9094818.115234375,14140383.72039795,13464700.698852539,10436578.750610352,8080641.746520996,3246446.6094970703,1020244.2407608032,8012312.889099121,-7263856.887817383,8551777.839660645,14739182.472229004,9248472.213745117,8239676.475524902,1000363.826751709,2618012.6667022705,1709035.873413086,7885818.004608154,-11329063.415527344,713087.8567695618,2462763.547897339,4565240.383148193,1026446.8193054199,307068.97377967834,-11155169.486999512,-8046496.391296387,-6897086.620330811,1451788.7830734253,-7416047.5730896,-4378335.952758789,-5426754.474639893,-288799.82233047485,-20211082.458496094,-5642563.343048096,-6980642.795562744,-3836611.9861602783,-3625400.5432128906,959210.9322547913,-7273911.476135254,1042969.3460464478
0.205,18600877.76184082,18113859.176635742,17152620.315551758,14512967.109680176,10139243.125915527,11203196.52557373,14439599.03717041,15388784.408569336,10796144.485473633,8936830.520629883,2505575.180053711,17499055.862426758,16744649.887084961,4545470.714569092,10900092.124938965,16622066.497802734,9502604.484558105,16523830.41381836,7959934.711456299,7611147.403717041,10491754.531860352,12298768.043518066,10763486.862182617,8800993.919372559,14731770.515441895,14683072.090148926,10939190.864562988,9057168.006896973,4312136.650085449,1325353.980064392,7718598.365783691,-8815032.005310059,6838000.774383545,13533733.367919922,9148541.450500488,7745685.10055542,1268204.3313980103,2404353.380203247,3761914.014816284,7759797.5730896,-13343432.426452637,-1183675.0507354736,575112.2832298279,3753417.2534942627,138638.89873027802,402830.8093547821,-11189907.07397461,-7402108.192443848,-6255075.454711914,379689.0377998352,-8996399.879455566,-6302690.029144287,-7721601.0093688965,-190715.84939956665,-21328290.939331055,-6325932.97958374,-7490371.227264404,-6032102.584838867,-5816234.588623047,386692.91138648987,-9509861.946105957,-731742.5012588501
0.21,15450810.432434082,15034428.596496582,15497004.508972168,14214475.631713867,9359709.739685059,9917889.595031738,14080769.538879395,13733423.233032227,8323570.251464844,5836405.277252197,1083716.0348892212,16692989.349365234,15908353.805541992,4696473.121643066,9784921.646118164,14911124.229431152,7010293.960571289,13129336.3571167,3889140.844345093,4732852.458953857,9343025.207519531,11695381.164550781,11528587.341308594,7746023.654937744,13750072.479248047,12814741.134643555,7985085.010528564,5690357.208251953,2406077.8617858887,1028684.7352981567,8707532.88269043,-7284050.464630127,6468637.466430664,12719046.592712402,7711565.017700195,5041263.103485107,1313309.1926574707,1570044.8751449585,5470674.514770508,10489983.558654785,-9519462.585449219,-451309.80014801025,1067504.4059753418,3392190.456390381,409170.2103614807,460206.41922950745,-8186388.01574707,-2635564.3272399902,-1238486.5283966064,2954079.3895721436,-6250529.766082764,-4366911.888122559,-4517379.283905029,136125.41556358337,-17212160.110473633,-2302706.718444824,-3280562.63923645,-2910342.216491699,-2696984.052658081,4543069.839477539,-6390070.915222168,3042327.404022217
0.215,764979.0048599243,793408.6918830872,4232008.934020996,7372866.153717041,3179896.831512451,5543473.243713379,9735631.942749023,8068308.8302612305,2445557.8327178955,-489103.64508628845,-3227684.497833252,12344818.115234375,11730255.126953125,3629488.706588745,5562143.325805664,12157049.179077148,2940744.8768615723,7320100.3074646,-2897513.1511688232,-34022.91238307953,6254092.216491699,10577718.734741211,12562958.717346191,7905747.413635254,12539026.260375977,9016248.70300293,3309978.96194458,-52513.767033815384,-1167450.3087997437,1514366.865158081,10511187.553405762,-2746235.132217407,9656629.56237793,14134719.848632812,7071089.267730713,1924045.5627441406,1207509.994506836,1058300.0183105469,6016746.520996094,14808930.397033691,-1269476.6521453857,4297908.782958984,5538771.152496338,5047280.788421631,1450475.6927490234,540752.5300979614,-3988011.598587036,3852210.283279419,5488478.183746338,8706010.818481445,720784.1277122498,2279126.4057159424,4458553.314208984,480316.07270240784,-9261415.481567383,5604831.218719482,4909317.970275879,5945788.860321045,6109391.689300537,13441864.967346191,1876476.764678955,12569883.346557617
0.22,-9597556.114196777,-7626500.129699707,-2280901.4320373535,1791424.5128631592,-1658542.9906845093,4602728.366851807,7930924.415588379,4467471.122741699,-1191878.318786621,-4085027.6947021484,-6155576.705932617,9531333.923339844,9104134.559631348,5025342.94128418,4595661.640167236,12122039.794921875,1365037.9180908203,4324254.512786865,-6699601.173400879,-2863550.4245758057,3622009.515762329,10323459.62524414,15099400.520324707,11453651.428222656,13629345.893859863,7539231.777191162,760437.3097419739,-3539499.282836914,-3662230.968475342,3991898.0598449707,12188814.163208008,2472703.456878662,15700995.445251465,18051715.850830078,8884057.998657227,1041622.9963302612,1151182.4131011963,656055.6888580322,5297186.851501465,17389925.003051758,5855346.202850342,10873813.62915039,12049684.524536133,8829793.930053711,2788345.3369140625,656502.1276473999,-2423233.5090637207,7518682.479858398,9166981.69708252,14359701.156616211,7991555.213928223,9811439.514160156,13162634.84954834,587281.4059257507,-3164836.645126343,12287328.720092773,12295370.101928711,14656326.293945312,14761318.20678711,21371730.80444336,9319561.004638672,21155914.306640625
0.225,6402140.6173706055,9750803.94744873,14135314.94140625,8804681.777954102,5828615.665435791,12286688.804626465,15588992.11883545,8860016.822814941,2567749.7386932373,-548423.2306480408,-2272505.760192871,14511679.649353027,14119194.984436035,13814166.069030762,12109654.426574707,17160291.67175293,4838044.6434021,6924341.201782227,-4808529.853820801,-1189145.9226608276,4789884.567260742,13375371.932983398,20963079.45251465,17501487.731933594,17412784.576416016,10731891.632080078,2225705.862045288,-2653151.9889831543,-3473279.4761657715,8354053.497314453,14047275.54321289,6479007.244110107,20463197.708129883,22186338.424682617,11888170.24230957,2862298.9654541016,1100553.9894104004,-24802.159518003464,4259232.997894287,17530120.849609375,8565946.578979492,14678837.776184082,15990818.977355957,12566329.002380371,4109881.87789917,665319.7407722473,-4010292.5300598145,6725775.718688965,8205476.760864258,16144824.981689453,10891369.819641113,13011549.949645996,15264841.079711914,363843.8284397125,-2930567.979812622,13117379.188537598,13785490.036010742,16830532.07397461,16933883.666992188,22146720.88623047,10407633.781433105,22069335.9375
0.23,49565917.96875,52097412.109375,53877864.837646484,29948032.37915039,28098434.448242188,25977611.541748047,31566354.751586914,20907087.326049805,13924380.3024292,9924249.649047852,9889595.985412598,27962558.74633789,27529775.619506836,29785062.789916992,25664487.838745117,25313364.028930664,12650167.465209961,14034413.33770752,1713836.1930847168,5100090.503692627,11396895.408630371,20998777.389526367,29516748.428344727,22191781.997680664,21515295.028686523,16597715.377807617,6589504.241943359,1196293.830871582,-422855.9136390686,13599386.215209961,17159843.44482422,9145545.00579834,19872394.561767578,23643621.44470215,13530284.881591797,5455944.061279297,927500.6651878357,18848.992884159088,4276603.698730469,17450172.424316406,7955061.435699463,12737236.976623535,14189295.768737793,13484519.958496094,4840484.142303467,517110.28814315796,-5599249.362945557,3810867.5479888916,5154060.840606689,12973884.582519531,7286402.225494385,9806847.57232666,10313986.778259277,-3608.1308498978615,-7277941.703796387,8248627.662658691,8547517.776489258,11859418.869018555,11989624.977111816,15261806.48803711,5388259.410858154,15553402.9006958
0.235,94543952.94189453,96441368.10302734,96526573.18115234,53710151.67236328,54337551.11694336,37729682.92236328,47066326.14135742,34482925.41503906,27853569.03076172,23395250.32043457,25536211.013793945,43530673.98071289,43135066.986083984,46296497.3449707,37425952.91137695,32361183.166503906,21782413.482666016,22865644.454956055,10569298.74420166,14171216.011047363,21497539.520263672,31088409.423828125,37354927.06298828,22635732.650756836,23593399.047851562,21607704.162597656,11818036.079406738,6168755.054473877,5017998.218536377,18566949.84436035,21251066.207885742,10702933.311462402,14182295.799255371,21847513.19885254,13240179.061889648,7219861.5074157715,762396.9316482544,2001945.7340240479,5697329.521179199,18146291.732788086,5861018.657684326,6456180.572509766,7995728.969573975,10856151.580810547,4282903.671264648,387368.02339553833,-5511041.641235352,999399.3639945984,2379112.958908081,7109859.943389893,-1087650.179862976,2582925.55809021,2845132.58934021,-226176.87284946442,-12429846.76361084,1417417.049407959,347808.4206581116,4281562.805175781,4382859.706878662,5775994.777679443,-1500316.6198730469,7166663.646697998
0.24,112773674.01123047,117236038.20800781,117287353.515625,65150100.70800781,68733421.3256836,40907199.85961914,52836532.59277344,41998912.8112793,36636825.56152344,33405624.389648438,35934677.12402344,51842319.48852539,51538013.45825195,54394077.30102539,40693431.85424805,34778533.935546875,27847812.65258789,29636692.04711914,18230533.599853516,21922014.236450195,29459537.506103516,37830993.65234375,40244468.688964844,19145700.454711914,22976781.845092773,23717687.606811523,15875978.469848633,10943932.53326416,10773857.116699219,21533658.981323242,23484889.98413086,9893096.923828125,7708498.001098633,18614135.7421875,12364153.861999512,8171325.68359375,801124.4535446167,4915479.1831970215,6854094.0284729,17456457.138061523,2170872.688293457,129894.09267902374,1798260.3311538696,6616206.645965576,2654832.8399658203,382103.3239364624,-5704010.963439941,-2180570.363998413,-612152.8744697571,1686032.6528549194,-9550616.264343262,-4152410.5072021484,-2904288.7687683105,-252377.12264060974,-16311662.673950195,-4075629.234313965,-6204987.525939941,-1514993.42918396,-1481771.5883255005,-1061164.4983291626,-6882186.412811279,1195094.347000122
0.245,95616661.07177734,104351493.83544922,104729118.34716797,57717029.5715332,62875617.98095703,33743507.385253906,45282894.134521484,38703269.958496094,34439868.92700195,33595146.17919922,34564674.377441406,46702312.46948242,46419021.60644531,48590759.27734375,33575519.56176758,30693714.141845703,26707901.000976562,29928817.749023438,19717138.290405273,23178773.880004883,29436807.63244629,35438121.7956543,35451919.55566406,13439994.812011719,19731132.50732422,22275136.947631836,16265130.996704102,13017246.24633789,12888432.502746582,20509059.90600586,20585590.362548828,5045128.345489502,4100450.038909912,15519608.497619629,11254113.19732666,8257458.686828613,862265.5868530273,6114273.0712890625,5489178.18069458,13623365.40222168,-3043614.8643493652,-3047426.700592041,-1259905.5767059326,3302688.3602142334,1290964.0073776245,290056.9438934326,-7658841.609954834,-6154967.308044434,-4342139.24407959,-1569981.2173843384,-13533647.537231445,-7172251.224517822,-5566770.553588867,-341252.2077560425,-18643571.853637695,-6890934.467315674,-8939496.994018555,-4092445.3735351562,-4047691.3452148438,-3572185.0395202637,-9643751.14440918,-1639137.3872756958
0.25,57461166.38183594,67853363.03710938,68021011.35253906,37954471.588134766,42173908.23364258,20089775.08544922,28914669.036865234,26648187.6373291,22941705.70373535,23730386.73400879,23319810.86730957,30686256.408691406,30336549.758911133,31839179.99267578,19905883.7890625,21378360.748291016,18623867.03491211,22821273.803710938,13244824.409484863,16789955.139160156,21377498.626708984,24647193.908691406,24606088.638305664,7237226.0093688965,14728230.476379395,17858665.466308594,11933220.863342285,10033832.550048828,9288841.247558594,15744743.347167969,13185689.926147461,-2338163.6142730713,3349673.5095977783,12801287.651062012,8800868.98803711,6596195.697784424,569045.4244613647,4736167.430877686,1865340.1136398315,9036814.68963623,-6971047.401428223,-3001217.3652648926,-1318689.7039413452,1917150.616645813,1106107.8310012817,-110300.49622058868,-9332516.67022705,-8556955.337524414,-6532086.372375488,-2093463.8977050781,-12063469.886779785,-6387304.306030273,-5250709.533691406,-692621.648311615,-18827329.635620117,-6564770.221710205,-8140928.268432617,-3655375.0038146973,-3483727.216720581,-2743677.854537964,-9428397.178649902,-1546110.987663269
0.255,22509632.110595703,30825252.532958984,30931833.267211914,20208103.17993164,21502222.061157227,8281463.623046875,14367219.924926758,14940672.874450684,11620321.273803711,12261657.71484375,11791213.989257812,14790528.297424316,14358937.26348877,15330893.516540527,8100216.865539551,12685724.258422852,10196302.41394043,14243600.845336914,4332223.415374756,8570188.522338867,12467514.038085938,14090162.27722168,14584088.325500488,3244451.2844085693,11004139.90020752,13470966.339111328,6103072.166442871,3818503.6182403564,3383227.3483276367,10953401.565551758,6720105.6480407715,-7046186.447143555,3874305.486679077,11015851.974487305,5444507.122039795,3653747.55859375,-3476.1098213493824,2908270.5974578857,-738966.6438102722,7892601.96685791,-6381210.3271484375,-1388863.3251190186,-41864.20887708664,1968017.2204971313,1429986.834526062,-620412.8265380859,-8471057.891845703,-7072050.57144165,-4945822.238922119,140591.66610240936,-8355312.347412109,-4183579.921722412,-2477187.6335144043,-1117182.0163726807,-16447080.612182617,-3459307.4321746826,-5207901.954650879,-839731.6336631775,-557221.5914726257,-19116.654992103577,-6600316.047668457,1417549.8485565186
0.26,6775516.033172607,12465147.972106934,13459321.975708008,14082661.628723145,12213501.930236816,5098525.047302246,10120187.759399414,11745858.192443848,8439688.682556152,7946912.76550293,7670870.304107666,8680198.669433594,8163636.207580566,9340172.76763916,4961548.328399658,10891051.292419434,8139168.739318848,11508268.356323242,405528.9626121521,5362509.727478027,9651257.514953613,11689128.875732422,12121488.571166992,4012497.4250793457,11744769.096374512,12938701.629638672,3912323.7133026123,-378195.25599479675,762295.3057289124,9719808.578491211,5911332.130432129,-5480790.615081787,5314851.2840271,11539413.452148438,4124816.417694092,2197899.341583252,-301455.43813705444,2719202.2800445557,43163.50445151329,10506920.81451416,-2193892.002105713,450670.5105304718,1551836.609840393,2835096.3592529297,1228006.8397521973,-805545.8664894104,-6513664.722442627,-3708302.4978637695,-1651152.491569519,3612583.1604003906,-6409284.591674805,-3024065.0177001953,1087373.13747406,-1253289.6995544434,-13322953.224182129,173977.68795490265,-2116563.081741333,2683781.147003174,2925482.988357544,3049326.181411743,-3330522.7756500244,5561534.881591797
0.265,5852289.67666626,11075560.569763184,13480710.02960205,14982758.522033691,11424947.738647461,7838944.435119629,13283549.308776855,14427996.635437012,10183334.350585938,8762285.232543945,8165804.862976074,10008727.073669434,9385517.120361328,12130857.467651367,7700411.319732666,14629357.33795166,10563509.941101074,13775554.656982422,1039928.4362792969,6322650.909423828,11180459.976196289,15040997.505187988,15864944.458007812,7622701.644897461,15342232.704162598,15847762.107849121,5802487.373352051,-509093.2250022888,1997420.9070205688,10933025.360107422,8890058.517456055,-703144.4311141968,7520574.09286499,14006487.846374512,6313043.117523193,3893565.1779174805,-50547.13785648346,3374531.9843292236,2269199.848175049,12635575.294494629,891243.2193756104,1766650.7959365845,2909237.3847961426,4076777.935028076,841152.012348175,-584451.4966011047,-6209675.312042236,-2721300.6019592285,-877572.7152824402,5316664.695739746,-7116711.616516113,-3355411.5295410156,3158901.2145996094,-1043746.5906143188,-12215618.133544922,1554894.0896987915,-688177.4067878723,4701045.036315918,4787003.993988037,4816268.9208984375,-2060163.0210876465,7975769.519805908
0.27,1011612.6537322998,7306053.161621094,10825615.882873535,9964300.155639648,6629870.414733887,6253427.982330322,12195259.094238281,12110430.717468262,6524343.013763428,4574370.861053467,4208273.410797119,7456878.185272217,6773847.579956055,11963796.615600586,6007654.190063477,14827376.365661621,8695319.175720215,12667331.69555664,-1459862.8282546997,4236635.684967041,9159406.661987305,14570673.942565918,17241796.493530273,7687222.957611084,15623016.357421875,16459707.260131836,6187470.91293335,-683016.5386199951,1979549.4079589844,10212847.709655762,9534996.98638916,823876.6193389893,8611786.842346191,15155565.26184082,8827660.56060791,6135917.186737061,350734.56168174744,2662761.2113952637,2215950.0122070312,11354856.491088867,354579.359292984,1964442.0146942139,3176540.3747558594,4812903.881072998,1346214.1752243042,-317635.80441474915,-6862550.258636475,-4242673.873901367,-2614202.0225524902,4179037.570953369,-8090305.328369141,-3586532.8311920166,3454515.6955718994,-758424.9973297119,-12875256.538391113,897940.6952857971,-733950.4957199097,4997478.96194458,4956936.836242676,5175804.138183594,-2248299.8371124268,8246439.9337768555
0.275,-18228172.302246094,-11095672.607421875,-6868894.577026367,-5460435.390472412,-7879117.488861084,-4344944.000244141,1076933.741569519,201421.63336277008,-5644407.749176025,-8110096.9314575195,-6927929.401397705,-4277113.914489746,-4868222.236633301,2272577.5241851807,-4706178.188323975,6111407.75680542,-1150926.7091751099,4059247.4937438965,-10572860.717773438,-3882552.146911621,652941.107749939,6568292.140960693,11444690.704345703,1077376.9617080688,9628765.106201172,10641084.671020508,947177.9465675354,-5148795.127868652,-2650433.7787628174,6062214.374542236,5729086.875915527,-2297353.506088257,6967365.741729736,12582647.323608398,7299470.4246521,4868354.797363281,415358.15596580505,243105.82876205444,-371171.7426776886,9229698.181152344,-603785.2764129639,1320911.169052124,2282936.5730285645,4249468.803405762,2567000.6275177,-260419.69656944275,-5386781.215667725,-3539660.692214966,-1969079.9713134766,3511021.375656128,-6704357.147216797,-1805871.2482452393,4574359.41696167,-553976.0589599609,-11639011.38305664,1789771.4376449585,416896.64125442505,6219034.671783447,6140267.848968506,6498346.80557251,-560469.8061943054,9532003.402709961
0.28,-39980682.373046875,-32727252.960205078,-28109680.17578125,-20415613.174438477,-22910667.419433594,-15532715.797424316,-11627655.029296875,-12266392.707824707,-17037649.154663086,-19927167.892456055,-17376844.40612793,-16978355.407714844,-17352472.30529785,-9393351.554870605,-15853114.128112793,-4799683.570861816,-11505158.424377441,-5335532.188415527,-19699728.01208496,-11962876.319885254,-7846749.305725098,-1721041.202545166,4100380.8975219727,-6401359.081268311,2734649.181365967,2380027.0557403564,-6179739.475250244,-11722593.307495117,-8618888.854980469,1997190.237045288,2027066.2307739258,-4611434.459686279,4638836.860656738,8794453.620910645,2277167.320251465,284206.3307762146,210529.34229373932,-2190354.824066162,-2133500.099182129,10417586.326599121,2469819.5457458496,1566628.8137435913,2088433.9809417725,3220208.168029785,3160251.1405944824,-246061.772108078,-1784772.1576690674,1928896.5463638306,3619673.728942871,7263609.886169434,-2692292.6902770996,2338362.9322052,8689463.61541748,-316292.3753261566,-6380640.029907227,6456023.693084717,4813618.183135986,10531562.805175781,10437784.194946289,10928992.27142334,4634884.357452393,14144932.746887207
0.285,-44533817.291259766,-37620105.7434082,-33318634.033203125,-21959346.771240234,-25797906.87561035,-16042791.366577148,-13842510.223388672,-13740016.93725586,-17644369.12536621,-20382326.126098633,-18546934.127807617,-19452190.399169922,-19647192.001342773,-11502275.466918945,-16144529.342651367,-6833405.9715271,-12869779.586791992,-6438704.490661621,-20645704.26940918,-12740674.97253418,-8708509.44519043,-2092899.3225097656,3553205.728530884,-6289488.792419434,2419753.7899017334,-227461.62116527557,-7918612.957000732,-14394185.066223145,-10489801.406860352,1720955.729484558,2915864.7060394287,-1785419.3449020386,5522627.353668213,8679233.55102539,-1051313.042640686,-2950558.4239959717,125511.0651254654,-3475743.532180786,-1126768.1121826172,14384914.39819336,8464932.441711426,4018745.4223632812,4398799.896240234,3780988.6932373047,2665192.3656463623,-67393.49663257599,41907.452046871185,7848818.778991699,9675086.975097656,13801914.21508789,1681786.298751831,6881862.640380859,13872920.036315918,-19294.975325465202,-243343.63639354706,11873367.309570312,10395906.448364258,15892054.557800293,15757328.987121582,16663396.835327148,10278929.710388184,19490106.5826416
0.29,-29984380.7220459,-23866231.91833496,-20684112.548828125,-11277127.265930176,-16272668.838500977,-6563398.838043213,-5410585.403442383,-4729106.903076172,-9092693.328857422,-11050219.535827637,-11403104.782104492,-11585198.402404785,-11760713.577270508,-3901689.7678375244,-6445294.8570251465,1219479.6800613403,-5673107.624053955,639342.2484397888,-14031080.24597168,-6838807.106018066,-2423600.673675537,4034896.3737487793,9367483.139038086,1341611.1469268799,8391289.710998535,4890605.926513672,-2844272.6135253906,-11253944.396972656,-7551216.125488281,4520114.421844482,6577434.539794922,3000191.4501190186,9584399.223327637,12864967.346191406,307371.2885379791,-1733119.010925293,258556.75339698792,-3935977.6973724365,707279.0861129761,16442987.442016602,11352621.078491211,7123439.788818359,7854661.464691162,6328504.0855407715,2072486.6390228271,107278.66739034653,-2169065.7138824463,8164554.595947266,9972484.588623047,16634613.037109375,3402564.764022827,8708118.438720703,15535875.32043457,82764.95337486267,1602229.118347168,12775977.13470459,12466880.798339844,17541332.244873047,17388277.053833008,18927625.65612793,11687961.57836914,20673368.453979492
0.295,-14380900.382995605,-9138490.676879883,-6798939.7048950195,-1260637.7601623535,-5968877.31552124,1558362.603187561,2633152.2464752197,3903002.977371216,-1420494.3180084229,-2560436.487197876,-4167250.156402588,-3429795.980453491,-3708997.964859009,2582117.3191070557,1706163.763999939,9557690.620422363,1145010.8289718628,7667184.829711914,-7517692.565917969,-995615.6611442566,4053314.685821533,8747295.379638672,13282288.551330566,7554491.996765137,13041940.689086914,11331230.163574219,3124712.4671936035,-6546158.313751221,-3771228.313446045,6943255.90133667,7872688.770294189,3506251.096725464,11978333.473205566,16471628.189086914,3488583.564758301,1680611.3719940186,380107.0749759674,-3823463.9167785645,950024.5451927185,14200069.427490234,7953666.687011719,7660487.174987793,8893250.465393066,8399139.404296875,2129419.3267822266,-20882.021635770798,-5619631.767272949,3023989.43901062,4705381.870269775,12512757.301330566,1288551.688194275,6410740.852355957,11931246.757507324,-146534.10017490387,-1682673.9311218262,8284283.638000488,9273723.602294922,13697413.444519043,13614360.809326172,15618084.907531738,8105035.781860352,16697250.366210938
0.3,-12547455.787658691,-7318603.992462158,-4398243.9041137695,-253905.2665233612,-3863820.0759887695,1052727.8184890747,2585000.514984131,4983900.547027588,-539114.7136688232,-1427911.9968414307,-2368968.2483673096,-2455445.5280303955,-2822618.007659912,651148.5576629639,1048418.6410903931,10199957.847595215,1699648.9763259888,8903310.775756836,-6119873.523712158,397177.5770187378,5897743.225097656,8373274.803161621,10629446.983337402,5990871.906280518,11592077.255249023,12567465.782165527,4539433.002471924,-4881549.835205078,-2389340.400695801,7354960.4415893555,5588596.820831299,-839250.922203064,9502610.206604004,15597816.467285156,4347324.371337891,3199666.5000915527,362847.83482551575,-2647361.7553710938,157823.66693019867,10541385.650634766,2286226.987838745,5014763.355255127,6488065.719604492,7785475.254058838,2441209.7930908203,-370005.339384079,-6340972.900390625,-1578371.0479736328,94699.78511333466,5952207.088470459,-2520982.027053833,2303217.649459839,6705598.831176758,-398005.24711608887,-5621029.376983643,3294865.608215332,4468281.7459106445,8183167.457580566,8243176.460266113,10338252.067565918,3640987.6346588135,11906763.076782227
0.305,-20968328.47595215,-14729979.515075684,-10358691.215515137,-4730758.6669921875,-8021655.082702637,-4327176.570892334,-2621479.034423828,1397882.9383850098,-3686877.0122528076,-4919178.009033203,-4551972.389221191,-6765993.118286133,-7083688.259124756,-5546423.91204834,-4474287.033081055,5434806.346893311,-1485825.777053833,6196025.848388672,-8218113.899230957,-1290006.8759918213,4232947.34954834,6332879.543304443,5640137.672424316,159996.19662761688,7376462.459564209,9167836.18927002,2267999.4106292725,-6279104.709625244,-3137458.8012695312,6895316.600799561,3432393.0740356445,-4447526.454925537,5229755.401611328,12317256.927490234,3014123.9166259766,2183241.844177246,310004.1449069977,-663409.7099304199,226064.5478963852,9381742.477416992,535644.5908546448,2373312.9501342773,3793894.7677612305,5754587.173461914,2728034.257888794,-527577.6982307434,-4362593.650817871,-1541298.0318069458,355872.18403816223,3548824.7871398926,-4419388.294219971,433827.9366493225,4799392.7001953125,-303599.20859336853,-6043262.004852295,2571815.9675598145,2830046.8921661377,6144807.3387146,6331106.185913086,8273034.09576416,2474347.5914001465,10722352.981567383
0.31,-28273437.5,-20972000.122070312,-16032171.249389648,-7811987.87689209,-11903239.250183105,-7765796.661376953,-6586197.853088379,-1117470.2644348145,-5933781.147003174,-7634425.640106201,-6569119.453430176,-10534972.190856934,-10665825.843811035,-7943058.490753174,-7902291.774749756,2087024.6887207031,-3449449.300765991,4045695.7817077637,-10033966.064453125,-2742393.4936523438,2552546.262741089,6389987.945556641,4473371.505737305,-2608517.646789551,5822178.363800049,5976737.976074219,476686.0604286194,-7708165.645599365,-4177180.290222168,6826882.362365723,4383783.81729126,-3349524.736404419,4287265.777587891,11183491.706848145,2419521.8086242676,1203474.8792648315,288731.187582016,530367.6724433899,1138767.957687378,10826100.34942627,3558454.5135498047,2514950.5138397217,3800740.2420043945,5268459.320068359,3572787.5232696533,-319387.4955177307,-2843042.6120758057,1115768.4326171875,3303271.2936401367,6034812.450408936,-3275881.290435791,2003957.5099945068,6763552.188873291,3046.921920031309,-3691583.6334228516,5390983.581542969,4848597.526550293,8161719.32220459,8370915.412902832,10212656.021118164,4447786.808013916,12637623.78692627
0.315,-31376539.23034668,-23584638.595581055,-19448825.83618164,-8606085.777282715,-13342891.693115234,-8070235.252380371,-7774571.895599365,-1684512.972831726,-6326785.564422607,-8125893.592834473,-6704195.022583008,-11587469.100952148,-11530836.10534668,-5118251.323699951,-8111764.907836914,2236595.869064331,-3351729.154586792,3807782.6499938965,-10200016.975402832,-2692285.2993011475,2472084.9990844727,7648567.199707031,7122018.814086914,-781387.3887062073,7083533.28704834,5145386.219024658,723604.6195030212,-7308385.848999023,-4451172.828674316,6935895.919799805,7056122.303009033,158441.84160232544,6908280.849456787,12809625.625610352,3130351.0665893555,1769317.388534546,235922.32167720795,-12849.02822226286,1418966.6509628296,12129538.536071777,6823789.596557617,4083723.0682373047,5240296.840667725,6607880.592346191,5021020.412445068,-43879.009783267975,-3270033.836364746,2308216.8102264404,4608588.218688965,8736467.361450195,-1563339.114189148,3976382.9708099365,8785827.63671875,77969.72244977951,-2140657.424926758,7400553.226470947,7065626.621246338,10304925.918579102,10419405.937194824,12525031.089782715,6190573.692321777,13672389.98413086
0.32,-33836223.60229492,-25734611.51123047,-22232606.887817383,-9910535.81237793,-14063570.976257324,-7520661.8309021,-7904185.2951049805,-2440882.921218872,-6473797.32131958,-7862558.841705322,-5881289.005279541,-11457016.944885254,-11357446.670532227,-1783635.2586746216,-7551343.4410095215,3270309.6866607666,-3070503.7117004395,4175962.448120117,-9342698.097229004,-1790005.5646896362,3517114.4008636475,7536652.088165283,9119683.265686035,1611301.064491272,7780472.278594971,5227447.986602783,1416630.506515503,-5618962.287902832,-3896819.591522217,6638435.363769531,8480753.898620605,1790655.3745269775,9084486.961364746,14115546.226501465,3100379.467010498,2705229.9976348877,155578.65798473358,-1165508.508682251,841950.6549835205,11962121.963500977,6971449.375152588,4105293.7507629395,5077575.206756592,7260240.077972412,5663309.574127197,-37395.70081233978,-3993076.5628814697,1374924.4213104248,3585692.4057006836,8656480.78918457,-1578231.8115234375,3398705.244064331,8159597.396850586,-142902.25505828857,-2617853.4030914307,6581554.889678955,7114157.676696777,9780411.720275879,9761973.38104248,12509149.551391602,5741446.971893311,11872903.823852539
0.325,-34659198.76098633,-26219745.635986328,-21839752.197265625,-11256118.774414062,-14017502.784729004,-6055297.8515625,-6756171.703338623,-3216199.1596221924,-6614144.802093506,-7356549.7398376465,-5133475.303649902,-10882257.461547852,-10865490.913391113,-502383.828163147,-6178292.274475098,3983826.6372680664,-2712121.2482452393,4505561.828613281,-8010084.15222168,-822722.1369743347,4877972.12600708,6406220.436096191,8713445.663452148,2284672.975540161,7276687.6220703125,5466471.6720581055,1499519.1097259521,-3972027.540206909,-2960079.9083709717,6155372.142791748,8160968.780517578,1094030.3802490234,9012653.350830078,13892221.450805664,2025581.3598632812,2713636.1598968506,164678.24578285217,-1472356.5578460693,556934.4758987427,11520770.072937012,5391789.91317749,2795692.4438476562,3550470.3521728516,6206248.2833862305,4484384.059906006,-226975.61979293823,-3327908.2775115967,633389.2345428467,2715406.4178466797,7519340.515136719,-2101655.2448272705,1564761.6386413574,6548275.470733643,-248954.93686199188,-3049357.1758270264,5053853.988647461,6174385.070800781,8246532.440185547,8172467.231750488,11310535.430908203,4474575.519561768,9479649.543762207
0.33,-28486955.642700195,-20263736.724853516,-14422472.953796387,-9033997.535705566,-10854947.090148926,-2063410.5205535889,-2763030.529022217,-1665094.1371917725,-5365730.285644531,-5741265.296936035,-4332582.473754883,-8419035.911560059,-8458331.108093262,1468675.7326126099,-2217755.079269409,6086065.292358398,-670294.8808670044,5514859.199523926,-6397301.197052002,-26098.77474606037,6188353.061676025,6828317.165374756,8686828.61328125,3119839.1914367676,8199425.69732666,7197405.815124512,1952818.8705444336,-3144898.6530303955,-2281716.5851593018,6109614.849090576,7882084.846496582,719375.1931190491,8972141.26586914,14459333.419799805,2373255.729675293,2446412.5633239746,300943.4938430786,-1310769.2003250122,980784.7142219543,11958643.913269043,4774596.214294434,2996173.620223999,3654270.887374878,5589478.492736816,2825108.766555786,-284596.41337394714,-1945803.0462265015,1197069.4065093994,3208028.793334961,7672896.385192871,-761343.0619239807,1803730.1301956177,6838247.776031494,-3192.6296651363373,-1886716.8426513672,5160503.387451172,6218194.007873535,8596703.52935791,8574100.494384766,11110256.19506836,4442945.0035095215,9409214.01977539
0.335,-16748971.939086914,-9460083.0078125,-3647851.9439697266,-2837746.1433410645,-5093103.885650635,3121241.0926818848,2849943.161010742,2468786.9548797607,-2350745.677947998,-3149518.0130004883,-3152220.2491760254,-3777522.563934326,-3790584.8026275635,6170662.403106689,3097628.8318634033,9988814.353942871,2902590.51322937,7512070.178985596,-5031184.673309326,567446.231842041,7112398.624420166,9282288.551330566,10967462.539672852,5389821.529388428,11275644.302368164,10623872.756958008,3577134.609222412,-3226129.7702789307,-2185335.159301758,6535214.424133301,8489229.202270508,1473417.4013137817,10411487.579345703,17141019.821166992,5063459.396362305,3140096.426010132,454055.63712120056,-1838800.7879257202,1282037.615776062,12596842.765808105,4830917.835235596,5215119.361877441,5985468.864440918,7039209.842681885,2874933.4812164307,-94711.43037080765,-1451601.7436981201,1650187.9692077637,3616255.760192871,8275003.433227539,1602833.0326080322,4200709.342956543,8641976.356506348,298727.8997898102,-565531.9094657898,6110089.302062988,6899426.460266113,10437211.036682129,10471820.831298828,11800088.882446289,5424962.043762207,11333041.191101074
0.34,-9567857.74230957,-3186817.8844451904,588396.7876434326,2593530.4164886475,-1598125.2193450928,5909061.908721924,6314647.674560547,6290163.040161133,790453.9704322815,-1319563.388824463,-2088308.572769165,-47910.31777858734,-72547.86789417267,9646256.446838379,6038483.619689941,13026228.904724121,5458962.917327881,9550640.106201172,-4495287.4183654785,890114.8438453674,7215091.705322266,10910809.516906738,12712496.757507324,6996177.673339844,13563363.075256348,13256854.057312012,5322208.404541016,-3727269.8879241943,-2331598.7586975098,6789684.772491455,8711614.608764648,1077804.446220398,11129878.044128418,19445413.58947754,7138812.54196167,4476476.669311523,529947.9961395264,-2626721.3821411133,872523.0693817139,12132007.598876953,3478665.590286255,6486550.331115723,7483053.684234619,8807286.262512207,4539698.123931885,140353.53064537048,-2135860.2046966553,601689.3982887268,2555598.497390747,7215856.075286865,1911292.0761108398,5509171.009063721,9141571.998596191,298158.8542461395,-1145152.9264450073,5703432.559967041,6544308.662414551,10952688.217163086,10959222.793579102,12044152.25982666,5733455.181121826,12597501.754760742
0.345,-12007254.600524902,-6246447.563171387,-4978070.259094238,3649064.779281616,-3181424.856185913,5939086.437225342,6416224.479675293,7664427.757263184,2562601.5663146973,-1020122.766494751,-1542881.0119628906,-214246.7349767685,-368325.9189128876,6516163.8259887695,6031357.288360596,13499087.3336792,5520301.818847656,10800907.135009766,-4330471.038818359,1206487.6556396484,6713713.645935059,9350499.153137207,10107350.34942627,6420811.653137207,13100565.910339355,13304048.538208008,5941851.1390686035,-3646679.8782348633,-2169829.1301727295,6337318.420410156,7361306.190490723,-1974942.5649642944,9428893.089294434,18872987.747192383,5963989.2578125,5150380.611419678,545151.5316963196,-2232722.043991089,19269.57629621029,10453356.742858887,589558.9590072632,5090462.207794189,6269299.507141113,8651786.804199219,5516512.870788574,219546.45216464996,-3303103.20854187,-1491187.0956420898,552845.7164764404,4724004.745483398,-89287.24378347397,4308341.503143311,7550039.291381836,81018.66394281387,-3198541.6412353516,3748869.4190979004,4915045.261383057,9328600.883483887,9308011.054992676,12059128.761291504,4919833.183288574,11983478.546142578
0.35,-15006160.736083984,-10331155.776977539,-10641883.850097656,3244102.2396087646,-5524712.562561035,7374339.1036987305,6689925.670623779,8284711.837768555,3875661.611557007,-91662.98806667328,-423112.154006958,-2441944.8375701904,-2727039.337158203,-1543718.934059143,7249764.442443848,13850939.750671387,5017685.413360596,12081247.329711914,-2765897.750854492,2487404.3464660645,6889285.087585449,6319589.138031006,4421443.462371826,6152090.072631836,12288632.3928833,12668883.323669434,6218413.829803467,-1997413.158416748,-1433161.1394882202,5396109.580993652,5362378.120422363,-5870373.725891113,7808159.351348877,17059333.80126953,3587197.780609131,5017341.136932373,552102.3869514465,-851301.0144233704,-969205.1410675049,8562788.009643555,-2023448.4672546387,3317535.161972046,4570342.540740967,7552892.208099365,4560485.83984375,172600.8653640747,-4781218.528747559,-3536613.2259368896,-1354892.4922943115,2901026.0105133057,-1207976.5796661377,2910396.5759277344,6009275.436401367,-42312.394827604294,-4711018.5623168945,1911165.714263916,3249886.989593506,7643848.419189453,7770502.090454102,13096807.479858398,4010657.31048584,10588463.78326416
0.355,-8418138.50402832,-5341279.50668335,-6430459.499359131,6084900.379180908,-3171360.0158691406,12765829.086303711,10360141.75415039,10867843.627929688,6487127.304077148,3740916.0137176514,2402289.628982544,-2385378.122329712,-2650339.126586914,-6979187.01171875,12483273.50616455,17108343.12438965,6650764.942169189,14791007.041931152,1307122.2305297852,5343408.107757568,8550343.51348877,5323561.668395996,755302.906036377,8995361.328125,14199945.449829102,14264199.256896973,7889809.608459473,1052316.9040679932,-218204.2896747589,4585209.369659424,4393902.778625488,-8209391.5939331055,9311780.92956543,17236505.50842285,3930617.332458496,5252345.085144043,577249.6461868286,-443199.7835636139,-2008941.888809204,7207953.929901123,-3759405.3745269775,3662214.517593384,4911031.723022461,7878602.981567383,3072535.0379943848,127684.65280532837,-6676550.86517334,-5304915.904998779,-3144475.6984710693,2500768.8999176025,46728.86058688164,3158254.1465759277,5884425.640106201,-29978.21196913719,-5074067.115783691,910580.8734893799,2079458.7135314941,7289091.110229492,7720977.783203125,14752874.374389648,3405314.2070770264,9232586.860656738
0.36,1359332.3230743408,3887750.3871917725,2379484.4150543213,10123922.348022461,1081175.0888824463,18216316.22314453,14808968.544006348,14229380.60760498,9272897.720336914,8206813.812255859,5094396.114349365,-178603.20210456848,-299950.2718448639,-6428953.647613525,18006338.119506836,21560226.440429688,9757715.225219727,18102844.23828125,5762352.94342041,8143083.572387695,10125721.93145752,6503416.538238525,1100816.4882659912,12904993.057250977,17469276.428222656,17374853.134155273,10573780.059814453,3636366.605758667,825940.4897689819,4103034.496307373,4432765.483856201,-9168025.970458984,12234670.639038086,19020954.132080078,6695432.662963867,6284663.677215576,650077.4025917053,-1827490.0913238525,-2624774.932861328,6431906.700134277,-5569844.2459106445,4750455.379486084,5962549.686431885,9106917.381286621,2859424.829483032,120605.75187206268,-8049225.807189941,-6743406.772613525,-4850679.397583008,2303024.5304107666,1028620.2430725098,3430711.7462158203,5846594.81048584,-58282.10338950157,-5219382.762908936,4950.737580657005,889313.1017684937,7113339.900970459,7745101.451873779,15119654.655456543,2392392.635345459,7365029.335021973
0.365,2974.8256783932447,4005885.124206543,3084964.5137786865,8939708.709716797,3379.9537923187017,18272163.39111328,14866676.330566406,14371487.617492676,8788139.343261719,8058633.804321289,4346739.292144775,-179070.94955444336,-165543.37739944458,-3776333.808898926,18290330.88684082,22606254.57763672,10960687.637329102,18928459.16748047,6382818.698883057,7857860.565185547,9198333.740234375,6870470.04699707,2638851.1657714844,13317718.505859375,18108787.536621094,18421005.249023438,11653358.459472656,3584691.286087036,559822.9169845581,3727516.6511535645,4316140.651702881,-9873582.83996582,12252352.714538574,19098695.755004883,7559885.9786987305,6862145.42388916,770373.284816742,-3348833.5609436035,-2169359.6839904785,6365510.4637146,-6941057.205200195,3705617.666244507,4888584.136962891,8517684.936523438,3680178.8806915283,127437.41273880005,-7410271.644592285,-6860912.799835205,-5286818.027496338,1649390.8166885376,-693032.6223373413,1759894.4902420044,4589593.410491943,-121737.50251531601,-5234216.213226318,-798416.0780906677,-62984.31009054184,5942474.365234375,6471668.720245361,13692333.221435547,958175.5995750427,5100452.423095703
0.37,-6747308.731079102,-713484.6448898315,506806.01596832275,4492605.686187744,-3306340.217590332,15090049.743652344,12070823.669433594,11675612.449645996,5418049.335479736,3391669.511795044,1668360.2333068848,-1528806.6864013672,-1438849.2107391357,-625156.7006111145,15300980.567932129,20197462.08190918,9441602.70690918,16342569.351196289,2397682.4283599854,4538277.626037598,6953196.048736572,6492595.195770264,4187737.464904785,10087882.995605469,15781576.156616211,16461099.624633789,10112804.412841797,1058851.1228561401,-1123363.6140823364,3841984.748840332,4636489.391326904,-9070208.549499512,8781686.782836914,16643510.818481445,4765856.742858887,5941331.86340332,860642.9696083069,-3142312.526702881,-705059.5283508301,7696498.870849609,-5604190.826416016,677393.6748504639,1909178.1377792358,5810988.903045654,4038908.004760742,174966.42470359802,-4881976.127624512,-4750270.366668701,-3278618.335723877,1584337.4729156494,-3777123.6896514893,-912576.5562057495,2827345.132827759,-32147.92162179947,-4175671.100616455,-329870.3730106354,296007.54380226135,4356359.004974365,4624511.71875,11863759.04083252,83043.03884506226,3829998.49319458
0.375,9049227.714538574,15623270.034790039,19059963.22631836,9700014.114379883,5886822.22366333,17763784.408569336,15477284.43145752,13095246.315002441,5787844.657897949,2526431.083679199,4384088.99307251,4547518.253326416,4677430.152893066,8976516.723632812,18029006.958007812,20302284.240722656,9076227.188110352,14438899.040222168,-726861.0000610352,3215075.4928588867,8528676.03302002,10193591.117858887,9296042.442321777,7965738.296508789,14569055.557250977,14981675.148010254,8742410.659790039,-807322.2637176514,-1945182.204246521,5594625.473022461,7592263.221740723,-4813277.244567871,5331638.336181641,14456880.569458008,1986939.6686553955,4472241.401672363,860712.3494148254,-1288800.3587722778,1133227.1099090576,10662004.470825195,-1753307.580947876,-2075179.100036621,-657816.2312507629,3752499.81880188,3367962.598800659,285508.00681114197,-2555958.9862823486,-1566012.978553772,67302.29407548904,2546249.3896484375,-6349154.949188232,-3193267.1070098877,914578.9742469788,189475.20852088928,-2650449.752807617,985571.4440345764,1203447.8187561035,2458542.585372925,2617325.0675201416,9915310.859680176,-637134.9096298218,3229307.8899383545
0.38,58824592.59033203,64759437.561035156,68073692.32177734,31236103.057861328,33108341.217041016,29835573.196411133,29222335.815429688,23169317.2454834,14801601.40991211,11875554.084777832,16275615.692138672,21807342.529296875,21935928.344726562,27523641.58630371,30034177.780151367,26424798.9654541,13280050.277709961,17800502.77709961,2851143.8369750977,8266362.190246582,16360492.706298828,19798311.233520508,19077871.322631836,9238393.783569336,16595127.10571289,16836988.44909668,10656180.381774902,902438.0445480347,669969.916343689,9255812.644958496,12929655.075073242,722044.2295074463,3593537.0922088623,14064332.962036133,2888721.9429016113,4163253.7841796875,842233.7770462036,1061614.0365600586,3026524.543762207,13868977.546691895,224295.36283016205,-4411033.153533936,-2733874.0825653076,3685204.267501831,2233349.323272705,370400.2797603607,-2026837.5873565674,-144378.70681285858,1754649.4007110596,2391722.9175567627,-9854579.92553711,-6501202.583312988,-3021551.3706207275,244706.30288124084,-3271576.166152954,45118.775218725204,-573353.3501625061,-1638220.4294204712,-1355948.0905532837,5885491.371154785,-3664238.214492798,12773.77549558878
0.385,110140396.11816406,116169113.15917969,116863487.24365234,55287342.0715332,60220184.326171875,41833892.822265625,43462482.45239258,35433181.76269531,26997436.5234375,25340145.111083984,29830522.537231445,38470375.061035156,38577678.68041992,43447807.31201172,41919242.85888672,33173191.07055664,19418455.123901367,24601633.071899414,11184878.3493042,16560483.932495117,25049646.377563477,28227294.921875,26292964.935302734,10005791.664123535,18394037.2467041,19866264.34326172,14603281.97479248,5100220.680236816,5477913.856506348,12866028.785705566,16293775.55847168,1918008.4466934204,1386618.6141967773,13233389.854431152,5608593.463897705,5030055.522918701,915667.8318977356,3278710.36529541,4693124.771118164,14956165.313720703,-3104954.719543457,-7970462.322235107,-6141070.84274292,3556261.5394592285,1111816.8830871582,316188.87186050415,-2552094.6979522705,-2093625.783920288,17715.400084853172,-1353124.499320984,-15965334.89227295,-12270945.54901123,-9684471.130371094,-12592.150829732418,-7103251.4572143555,-5127779.960632324,-6610279.560089111,-8411463.737487793,-7977372.169494629,-743594.7060585022,-9881359.100341797,-7505631.923675537
0.39,118764564.51416016,126026580.81054688,124285972.59521484,60951896.66748047,63701519.01245117,41701488.49487305,44582180.02319336,38678794.860839844,31459104.537963867,30240077.97241211,33542583.465576172,39123935.69946289,39278728.48510742,42104938.50708008,41722553.25317383,32747211.456298828,21517381.66809082,27927263.259887695,16065467.834472656,20091466.903686523,26716058.7310791,26947008.13293457,23056676.864624023,6431681.156158447,16090984.344482422,20047622.680664062,16266271.591186523,7563809.871673584,7648841.381072998,13709398.26965332,14064056.396484375,-3184775.3524780273,-2290019.750595093,10264523.50616455,5635212.421417236,5541923.522949219,1037612.3189926147,4852979.66003418,5004148.960113525,12845738.410949707,-9086753.845214844,-11815958.023071289,-10048677.444458008,1828797.698020935,254636.9433403015,160324.46920871735,-2593678.2360076904,-5971732.139587402,-3773711.4429473877,-7540714.263916016,-21675848.00720215,-17469707.489013672,-15134470.93963623,-325799.6737957001,-11313292.503356934,-11637922.286987305,-13290365.219116211,-13824570.655822754,-13372545.24230957,-6156872.272491455,-15722251.892089844,-15115118.026733398
0.395,83438461.30371094,91393859.86328125,89589416.50390625,46271179.19921875,44097679.138183594,30421613.693237305,32801761.627197266,31408636.09313965,25560276.03149414,23543115.615844727,26097589.49279785,25294105.529785156,25545482.635498047,25614479.064941406,30494058.60900879,25977584.838867188,18175779.342651367,24819482.803344727,13507416.725158691,16038148.880004883,20800317.764282227,17681247.71118164,12370922.088623047,1380041.9569015503,11647487.64038086,17546504.974365234,14264024.73449707,6171980.857849121,4689807.415008545,11190630.912780762,8351552.963256836,-9780850.410461426,-4214954.376220703,7788302.421569824,2742028.23638916,5189060.688018799,1069970.6077575684,4708365.440368652,2791529.417037964,8817358.016967773,-12307461.738586426,-12301108.360290527,-10676087.379455566,554279.4466018677,345012.99262046814,80235.49616336823,-2392634.868621826,-9037467.956542969,-6913286.6859436035,-11760287.284851074,-22056371.688842773,-17287397.384643555,-14562199.592590332,-350982.2487831116,-12414123.53515625,-14383354.187011719,-15211060.523986816,-13237406.730651855,-12825936.317443848,-5963031.29196167,-16654085.159301758,-16682577.133178711
0.4,46271305.084228516,53331047.05810547,52919437.408447266,29895565.032958984,24487661.361694336,20711091.995239258,21884149.5513916,23742050.170898438,18064208.984375,15313641.548156738,17334262.84790039,14004759.788513184,14161718.368530273,11175113.677978516,20909917.8314209,21466501.235961914,14307600.021362305,20262596.130371094,8747426.03302002,10341376.304626465,14534302.711486816,10580904.960632324,5059282.302856445,784433.901309967,10373044.01397705,16388685.22644043,12067264.556884766,3737937.9272460938,254328.8767337799,7526956.558227539,4495433.330535889,-12664654.731750488,-1577742.338180542,9242903.709411621,1335180.5210113525,5282403.469085693,1025998.2347488403,2524564.743041992,-1088369.2502975464,5126001.358032227,-11991798.400878906,-8428540.229797363,-6807648.181915283,2183787.1074676514,1794781.3272476196,201159.71565246582,-3626935.2436065674,-10183815.002441406,-8285019.874572754,-11222447.395324707,-17397010.803222656,-12142451.286315918,-9114761.352539062,-58341.17531776428,-10835331.916809082,-12246147.155761719,-11929342.269897461,-7906726.360321045,-7474291.3246154785,-1134932.279586792,-13068393.70727539,-12072815.895080566
0.405,36859783.17260742,42377941.1315918,42651107.78808594,25449886.322021484,19565227.508544922,20011753.08227539,20531335.830688477,23286661.14807129,16753171.920776367,14275402.069091797,14647815.704345703,14827252.388000488,14562344.551086426,8477045.059204102,20292411.80419922,23611564.63623047,14201866.149902344,20045528.411865234,8603784.561157227,9508319.854736328,13334691.047668457,10634691.23840332,5369356.632232666,4982844.352722168,13321225.1663208,18404933.92944336,12919210.433959961,4334472.179412842,-341295.063495636,5405166.149139404,4420291.900634766,-12738046.646118164,3186527.967453003,13410802.841186523,3803264.1410827637,6684224.605560303,1089698.9107131958,10798.9851385355,-3811816.930770874,3119787.6930236816,-12111159.324645996,-4010489.9406433105,-2290048.837661743,5347756.385803223,3478639.841079712,483275.443315506,-6656332.015991211,-10266043.663024902,-8630206.108093262,-7726240.158081055,-13164385.795593262,-7739742.279052734,-5003067.970275879,322401.0169506073,-9977519.035339355,-9073261.260986328,-8395614.624023438,-3872842.788696289,-3415490.6272888184,2891627.311706543,-9879889.488220215,-7281562.805175781
0.41,39959735.87036133,44584728.2409668,44689857.482910156,26057973.861694336,20297052.38342285,21982219.696044922,22426544.189453125,25568561.553955078,18752506.256103516,16956022.262573242,14881582.260131836,18969205.856323242,18279640.197753906,9472514.152526855,22244724.27368164,27013912.200927734,16056289.672851562,22941432.95288086,12378003.120422363,12449872.970581055,14953947.067260742,12320872.30682373,6791234.970092773,8076498.031616211,15889254.570007324,20644868.850708008,15297952.651977539,7936343.669891357,2907377.9582977295,5562218.189239502,5405209.064483643,-13922840.118408203,5315782.070159912,15740137.100219727,6859487.533569336,8111196.517944336,1334355.7119369507,-769435.7633590698,-3505938.2915496826,3007895.2312469482,-14143087.387084961,-2737649.2023468018,-1106844.6636199951,6516147.613525391,3573238.3728027344,785513.5798454285,-9503582.954406738,-9955091.47644043,-8447369.575500488,-4708563.327789307,-12403532.981872559,-7385139.465332031,-5206618.309020996,618189.0368461609,-11002233.505249023,-7979118.824005127,-7951834.201812744,-3950616.3597106934,-3589657.3066711426,3383606.433868408,-9871415.138244629,-6059890.270233154
0.415,27506069.18334961,32047042.846679688,32722126.007080078,19108850.479125977,12880712.509155273,17366533.279418945,17886627.197265625,22108102.798461914,16551736.831665039,14955401.420593262,11646498.680114746,14716493.606567383,14108251.571655273,3789328.5751342773,17559362.411499023,24634670.25756836,15117769.241333008,23083150.86364746,13684266.090393066,13164401.054382324,14350583.07647705,9241402.626037598,3238376.8558502197,5861192.226409912,14130505.561828613,19600879.669189453,15295068.740844727,10468089.10369873,4931764.125823975,6551414.489746094,4901387.691497803,-16323999.404907227,3717701.6735076904,14333312.98828125,6080680.847167969,7764592.170715332,1560672.7600097656,-29246.265068650246,-1347844.123840332,4415467.262268066,-14432449.340820312,-3753707.4089050293,-2520611.524581909,4836466.7892456055,1992678.4038543701,955070.7936286926,-9957299.23248291,-8686778.06854248,-7092504.501342773,-2978557.348251343,-12441462.516784668,-8249275.207519531,-6020189.28527832,809690.3562545776,-11114550.590515137,-7478113.174438477,-8112512.588500977,-4583387.37487793,-4404373.1689453125,3342028.6178588867,-10401387.214660645,-5553437.232971191
0.42,19450.977444648743,5105851.650238037,7459201.812744141,5308602.809906006,-1033423.7813949585,6734257.221221924,7519076.347351074,12491487.503051758,8767492.294311523,7084403.038024902,4497126.579284668,3629429.578781128,3611466.884613037,-6264631.271362305,6833262.4435424805,16688756.942749023,9743682.861328125,17946073.532104492,9151149.74975586,8845108.032226562,10311597.82409668,2706821.2032318115,-2823214.054107666,501462.6383781433,9122119.903564453,15344827.651977539,11741108.894348145,8798199.653625488,2351233.0055236816,6230242.729187012,3183628.797531128,-16964921.951293945,1086244.4639205933,11475386.619567871,1694088.2205963135,5712001.323699951,1528507.947921753,230936.36333942413,-35189.9154484272,6282436.370849609,-10579099.655151367,-4231091.499328613,-3389443.3975219727,2684572.696685791,779022.9916572571,893900.7520675659,-7772064.208984375,-6087421.417236328,-4292486.667633057,-1160015.58303833,-10423848.152160645,-6865896.224975586,-3527093.8873291016,910796.1058616638,-7763106.822967529,-4867392.063140869,-5267317.295074463,-2088285.207748413,-2027264.11819458,6094945.907592773,-8086995.1248168945,-2176858.901977539
0.425,-21201999.66430664,-14751309.394836426,-11111580.848693848,-5711909.770965576,-11471004.486083984,-2354470.96824646,-1384824.9912261963,3033923.1491088867,20296.56060039997,-1409231.9011688232,-3048001.289367676,-5218118.190765381,-4753369.8081970215,-12436997.413635254,-2408578.634262085,8374176.979064941,2159826.0402679443,10390172.004699707,1461142.659187317,1958003.044128418,4910901.5464782715,-2438479.6619415283,-6319971.084594727,-3619882.583618164,4141560.5545043945,10168093.68133545,6719699.859619141,3892030.715942383,-2815940.1416778564,3640526.533126831,1021994.7099685669,-15847265.243530273,-706686.0795021057,9378466.606140137,-2405995.6073760986,3457434.65423584,1273954.5106887817,-850629.1508674622,-642251.5511512756,7167408.466339111,-6102031.230926514,-3971004.009246826,-3141548.3951568604,1818119.1682815552,1513512.134552002,664791.2263870239,-4260036.945343018,-3056360.4831695557,-1153465.2709960938,1068414.9265289307,-7900579.929351807,-4425276.279449463,336742.43092536926,939492.8216934204,-2276684.284210205,-893318.4742927551,-582290.6494140625,1672955.5130004883,1717207.0741653442,10033591.270446777,-4010411.262512207,2165113.687515259
0.43,-25485982.89489746,-17396949.768066406,-13745580.673217773,-9807387.351989746,-15421725.273132324,-5398890.018463135,-5200275.897979736,-2059618.2346343994,-5931589.603424072,-7036309.719085693,-9024987.22076416,-8354484.558105469,-8025711.0595703125,-12935447.692871094,-5623032.569885254,3207440.137863159,-4378124.713897705,4313990.116119385,-4983607.769012451,-3801105.9761047363,90786.70293092728,-4683507.442474365,-6661766.052246094,-4943314.075469971,870374.4411468506,5789349.07913208,2419271.70753479,-965770.7214355469,-6443588.2568359375,227674.76737499237,-1515728.9505004883,-15837557.792663574,-1951006.6509246826,7790964.603424072,-3821151.7333984375,1862773.6568450928,1091771.7218399048,-2097828.3882141113,-1704412.1026992798,6992918.968200684,-5202827.930450439,-4578922.271728516,-3463696.002960205,1647701.1442184448,3370802.879333496,522352.75506973267,-678951.2038230896,-545859.2772483826,1228440.4039382935,2743104.6962738037,-7379215.240478516,-3794466.495513916,1323263.7643814087,985448.0624198914,2131133.794784546,1624630.093574524,2105880.4988861084,2703217.9832458496,2734591.245651245,11451444.625854492,-1743407.964706421,3344889.1639709473
0.435,-15450364.112854004,-7049407.482147217,-3551299.3335723877,-7808030.128479004,-13674845.695495605,-2464550.733566284,-3755856.0371398926,-2121346.2352752686,-7482604.026794434,-9009654.998779297,-11494108.200073242,-6752150.535583496,-6958799.839019775,-9577314.376831055,-2714269.1612243652,2490986.3471984863,-6797515.392303467,1848290.9202575684,-7728582.382202148,-6109450.817108154,-2133087.8734588623,-4127655.506134033,-4525959.014892578,-4047986.0305786133,-9283.985011279583,3697470.4265594482,-73780.357837677,-3420382.499694824,-6841257.095336914,-1004018.1875228882,-2802503.1089782715,-16471729.278564453,-2483085.3939056396,6476647.37701416,-3412744.7605133057,774680.495262146,1189068.31741333,-2452434.301376343,-1251094.102859497,7779154.7775268555,-6023768.901824951,-5726716.995239258,-4442189.2166137695,1464093.2083129883,4471084.117889404,674447.774887085,2178289.8902893066,1719423.2940673828,3181397.4380493164,3968507.5283050537,-7851590.156555176,-4408196.449279785,-396684.55719947815,1125917.1962738037,4289798.259735107,2232474.3270874023,2326983.2134246826,1137163.9966964722,1129661.5600585938,10295871.73461914,-2061876.5354156494,1676519.0362930298
0.44,9836712.837219238,16765911.102294922,21086145.401000977,3100590.944290161,-1396087.1696472168,6344573.974609375,4944546.699523926,4212417.125701904,-2357715.368270874,-4957435.131072998,-5916008.949279785,1762159.4667434692,1278859.1384887695,210490.10753631592,6270365.7150268555,7755188.465118408,-2727910.280227661,4152898.3116149902,-5839482.78427124,-3533685.9226226807,1112107.8729629517,1246676.6834259033,2286150.4554748535,-1213581.8004608154,2601802.349090576,5861676.216125488,373481.9293022156,-2965531.11076355,-4961025.714874268,1593419.4326400757,201803.74383926392,-13446963.3102417,-1280768.632888794,6776999.473571777,-2639844.6559906006,310697.8237628937,1420541.8825149536,-2404503.82232666,830696.9404220581,10982753.75366211,-3820281.0287475586,-5596745.014190674,-4414134.979248047,1776522.0403671265,4213853.359222412,969022.6912498474,3406325.578689575,3923919.916152954,5100286.483764648,5449188.232421875,-7240555.763244629,-3933405.3993225098,-1250449.299812317,1243120.0742721558,4936150.074005127,2512836.9331359863,2587968.349456787,218715.66772460938,240058.64560604095,9346644.401550293,-2894582.0331573486,643238.90209198
0.445,50138721.46606445,55892295.837402344,61196941.37573242,24705429.077148438,23791517.25769043,19785621.643066406,20942718.505859375,17107208.251953125,9807602.882385254,6597501.277923584,9024552.345275879,18249893.188476562,18063493.728637695,17904594.42138672,19903036.11755371,18304813.385009766,6764721.393585205,10942427.635192871,240148.8423347473,3589179.754257202,10049930.572509766,11666516.304016113,13661817.55065918,2740401.029586792,8298278.80859375,12244813.919067383,4353498.935699463,-312050.34255981445,-2225475.788116455,6230352.401733398,7218110.56137085,-6156805.038452148,947852.2539138794,9041038.513183594,-1649867.6538467407,1107342.004776001,1431810.8558654785,-2679135.56098938,2605340.003967285,14505507.469177246,772974.5507240295,-4423045.1583862305,-3344760.8947753906,2726144.790649414,3454479.694366455,992853.2242774963,2202127.9335021973,4377788.543701172,5458092.212677002,5653994.083404541,-6787380.695343018,-3046029.567718506,-544911.1461639404,1084687.7098083496,3853683.4716796875,2012883.9015960693,2686699.867248535,540837.6455307007,685057.8784942627,8867808.34197998,-3692276.7162323,361413.3298397064
0.45,86452438.35449219,93557899.47509766,98391777.03857422,46454692.84057617,48528141.021728516,31240869.522094727,35552665.71044922,29923011.779785156,22439449.310302734,19744001.388549805,24846553.802490234,33949710.845947266,34332866.66870117,34252342.224121094,31375816.345214844,27775554.656982422,15590958.595275879,18392208.099365234,7210339.069366455,11281688.690185547,19233396.530151367,20919851.303100586,22332479.47692871,5209088.325500488,13312357.902526855,18592830.657958984,9684987.06817627,2776721.954345703,109880.4771900177,9367000.579833984,12956244.468688965,-687061.3098144531,1698631.4058303833,10780443.19152832,-506455.0042152405,3007074.1176605225,1098748.9223480225,-2852156.162261963,2216435.9092712402,14607192.993164062,2100306.749343872,-4448068.618774414,-3270165.6818389893,3162289.85786438,3072467.32711792,589506.6857337952,-904682.457447052,1304843.544960022,2445744.9913024902,2050408.124923706,-8950159.072875977,-4345298.767089844,-1062548.9950180054,612529.2181968689,184802.24907398224,-1446833.1336975098,-445923.5966205597,-327310.2343082428,-100964.7399187088,6497720.241546631,-6024218.559265137,-2390976.4289855957
0.455,91213607.78808594,101499435.42480469,104590377.80761719,51189960.47973633,52896869.65942383,32340888.97705078,37137519.83642578,32663917.541503906,25761817.932128906,24082267.76123047,29353086.471557617,36327060.69946289,37089733.1237793,35978176.11694336,32410781.860351562,28495353.69873047,17140817.642211914,20813379.287719727,10087182.04498291,14008219.718933105,21777162.551879883,21666896.82006836,20971616.744995117,4096465.587615967,13422835.350036621,19690351.486206055,12218216.896057129,3861273.0503082275,577977.5381088257,9313142.776489258,12786485.67199707,-2187349.319458008,77940.99301099777,9503629.684448242,-273718.77431869507,4649060.7261657715,747257.4710845947,-2304824.113845825,-15879.683196544647,10902242.660522461,-1778474.5693206787,-6164177.894592285,-4867156.505584717,2433540.3442382812,3371214.6282196045,127805.59062957764,-3744896.173477173,-3645550.489425659,-2415712.1181488037,-3916046.142578125,-12273897.171020508,-7154851.43661499,-3298820.2571868896,180410.53414344788,-4352681.636810303,-6790252.208709717,-6292884.349822998,-2549631.5956115723,-2386161.8041992188,2718657.4935913086,-9388737.678527832,-7385103.225708008
0.46,60207172.39379883,72733406.06689453,74957107.54394531,34712650.299072266,33819374.084472656,21991437.911987305,24438402.17590332,23102151.87072754,17384941.10107422,16250967.025756836,20082941.05529785,24237239.837646484,25057771.682739258,22031299.591064453,22138298.03466797,19925586.700439453,11001787.185668945,16354461.669921875,6915870.666503906,10120682.716369629,16657386.779785156,14434635.162353516,11851835.250854492,411781.57925605774,8538148.880004883,15053977.966308594,10152049.06463623,1735050.6782531738,-1528221.9648361206,7258600.71182251,8139347.076416016,-7942811.965942383,-2121449.4705200195,6011687.755584717,-1696788.9070510864,4908660.411834717,784013.8077735901,-1615339.1599655151,-1889072.7758407593,7157729.625701904,-5902566.432952881,-7460256.099700928,-6269588.947296143,1558734.5361709595,4288887.023925781,78710.10154485703,-4200380.802154541,-6133255.958557129,-4822474.002838135,-6740406.036376953,-12654236.793518066,-7675391.19720459,-3842838.764190674,185818.56787204742,-5730815.410614014,-9105293.273925781,-9219317.436218262,-2859704.9713134766,-2796291.8281555176,1730298.638343811,-10239901.542663574,-9524234.771728516
0.465,18381349.563598633,30946455.001831055,34697750.091552734,11323187.828063965,8749453.5446167,7878045.558929443,8232238.76953125,10036355.018615723,5482907.295227051,4272775.173187256,7111399.173736572,9315158.84399414,10059562.683105469,4837586.402893066,8232326.507568359,9496967.315673828,3409885.6449127197,9580836.296081543,1310513.8540267944,3837587.356567383,9444366.455078125,6582456.588745117,3604620.4566955566,-3112858.533859253,2781978.6071777344,9538334.846496582,6315940.856933594,-1796479.4635772705,-4739462.375640869,5148538.589477539,3823530.673980713,-11553875.923156738,-3416704.4162750244,3151928.424835205,-3763135.9100341797,4132373.809814453,1126616.5971755981,-1811896.9202041626,-1730614.7813796997,6377032.279968262,-5745379.92477417,-7157353.87802124,-6200366.973876953,1469542.384147644,5114573.955535889,427464.72358703613,-2346537.8284454346,-4440481.185913086,-3019476.890563965,-4010997.2953796387,-9538730.62133789,-4850594.520568848,-1106220.7221984863,558528.4233093262,-2718313.217163086,-6257753.849029541,-6253790.855407715,-46439.893543720245,64943.090081214905,4979024.410247803,-7136544.227600098,-6240217.208862305
0.47,-9542459.487915039,2119147.0623016357,8739005.088806152,-2793772.9358673096,-5447351.455688477,-1711435.7948303223,-1087662.1007919312,3360315.3228759766,-387058.22825431824,-1729017.8537368774,1326233.148574829,1498597.264289856,2207257.5092315674,-5058448.314666748,-1270238.5187149048,4439172.744750977,524668.0974960327,6758377.0751953125,-1188294.0530776978,754521.1911201477,5852160.453796387,2988482.4752807617,103196.05469703674,-5064700.603485107,158426.71692371368,7955636.978149414,5025596.618652344,-3249270.20072937,-6313440.322875977,3918416.738510132,1808585.6437683105,-11317190.170288086,-4342320.442199707,2344290.018081665,-4628725.051879883,3560836.7919921875,1251772.403717041,-2708005.905151367,-69690.65964221954,7225081.920623779,-3493798.25592041,-6819584.846496582,-5958355.42678833,1438738.3460998535,4531872.749328613,730107.7246665955,-475999.4149208069,-2064375.1621246338,-558380.4845809937,-514506.7572593689,-6958340.167999268,-2343795.2995300293,1312622.7855682373,795360.9228134155,533741.4741516113,-2830276.2508392334,-2367647.647857666,2220605.1349639893,2529753.4465789795,7807919.502258301,-3954090.356826782,-2023056.983947754
0.475,-20518423.080444336,-9417097.091674805,-1205262.303352356,-4867684.364318848,-7979763.984680176,-4605527.877807617,-2586582.899093628,4421857.833862305,1327480.3161621094,188321.51591777802,3739833.116531372,59559.84070897102,749800.443649292,-8294880.8670043945,-4328183.650970459,5335299.491882324,2796406.030654907,9446921.348571777,1211200.9525299072,2336116.075515747,6651832.103729248,2179769.992828369,-1743913.0544662476,-5775103.569030762,1171038.031578064,10513372.421264648,7431926.727294922,-1147135.0193023682,-5061281.204223633,3768744.468688965,526133.0604553223,-10650232.315063477,-5429416.656494141,2863882.541656494,-3693153.3813476562,3910431.146621704,906267.0469284058,-3100466.251373291,1407377.9582977295,6725606.918334961,-4077542.304992676,-7985416.412353516,-7074205.39855957,435137.15267181396,2139623.8803863525,712329.0300369263,-593397.0808982849,-3193558.931350708,-1746076.5838623047,-2035981.6551208496,-7722239.017486572,-3254246.950149536,-250029.8023223877,578636.7058753967,-645751.2378692627,-4202423.095703125,-3890679.121017456,538034.0814590454,1013215.184211731,5697046.279907227,-5063024.520874023,-2351162.4336242676
0.48,-23343423.84338379,-12945257.186889648,-5827669.620513916,-2575390.8157348633,-7344890.594482422,-3878294.9447631836,-1559600.9492874146,7408192.6345825195,4811830.997467041,4085629.940032959,7298856.258392334,-393654.34646606445,196017.39943027496,-10287642.478942871,-3858199.119567871,7700667.858123779,5777522.087097168,13429775.23803711,4987246.990203857,5214820.384979248,8568273.544311523,1065619.1110610962,-4644646.644592285,-6110316.753387451,3136459.3505859375,13583861.351013184,10651506.423950195,2115311.622619629,-2811838.8652801514,4449254.989624023,-1177610.8741760254,-12055050.84991455,-5961099.624633789,3542029.619216919,-2217999.219894409,4711470.127105713,492232.88893699646,-2515558.4812164307,1980267.4055099487,4668534.278869629,-7927914.142608643,-9724038.124084473,-8843636.512756348,-1053513.4077072144,-276151.4186859131,554164.3500328064,-2001080.9898376465,-6919780.731201172,-5641046.524047852,-7227676.868438721,-9971096.992492676,-5815607.070922852,-3816544.2943573,192627.415060997,-5143194.198608398,-8778516.76940918,-9278993.606567383,-2968356.3709259033,-2481885.9100341797,1055311.7990493774,-8964275.360107422,-6051463.1271362305
0.485,-23514312.744140625,-14741896.629333496,-10155397.415161133,-3059186.4585876465,-8977193.832397461,-3935772.657394409,-2746811.628341675,6684953.212738037,3981874.2275238037,3603331.5658569336,5686061.859130859,-2268379.4498443604,-1843143.7015533447,-13274630.546569824,-4062897.6821899414,7139991.760253906,4769558.429718018,13211130.142211914,4918262.004852295,4979811.668395996,7967854.4998168945,-1186410.3078842163,-7633250.2365112305,-7259580.135345459,2735703.468322754,13488462.448120117,10816139.221191406,2561051.607131958,-2657943.7255859375,4737437.2482299805,-2727966.070175171,-14572628.021240234,-5885023.593902588,3600438.117980957,-2060205.2211761475,4740164.279937744,492146.8198299408,-1838926.911354065,2260321.617126465,3385699.74899292,-11071159.362792969,-10271204.948425293,-9574531.555175781,-1767742.1569824219,-237970.2925682068,516816.25843048096,-1943101.6445159912,-8236705.780029297,-7031939.0296936035,-9363182.067871094,-10597472.190856934,-6208625.793457031,-4421477.794647217,145052.76083946228,-7161442.279815674,-9929373.741149902,-11129357.33795166,-3481986.0458374023,-3080243.1106567383,66721.06683254242,-9891733.169555664,-7390672.206878662
0.49,-24006040.573120117,-17041898.727416992,-13909016.609191895,-8272089.958190918,-13532366.752624512,-7368688.583374023,-7667442.798614502,971500.6351470947,-2488050.699234009,-2739743.232727051,-1489665.2698516846,-5539856.910705566,-5211895.942687988,-16874683.380126953,-7515315.055847168,2610158.681869507,-1390662.0740890503,7070304.393768311,-1014345.5266952515,203582.86798000336,3537559.5092773438,-4289915.561676025,-9815943.717956543,-10005643.844604492,-1025584.2208862305,9436518.669128418,6531563.758850098,-1383309.1259002686,-5818010.330200195,3183212.0418548584,-3834246.1585998535,-16398109.436035156,-6380712.509155273,2735595.464706421,-3837398.2906341553,3116854.9060821533,755819.1418647766,-2089144.4683074951,2885230.541229248,4333155.632019043,-10702274.322509766,-9298885.345458984,-8757305.145263672,-1309236.1688613892,2589518.7854766846,545130.3124427795,1146736.0258102417,-4333391.6664123535,-3016485.4526519775,-5029321.670532227,-9041436.195373535,-3388756.75201416,-808380.6037902832,491083.62197875977,-3367395.4010009766,-4805440.425872803,-6190951.824188232,113786.9581580162,440914.124250412,4470158.100128174,-5223350.524902344,-3944271.8029022217
0.495,-28338111.877441406,-21935466.766357422,-18139556.884765625,-15698198.318481445,-19683643.341064453,-12409254.07409668,-14028710.36529541,-6654803.75289917,-10749532.699584961,-11166240.692138672,-9603208.541870117,-9807888.984680176,-9433593.75,-20351140.97595215,-12535202.980041504,-2928100.347518921,-9268229.484558105,-1421323.0609893799,-9569697.380065918,-6407164.573669434,-2688402.8911590576,-7669884.204864502,-11627665.519714355,-12601541.519165039,-5282368.6599731445,4168734.550476074,102404.88499403,-7414546.489715576,-10437350.273132324,240681.30552768707,-4754246.711730957,-16587648.391723633,-7016935.8253479,1935492.1579360962,-6071356.296539307,392436.8917942047,756085.6938362122,-3279247.045516968,3773417.7112579346,6857437.610626221,-7442857.74230957,-7215333.938598633,-6657191.276550293,107913.84428739548,6043167.1142578125,424820.4827308655,5548258.304595947,2266495.704650879,3711349.4873046875,2582127.809524536,-6221762.180328369,839596.8675613403,3734077.4536132812,785535.5739593506,3413623.094558716,2533952.9514312744,1250353.9323806763,4635064.601898193,4901492.118835449,10286815.643310547,1620808.6013793945,1352018.8331604004
0.5,-34681995.3918457,-27429859.161376953,-22230096.8170166,-19809276.580810547,-23712844.848632812,-13733012.199401855,-16589574.813842773,-10783562.660217285,-14751577.377319336,-15607734.680175781,-13094877.243041992,-12687199.592590332,-12200069.427490234,-21534067.153930664,-13828902.244567871,-4654661.178588867,-13130311.965942383,-6299101.35269165,-14720443.725585938,-10320631.980895996,-6594378.471374512,-9332254.409790039,-11769083.023071289,-11379239.082336426,-5577313.423156738,1947515.7260894775,-4091116.9052124023,-11525963.78326416,-13483640.670776367,-1610114.574432373,-4616757.869720459,-14455644.607543945,-5041172.504425049,3304594.039916992,-6374160.289764404,-1549042.1056747437,421545.74394226074,-4684301.853179932,4585788.249969482,9712305.068969727,-3075426.8169403076,-3964958.667755127,-3282019.61517334,2500695.4669952393,7922239.303588867,177342.87679195404,7941247.463226318,7022239.208221436,8425865.173339844,8597851.753234863,-2560724.2584228516,4684660.4347229,6308993.339538574,702398.7174034119,7972074.031829834,6878771.781921387,5901219.367980957,7330879.688262939,7488918.781280518,13793510.437011719,5865627.288818359,5176805.49621582
0.505,-34890495.30029297,-26602556.228637695,-21162750.244140625,-16260377.883911133,-21220125.198364258,-8628703.117370605,-12186955.451965332,-7890462.875366211,-11322759.628295898,-12676213.264465332,-10056422.233581543,-10498307.228088379,-9969785.690307617,-18029380.798339844,-8674344.062805176,-655988.0971908569,-9962731.36138916,-4353264.331817627,-12907330.513000488,-9204853.057861328,-5794173.717498779,-7337905.8837890625,-8011251.449584961,-5618998.5275268555,-843641.6387557983,4679211.139678955,-3123034.2388153076,-11366839.408874512,-13683428.764343262,-994051.2776374817,-2257216.9303894043,-10388975.143432617,211114.94302749634,7347580.432891846,-3967810.1539611816,-1233393.1922912598,237521.84212207794,-5712759.494781494,4934374.3324279785,11812388.42010498,739732.9211235046,-242221.26603126526,568478.8227081299,5322065.353393555,7839726.92489624,51081.45996928215,6824626.445770264,7780266.284942627,9042757.987976074,11030053.13873291,853637.6357078552,7073448.181152344,6886111.736297607,424240.44013023376,7999191.761016846,7192272.663116455,6905722.141265869,8099921.226501465,8095023.155212402,14790962.219238281,6226869.106292725,7022399.90234375
