time,Fp1,Fpz,Fp2,AF3,AF4,F7,F5,F3,F1,Fz,F2,F4,F6,F8,FT7,FC5,FC3,FC1,FCz,FC2,FC4,FC6,FT8,T7,C5,C3,C1,Cz,C2,C4,C6,T8,TP7,CP5,CP3,CP1,CPz,CP2,CP4,CP6,TP8,P7,P5,P3,P1,Pz,P2,P4,P6,P8,PO7,PO5,PO3,POz,PO4,PO6,PO8,CB1,O1,Oz,O2,CB2
0.0,51777137.756347656,47963459.01489258,35858058.92944336,23552234.649658203,20214817.04711914,12889417.64831543,5108363.628387451,5068517.684936523,4859456.0623168945,10334828.37677002,4871302.127838135,5979696.273803711,7355611.324310303,9152294.158935547,5186556.816101074,5005401.134490967,4864591.121673584,4763777.256011963,1818488.1210327148,1268294.095993042,2876299.1428375244,4668901.443481445,-105290.07017612457,-584885.5972290039,184098.57153892517,4824072.360992432,4770740.509033203,-941847.3243713379,-40941.35761260986,1685047.0304489136,2380.6251119822264,-2784877.7770996094,-3712616.6820526123,-3637882.4710845947,-859374.463558197,-2205047.130584717,-549648.8213539124,-2081195.592880249,-1845373.6305236816,-2129276.2756347656,-3558156.4903259277,-3785289.525985718,-3730381.2503814697,-3744802.713394165,-889624.834060669,-5637097.358703613,-1804510.474205017,-1084463.5963439941,-840157.9260826111,-4675125.1220703125,-3757985.830307007,-3723469.018936157,-3710106.84967041,-5584176.540374756,423440.00935554504,-4829703.330993652,-4805812.358856201,-5721104.145050049,-3815621.1376190186,-5666694.164276123,-6164910.793304443,-6225818.157196045
0.005,26724126.8157959,29917625.427246094,34329978.942871094,31696886.06262207,29400115.966796875,20106126.78527832,8993843.078613281,9454295.15838623,9849059.104919434,19535671.23413086,21108953.47595215,16764215.469360352,9188749.313354492,11395301.818847656,1827309.012413025,7168185.710906982,10242348.670959473,9122637.748718262,6647511.959075928,5205411.434173584,8172400.47454834,4651467.800140381,3812808.7520599365,3370072.364807129,-2601217.746734619,9358109.474182129,8817191.123962402,-690665.9603118896,5977878.570556641,1856533.169746399,6869674.6826171875,-8204198.837280273,-9655860.900878906,-9528574.94354248,-2961304.4261932373,-2445710.6590270996,-6374352.931976318,-4106801.0330200195,-2504504.442214966,4254668.712615967,-9842310.905456543,-7770624.63760376,-9647105.21697998,-9157793.045043945,-6229739.665985107,-8409157.752990723,-5847959.041595459,-3557779.7889709473,2159645.3189849854,-8265064.239501953,-8575806.617736816,-8922158.241271973,-10452853.202819824,-8803559.303283691,-2505705.8334350586,-11997560.501098633,-11248798.370361328,-7547250.270843506,-8853070.259094238,-8884574.890136719,-11675265.312194824,-4654635.429382324
0.01,3789873.8384246826,11716238.021850586,26747283.935546875,29513322.830200195,30425807.95288086,23332597.732543945,8698270.797729492,9414413.452148438,10075929.641723633,19059768.676757812,26550607.681274414,21723031.997680664,12065056.800842285,15382279.396057129,2959828.6151885986,6292151.927947998,10604598.999023438,9037180.90057373,5718357.086181641,5467930.316925049,9321823.120117188,7293412.208557129,12321879.386901855,11783683.776855469,375077.0688056946,9553382.873535156,8657822.608947754,-1969858.0503463745,8317728.042602539,2850568.2945251465,15141624.450683594,-1775224.8048782349,-529548.4662055969,-541116.8336868286,1270944.7145462036,1011513.7100219727,-7814435.958862305,-2570980.5488586426,-27276.141569018364,13118688.583374023,-2947561.740875244,2375568.628311157,-263734.1320514679,335450.58965682983,-3045165.538787842,-70350.0285744667,-3829109.4303131104,-28033.195063471794,9940551.7578125,-324267.17877388,1122097.2537994385,660431.2062263489,-1663540.4825210571,-888658.2255363464,1258707.6425552368,-6044563.770294189,-5027820.587158203,1118476.9868850708,690566.7185783386,-633385.5986595154,-4439783.096313477,7435106.27746582
0.015,-5123248.57711792,4001151.0848999023,20794433.59375,21774375.915527344,26152872.08557129,22524982.452392578,4847551.8226623535,5644223.213195801,6177590.370178223,11093848.22845459,21320278.16772461,19717885.971069336,13789106.369018555,18078304.290771484,5807348.251342773,2916365.146636963,6591427.803039551,5154859.0660095215,2686.555264517665,2160514.1162872314,6613653.659820557,10047686.576843262,18838481.903076172,19539806.365966797,6717336.177825928,5971200.942993164,4927751.541137695,-4143610.954284668,7308316.707611084,4712401.390075684,20795881.271362305,8677831.649780273,15429614.067077637,15199818.61114502,8051335.334777832,5844358.444213867,-5177720.546722412,2093735.2180480957,4713879.108428955,20302089.69116211,8927278.518676758,18384361.267089844,16001020.431518555,16306270.599365234,5031986.713409424,13069866.180419922,2746873.140335083,6992436.408996582,18329561.233520508,11158323.287963867,17042175.29296875,16752090.454101562,14381605.14831543,11966982.8414917,8661609.649658203,6580886.363983154,7529570.10269165,14020443.9163208,16568746.566772461,12695523.262023926,9156879.425048828,21971286.77368164
0.02,8425247.192382812,15106827.735900879,26988737.106323242,21519519.805908203,25532072.067260742,22364818.572998047,2518774.5094299316,3424395.5612182617,3615500.2117156982,5878691.19644165,14631367.683410645,14688549.041748047,11934569.358825684,16006938.934326172,6228530.406951904,1109252.8104782104,3911924.8390197754,2724349.9755859375,-4126661.777496338,-1497661.3521575928,3417694.8070526123,8549500.465393066,14680326.461791992,19597324.37133789,10801937.103271484,3661980.152130127,2659251.4514923096,-5266697.883605957,5533626.079559326,5511748.790740967,18474735.260009766,7272123.81362915,18738277.435302734,18485754.013061523,9273562.43133545,7279006.481170654,-2691545.009613037,5438138.961791992,6980111.598968506,19338638.305664062,8196323.394775391,21415763.85498047,19338687.896728516,19290193.557739258,7785958.290100098,16275598.526000977,6847392.0822143555,9477035.522460938,19118511.199951172,10146957.397460938,20082302.09350586,20007776.260375977,17793876.64794922,15160401.344299316,10875967.025756836,9446120.262145996,10378324.508666992,16981807.708740234,19653846.740722656,16043596.267700195,13127282.14263916,23452529.907226562
0.025,30579927.444458008,32616241.455078125,39448890.686035156,30642400.74157715,30070243.83544922,26530410.766601562,5030768.871307373,6065588.95111084,5928095.817565918,7976924.896240234,13494329.452514648,11518870.35369873,8105263.710021973,11275404.930114746,6077499.866485596,3554019.9279785156,6308263.301849365,5124226.093292236,-2613975.0480651855,-2892527.5802612305,1862956.0470581055,3543803.2150268555,4087805.74798584,14676636.695861816,12217741.966247559,5953789.710998535,5073349.475860596,-4637585.163116455,3977127.0751953125,2921217.203140259,10146039.009094238,-5349472.522735596,6884300.708770752,6844990.7302856445,4435076.713562012,5247199.058532715,-3441658.4968566895,3871791.362762451,3662713.5276794434,11453153.610229492,-5245142.936706543,9408955.574035645,7279687.881469727,7131566.524505615,2582253.4561157227,7777450.5615234375,4863288.402557373,4642826.080322266,12217023.849487305,-2530011.8923187256,8092480.659484863,8011478.424072266,5826355.457305908,6899263.858795166,5580446.243286133,110062.8525018692,1107017.7555084229,8599882.125854492,7699264.5263671875,7553187.847137451,5155258.655548096,12553086.280822754
0.03,35421997.0703125,33957660.67504883,41166961.669921875,36380558.013916016,31939773.559570312,31104230.880737305,8792415.618896484,9818833.351135254,9546753.883361816,11410849.571228027,16129985.809326172,11550427.436828613,5933439.254760742,8574460.02960205,7847607.135772705,6950738.430023193,10128407.47833252,8748484.61151123,1513786.4351272583,-2296302.318572998,1591842.532157898,475521.89230918884,-319605.41009902954,12599430.084228516,13504394.53125,9431908.60748291,8626779.556274414,-3599000.2155303955,2127540.111541748,-1764238.3575439453,4834778.785705566,-13050063.133239746,-3669059.0381622314,-3538780.927658081,133148.6999988556,3753537.893295288,-6223679.065704346,-752721.2500572205,-1870967.8649902344,6070998.668670654,-13676962.852478027,-1197410.5834960938,-3370342.254638672,-3374292.1352386475,-3435933.1130981445,571957.528591156,733999.490737915,-1195338.249206543,7014604.091644287,-9607577.323913574,-2400305.986404419,-2724891.9010162354,-4897357.46383667,-42957.73059129715,425948.9178657532,-7300965.785980225,-6405053.615570068,1719395.7567214966,-2821218.490600586,386411.6072654724,-1225295.5436706543,5555130.0048828125
0.035,15506256.103515625,14910935.401916504,27479356.76574707,28545541.763305664,25750062.942504883,28003326.416015625,7004991.054534912,7907537.937164307,7762576.103210449,8752408.027648926,16610496.520996094,12170699.119567871,5866925.7164001465,8219219.207763672,7445733.070373535,5046545.028686523,8420168.87664795,6889510.631561279,1991936.206817627,-1895774.3644714355,1556361.3176345825,2135757.4462890625,4840630.531311035,13839944.839477539,13668350.219726562,7598283.290863037,6767609.596252441,-3789254.1885375977,474522.50123023987,-3813599.5864868164,7939764.976501465,-7912051.200866699,-1538945.6748962402,-1525028.8248062134,-112866.79655313492,4468272.686004639,-7733450.412750244,-3137808.084487915,-3089664.4592285156,9578703.880310059,-7176203.727722168,880649.3878364563,-1111097.0973968506,-951402.8429985046,-3971089.6015167236,3945459.6042633057,159396.9613313675,-1019924.521446228,10398531.913757324,-1992994.3084716797,-133564.35298919678,-707199.3947029114,-2744870.901107788,3385052.9193878174,2923136.4727020264,-2942531.5856933594,-2296710.0143432617,5271033.763885498,-575553.9536476135,3886968.3742523193,3321587.562561035,11544499.397277832
0.04,-8239586.83013916,-4250195.9800720215,13374830.24597168,13919996.26159668,17049570.083618164,17429450.98876953,-600698.1134414673,277627.73633003235,358723.7298488617,1139289.7367477417,13416304.588317871,11088398.933410645,5876095.771789551,7603354.930877686,1191147.804260254,-2377192.497253418,907563.2095336914,-615569.4127082825,-2812760.353088379,-3087209.2247009277,1348774.5523452759,5651988.0294799805,10829494.47631836,13020356.178283691,11024162.292480469,257717.49019622803,-640649.6167182922,-5243698.596954346,151304.9453496933,-1249919.7721481323,14574279.78515625,517081.8567276001,6733196.258544922,6463354.587554932,1124555.7069778442,5166163.921356201,-6881803.9894104,-1400236.3681793213,1016493.7973022461,17248609.54284668,3898285.6273651123,9152248.38256836,7253484.725952148,7487868.309020996,-587208.9862823486,12400408.744812012,2847072.3628997803,3609865.188598633,18016525.268554688,9622133.255004883,8244547.8439331055,7622456.073760986,5719850.540161133,11670791.625976562,10372843.742370605,6010402.679443359,6552455.902099609,13629105.567932129,7879388.809204102,12409674.644470215,12097760.200500488,21713008.880615234
0.045,-11776488.304138184,-4147983.0741882324,14428334.23614502,8537329.67376709,16055212.020874023,11192928.314208984,-5395819.187164307,-4360260.009765625,-4256943.702697754,-3248400.4497528076,11269418.716430664,10214400.291442871,6804617.404937744,8037847.518920898,-4195651.531219482,-7026894.092559814,-3811719.1791534424,-5231970.310211182,-7577672.004699707,-4584778.785705566,1441676.378250122,7928950.309753418,11738052.368164062,10440858.840942383,9420014.381408691,-4277565.956115723,-5191426.753997803,-6459182.262420654,659025.5498886108,2010559.5588684082,16804273.60534668,2021693.9449310303,9766431.80847168,9373190.879821777,1500483.6320877075,4276052.474975586,-5779272.079467773,630751.4309883118,4239001.274108887,19822204.58984375,5851725.101470947,12217962.265014648,10112214.088439941,10452995.300292969,1349627.6140213013,15064694.40460205,3314204.9312591553,5176461.219787598,20687923.431396484,11431978.225708008,11286580.085754395,10789687.156677246,8855489.730834961,14161283.493041992,13385081.29119873,7306144.714355469,7959745.88394165,16088483.810424805,11054629.3258667,15009333.610534668,13601602.554321289,23653673.17199707
0.05,5267693.519592285,11887634.27734375,28554784.774780273,18400556.564331055,25169178.009033203,18003799.438476562,-368660.3009700775,821425.4379272461,680550.6944656372,833602.249622345,14680036.544799805,13330289.840698242,11753294.944763184,13113053.321838379,459094.6137905121,-2076098.918914795,1149250.5073547363,-150584.66792106628,-6344116.687774658,-3587549.924850464,3029284.0003967285,9880066.871643066,11685313.22479248,11737019.538879395,13553860.664367676,683810.7705116272,-168295.0109243393,-6044932.842254639,492365.4794692993,1873102.068901062,14190092.086791992,-842148.4231948853,6110204.219818115,5861718.654632568,1844691.9918060303,3083432.912826538,-6476778.984069824,-642997.0860481262,2014332.7713012695,15631417.274475098,-409300.3571033478,8454462.051391602,6135503.768920898,6721742.630004883,-624374.8664855957,9135265.350341797,-950101.1371612549,899880.4092407227,16349866.86706543,4376674.652099609,7490673.542022705,7123907.089233398,5049477.577209473,8253973.960876465,8196034.4314575195,152907.78875350952,865820.1098442078,10056854.248046875,7296968.936920166,9005330.085754395,6734387.8746032715,16694282.531738281
0.055,22712938.30871582,24941068.649291992,40373546.6003418,32587451.934814453,35493778.228759766,29768213.272094727,9712020.874023438,10864286.422729492,10553950.309753418,9407685.279846191,21516344.07043457,19556713.104248047,18761308.670043945,19799674.98779297,10646365.16571045,7815795.421600342,11033576.011657715,9844324.111938477,17483.070492744446,394385.4570388794,6474541.187286377,12582966.804504395,14198971.74835205,16193584.442138672,19653057.098388672,10488114.356994629,9720097.541809082,-4165284.6336364746,-141839.56384658813,-3438.294166699052,12403038.024902344,-1609878.659248352,1509527.2064208984,1418760.895729065,2348882.6751708984,2906976.6998291016,-7978845.119476318,-3079854.726791382,-1865589.0226364136,11647987.365722656,-5279055.118560791,3558838.8442993164,1336398.0054855347,2155012.369155884,-4510610.103607178,737453.4606933594,-5382510.662078857,-3590449.571609497,11203804.016113281,-1147687.9119873047,2635947.9427337646,2309378.6239624023,184206.47084712982,26450.324803590775,1388173.6993789673,-6267112.731933594,-5686704.158782959,1676419.3773269653,2306347.8469848633,611423.0751991272,-143566.02728366852,8768570.899963379
0.06,23893964.767456055,22581687.927246094,38927555.084228516,36280963.89770508,36336887.35961914,30896196.365356445,13656187.057495117,14624733.924865723,14542924.880981445,13552621.841430664,24895383.834838867,22364494.32373047,19998834.60998535,19241981.506347656,11947048.18725586,11624172.21069336,14871494.29321289,13743612.289428711,4655190.467834473,3675407.648086548,9340283.393859863,13146935.46295166,14664696.69342041,16048433.303833008,19376188.278198242,14323996.543884277,13604664.80255127,-2370891.0942077637,377688.2290840149,253845.66187858582,13477606.773376465,-1736643.671989441,-591407.7162742615,-779063.2843971252,1503481.5073013306,3338272.8099823,-7550856.590270996,-2163792.610168457,-1107313.9905929565,13104073.524475098,-5716754.913330078,1201880.0973892212,-758363.5449409485,6786.660756915808,-6393089.294433594,-3283919.334411621,-4237580.7762146,-2398829.221725464,10230411.529541016,-873412.3706817627,322852.31351852417,-9173.896163702011,-2025354.3853759766,-3898164.0338897705,1183492.1836853027,-6099495.887756348,-5637865.06652832,-2353430.2711486816,-216366.27614498138,-3410599.47013855,-809036.5529060364,5181286.334991455
0.065,11458252.906799316,9947101.593017578,28398813.247680664,27861516.95251465,27658311.84387207,20086465.83557129,8644957.542419434,9453585.624694824,9814140.319824219,9553387.641906738,21843484.87854004,18175334.930419922,12959796.905517578,10532126.426696777,1769560.9331130981,6606636.524200439,9966514.587402344,8793686.866760254,3247365.4747009277,2498351.0971069336,8419495.582580566,9430627.822875977,10206120.491027832,10075872.421264648,13282814.979553223,9460396.766662598,8748142.24243164,-1940121.2930679321,2027947.6642608643,2010976.5529632568,14072605.13305664,-4535037.040710449,-260781.4073562622,-709379.0173530579,30426.9939661026,3970474.7200012207,-4587468.147277832,1946746.7069625854,3678631.7825317383,17442771.911621094,-5074137.6876831055,1532117.486000061,-322527.05097198486,92510.44690608978,-4105604.1717529297,-1182602.047920227,1574934.3633651733,2899673.9387512207,11798245.429992676,1608384.2515945435,615292.489528656,309745.4607486725,-1562925.4579544067,-1877876.7585754395,7345652.5802612305,-1773595.929145813,-1235561.9668960571,-340573.40025901794,-25473.617017269135,-1374348.0443954468,3390156.030654907,6090415.477752686
0.07,2122469.425201416,2970932.0068359375,23556407.928466797,20362993.240356445,21478662.490844727,13027069.091796875,3702494.8596954346,4439702.033996582,4971930.027008057,3569094.41947937,17882957.458496094,13483749.389648438,7731775.283813477,6323996.543884277,-4874573.707580566,1816185.1167678833,5172917.366027832,3871122.5986480713,-649149.2986679077,-1165531.873703003,5125697.612762451,6586308.95614624,8700395.584106445,7891316.4138793945,11395178.79486084,4624501.2283325195,3901573.419570923,-2492367.98286438,2848318.338394165,2072716.9513702393,13596562.385559082,-4886245.250701904,2041839.599609375,1499194.9796676636,851585.9842300415,4939276.695251465,-1765766.2630081177,4599081.993103027,6616635.322570801,20237985.610961914,-2833851.3374328613,4016198.15826416,2083213.5677337646,2199939.250946045,-64163.16330432892,3562169.075012207,5623791.217803955,6597371.1013793945,12754678.726196289,4524991.989135742,3001251.697540283,2770053.3866882324,936591.5060043335,2746922.731399536,12588515.281677246,2491853.4755706787,3179840.326309204,4396173.477172852,2454021.215438843,3346823.6923217773,7724050.045013428,10346134.185791016
0.075,10471839.904785156,13785174.369812012,35544513.70239258,26054744.720458984,28913637.161254883,20874895.095825195,6609121.799468994,7307098.388671875,7602421.283721924,4563846.111297607,20262889.862060547,17917640.686035156,15645653.72467041,17201574.325561523,3152550.69732666,4993788.242340088,8062376.022338867,6665524.482727051,-785762.0716094971,-1303277.0156860352,5504601.47857666,12103620.529174805,17949689.865112305,15372221.946716309,17741731.643676758,7387479.305267334,6644016.265869141,-2716308.59375,2059209.5851898193,1518094.1820144653,16442869.186401367,3667165.0409698486,4821255.207061768,4468849.182128906,3561064.9585723877,5012916.564941406,-1725268.7215805054,3445198.0590820312,5876518.726348877,21925283.432006836,4495728.015899658,6931943.416595459,4926486.968994141,5116064.548492432,535967.9460525513,5776729.583740234,4601835.72769165,7058184.1468811035,13923366.54663086,9798226.356506348,5835290.908813477,5679828.16696167,3809341.9075012207,4969302.654266357,12470827.102661133,5544262.886047363,6280582.427978516,6801938.056945801,5492188.930511475,5652332.305908203,9354981.422424316,15879731.178283691
0.08,34606594.08569336,38176528.93066406,58732437.13378906,41410007.47680664,45821826.93481445,34811607.360839844,12976517.677307129,13641237.258911133,13644020.080566406,12729213.71459961,27617589.950561523,30223142.623901367,32328956.604003906,34934108.73413086,16229185.104370117,11593935.9664917,14316039.085388184,12934428.215026855,2924370.765686035,3565069.6754455566,11938886.642456055,23902629.852294922,30815954.208374023,24010906.219482422,23109128.952026367,13542221.069335938,12748693.466186523,-2340811.252593994,1199441.4329528809,4493145.942687988,23349639.892578125,15186541.557312012,4982995.03326416,4853777.885437012,3762240.8866882324,2387927.532196045,-3649832.7255249023,1244541.5258407593,5516767.978668213,24879781.72302246,13217572.212219238,7106291.770935059,5093008.041381836,5612859.725952148,-3710274.6963500977,3523110.6281280518,2397818.5653686523,7377299.785614014,17118976.593017578,15617588.996887207,5998366.832733154,5857964.038848877,4019775.867462158,2807527.3036956787,9773873.329162598,6757270.812988281,7480407.71484375,4736172.676086426,5792284.01184082,3469872.7130889893,8213420.867919922,18509387.969970703
0.085,53681632.99560547,54847385.40649414,72236434.93652344,49988986.96899414,55140567.779541016,38219409.94262695,13142168.045043945,13839071.273803711,13802716.255187988,18185070.037841797,30889410.0189209,37725673.67553711,40687747.955322266,40992000.579833984,17687789.916992188,11799856.185913086,14515267.372131348,13189887.046813965,4486729.145050049,7326109.409332275,18021394.729614258,30421657.56225586,32840785.98022461,22725934.982299805,18726583.48083496,13719841.957092285,12835000.038146973,-2406944.751739502,1451337.456703186,10151864.051818848,27528411.865234375,16848035.81237793,2176733.4938049316,2043981.0752868652,252252.60853767395,-1324374.1989135742,-4503729.820251465,1079513.5498046875,7813776.969909668,27622905.731201172,14027728.080749512,4293081.283569336,2254150.152206421,2950991.39213562,-7567448.139190674,460011.89947128296,4044202.8045654297,9055986.404418945,20020902.633666992,16053743.362426758,3267440.0806427,3058151.4835357666,1355437.6363754272,-239775.21061897278,8536806.106567383,4305653.095245361,5053043.842315674,1571507.3347091675,3014152.0500183105,328785.12144088745,5734743.118286133,15858268.737792969
0.09,44759181.97631836,43522556.30493164,60134838.10424805,41016536.712646484,46106750.48828125,28196390.15197754,6327691.078186035,7157315.254211426,7226861.476898193,13346341.133117676,25812778.47290039,32665695.190429688,32523674.01123047,30652471.5423584,7369582.176208496,4858751.7738342285,7936477.6611328125,6600062.847137451,1036672.4729537964,4679664.611816406,16303161.62109375,25602539.0625,23410156.25,14514758.110046387,9985239.028930664,7143035.888671875,6170209.4078063965,-3256469.249725342,1958384.5138549805,12098093.032836914,24418804.168701172,8126594.543457031,835649.7883796692,545667.9463386536,-2058553.93409729,-1431917.7865982056,-3322672.8439331055,2118379.592895508,9483315.467834473,27089014.053344727,6127646.446228027,3009462.1181488037,937040.3289794922,1455925.8222579956,-6232728.481292725,1516673.8033294678,8379744.529724121,9621964.454650879,18701953.887939453,10540349.960327148,2136712.3126983643,1815378.189086914,183034.5243215561,748012.125492096,7838876.247406006,-1157123.08883667,-390525.57945251465,2362197.160720825,1690831.4228057861,1296781.7783355713,3886428.5945892334,11648479.461669922
0.095,10195025.444030762,10058465.003967285,32022045.135498047,23154912.9486084,28430688.858032227,17686275.482177734,1766830.2059173584,2736426.35345459,2810988.9030456543,3827524.423599243,19860544.204711914,23345624.923706055,19488990.783691406,19026012.420654297,666717.8273200989,156353.9057970047,3576338.291168213,2188706.636428833,-2216886.7588043213,-676400.4230499268,9202845.573425293,17771963.119506836,17637516.021728516,12180212.020874023,8899067.878723145,2768857.955932617,1804203.6294937134,-3464790.3442382812,1787141.7999267578,7762498.85559082,19607645.03479004,2713259.696960449,4139074.3255615234,3783361.1965179443,483554.33344841003,3303425.3120422363,-2546707.3917388916,1816419.1246032715,7458855.628967285,24572610.85510254,318946.4211463928,6388875.484466553,4378434.181213379,4585486.41204834,-3077236.4139556885,5909103.3935546875,9680928.230285645,7075491.905212402,13821057.319641113,6339556.2171936035,5641700.267791748,5231830.596923828,3463795.6619262695,5150473.117828369,4298682.21282959,-5192350.8644104,-4450726.9859313965,6784523.963928223,5007345.199584961,5818927.28805542,3828705.5492401123,11413715.362548828
0.1,-17728584.28955078,-13690234.184265137,16035860.061645508,15582749.366760254,21946420.669555664,18043182.373046875,5808671.474456787,6766446.590423584,6751155.853271484,2045383.2149505615,22584060.668945312,23337024.688720703,17738441.467285156,20431365.966796875,6390287.87612915,4104054.4509887695,7546606.540679932,6177745.342254639,745403.528213501,-858873.6057281494,6400697.231292725,18332916.259765625,24663825.98876953,19792375.564575195,16856811.5234375,6727139.472961426,5901046.7529296875,-1839750.88596344,1586405.634880066,2867908.716201782,20653688.430786133,8258953.094482422,8530025.482177734,8253523.826599121,4299145.698547363,7716868.877410889,-4370414.733886719,-46202.98743247986,3947520.0176239014,24158432.006835938,3460015.7737731934,10806289.672851562,8928198.81439209,9017869.94934082,-5165326.5953063965,7379553.318023682,5605091.094970703,3017598.3905792236,9863437.65258789,7764482.498168945,10043789.863586426,9600777.626037598,7621282.10067749,6780272.483825684,-1570304.6321868896,-5438494.682312012,-4665782.451629639,8688678.741455078,9349042.892456055,7567198.276519775,4576878.070831299,14210264.205932617
0.105,-10191865.921020508,-3316185.235977173,28002912.521362305,25754302.978515625,33421566.009521484,26442546.844482422,13662869.453430176,14426665.306091309,14399316.787719727,11017961.502075195,32400043.487548828,33595466.61376953,27970941.5435791,30957786.560058594,16040403.366088867,11861538.887023926,15127450.942993164,13832248.68774414,7627330.780029297,4996305.465698242,11637182.235717773,26273647.30834961,34953037.26196289,27251483.917236328,23125085.830688477,14282934.188842773,13618404.388427734,402991.4140701294,1938448.429107666,3328634.9773406982,25239984.5123291,15051568.984985352,8040061.950683594,7835866.451263428,3999249.4583129883,6920729.637145996,-7256421.5660095215,-1744726.1810302734,2718617.4392700195,25761970.52001953,7875845.909118652,10318056.106567383,8458149.909973145,8686356.544494629,-12136106.491088867,2333214.9982452393,126627.98166275024,-102705.6872844696,8503565.788269043,9086996.078491211,9393350.601196289,8971637.725830078,6960053.443908691,1890236.3777160645,-5374216.556549072,-5979266.166687012,-5085173.1300354,3976868.152618408,8777108.192443848,2614162.6834869385,3577023.2677459717,13123258.590698242
0.11,22198959.350585938,28553722.381591797,53458648.681640625,40631671.90551758,49620697.021484375,31473251.342773438,16337686.538696289,16909442.901611328,16991498.947143555,20430936.813354492,38916175.842285156,42484813.69018555,37433815.002441406,37110103.607177734,16833642.959594727,14456960.678100586,17644182.205200195,16327236.17553711,10605204.582214355,9860020.637512207,18203805.923461914,30910669.326782227,35230079.650878906,24335910.79711914,19679641.723632812,16694837.57019043,16072828.29284668,1016060.471534729,1822696.8050003052,7248588.562011719,25275869.369506836,11563970.565795898,2278646.469116211,2064344.6445465088,351167.231798172,3302087.7838134766,-7705405.712127686,-2531980.7529449463,3682852.029800415,25193147.659301758,3444630.1460266113,4600806.713104248,2544991.4932250977,2985740.900039673,-15904533.386230469,-5202369.689941406,-1885813.83228302,-1754724.0257263184,7347695.827484131,3938300.609588623,3496530.771255493,3151144.26612854,1307757.3776245117,-5650838.851928711,-4712108.135223389,-11228174.209594727,-10305799.48425293,-3763154.7451019287,3019426.107406616,-5138970.375061035,-307928.50255966187,5254887.104034424
0.115,40004562.37792969,46214805.603027344,65491600.036621094,42676776.88598633,54401412.96386719,26592660.903930664,11841056.823730469,12429230.690002441,12652183.532714844,20391853.33251953,37144512.17651367,41963016.510009766,37711547.8515625,34547290.80200195,7615238.189697266,10018215.17944336,13295067.78717041,11834491.729736328,7202299.59487915,9073936.462402344,19053371.42944336,27685424.8046875,27310331.344604492,13346097.946166992,10387103.080749512,12177870.750427246,11489655.494689941,-150802.68681049347,444014.5194530487,8978040.69519043,20416885.375976562,2308868.885040283,-3524146.556854248,-3748425.4837036133,-1916847.2290039062,2766271.1143493652,-5004524.707794189,-3063970.0889587402,4417338.848114014,21804920.196533203,-5838023.662567139,-1137541.41330719,-3443052.291870117,-2879647.4933624268,-12459322.929382324,-8510797.500610352,-133656.0696363449,-1671653.5091400146,5959157.466888428,-2977289.4382476807,-2279826.1642456055,-2525710.344314575,-4231116.771697998,-9074441.909790039,-1641290.307044983,-17167615.89050293,-16437841.415405273,-7559844.493865967,-2657221.555709839,-8697871.208190918,-4343237.400054932,-2676703.691482544
0.12,24068687.438964844,33792778.01513672,55550373.07739258,30766273.498535156,46635467.529296875,16124319.076538086,6043284.4161987305,6800825.119018555,7148320.198059082,13516349.792480469,32623527.52685547,35802471.16088867,32285572.052001953,29834678.649902344,-2018652.4391174316,4428989.410400391,7762600.898742676,6241365.909576416,3097276.449203491,5813489.4371032715,15503802.299499512,22929061.889648438,22998544.692993164,4803611.755371094,4162759.304046631,6577380.180358887,5853302.001953125,-1126351.7141342163,-915333.4498405457,7485215.187072754,18476297.37854004,189459.77091789246,-5485126.01852417,-5667265.41519165,-1868166.3274765015,5696343.898773193,-2460916.9960021973,-3846507.3108673096,4506581.3064575195,20310947.41821289,-7405325.412750244,-3121936.559677124,-5460968.017578125,-4905949.592590332,-7624841.213226318,-6174522.399902344,2265970.468521118,1312008.9769363403,7837129.11605835,-1831814.0506744385,-4105866.4321899414,-4338984.966278076,-6066630.3634643555,-6798768.997192383,881327.9271125793,-15109449.38659668,-14600864.41040039,-5428506.374359131,-4501860.14175415,-6356413.3644104,-4137260.913848877,-2211405.9925079346
0.125,-2190058.946609497,11093922.61505127,38368270.87402344,19415166.8548584,37086524.963378906,9504736.90032959,4223773.956298828,5028608.322143555,5476563.930511475,9145493.507385254,31254404.067993164,30716594.696044922,27361055.374145508,27414497.37548828,-4122910.976409912,2796819.6868896484,5978184.223175049,4631573.20022583,3050027.1320343018,4566141.605377197,12652483.940124512,22328834.533691406,25613933.563232422,4705647.945404053,4429307.93762207,4956268.787384033,4274567.127227783,-949997.0078468323,-844540.536403656,5824826.240539551,22146558.76159668,6284839.630126953,-4664959.907531738,-4806075.096130371,-2683304.786682129,6691001.415252686,-3395223.85597229,-4943815.231323242,4841318.607330322,22752313.6138916,375256.32977485657,-2441563.844680786,-4542446.136474609,-4098887.9203796387,-8030537.6052856445,-2737623.691558838,3241279.363632202,6287165.641784668,13740058.898925781,6662476.539611816,-3184636.116027832,-3568204.879760742,-5365970.611572266,-3321711.0633850098,2099658.250808716,-4893263.339996338,-4384602.5466918945,-1821009.7551345825,-3717926.9790649414,-2760728.359222412,918308.0196380615,5589047.908782959
0.13,-6642557.144165039,4457895.278930664,30281295.776367188,19311460.494995117,33080032.348632812,10989958.763122559,5583620.071411133,6212077.617645264,6667692.6612854,10072521.209716797,30984748.84033203,27282678.604125977,23880929.946899414,24708158.493041992,-33412.955701351166,4196278.095245361,7102599.620819092,5999255.180358887,4264292.240142822,4418729.305267334,11267452.239990234,22936700.82092285,27166919.708251953,9291250.228881836,7737104.892730713,6358597.755432129,5703986.644744873,-928202.3310661316,-411201.8048763275,4815917.015075684,24442901.611328125,8919910.430908203,-4220335.960388184,-4350599.28894043,-5364428.0433654785,3229389.190673828,-7087617.874145508,-6535062.789916992,4512156.4865112305,24130811.69128418,5354797.36328125,-2131940.6032562256,-3982751.6078948975,-3670108.0799102783,-11751970.291137695,-2787351.8466949463,3072794.4374084473,9023859.024047852,17851314.544677734,10682214.736938477,-2769195.795059204,-3347695.5890655518,-5175078.392028809,-3319388.3895874023,2243521.4519500732,2333519.458770752,2984197.8549957275,-1710449.0995407104,-3441527.3666381836,-2816314.935684204,5768792.629241943,10804624.557495117
0.135,9806106.567382812,14605297.088623047,32535026.55029297,25685375.213623047,32970439.910888672,15157143.592834473,6216514.110565186,6705698.013305664,7033951.282501221,11281760.215759277,27860546.112060547,23798297.882080078,21159402.84729004,20397203.44543457,2821352.958679199,4811220.169067383,7588868.141174316,6520991.802215576,2132795.810699463,2628626.3465881348,9289514.541625977,20395454.40673828,22960033.416748047,10803922.653198242,9172405.242919922,6940934.658050537,6285101.413726807,-2085413.4559631348,-1502645.8501815796,2691160.6788635254,20454231.26220703,2277846.8132019043,-5970770.359039307,-6096156.120300293,-7486495.018005371,-617314.5174980164,-9728686.332702637,-8257725.715637207,2057707.0713043213,20068937.301635742,-69363.08741569519,-3912110.5670928955,-5782167.911529541,-5495086.193084717,-12757838.249206543,-6633226.39465332,2553017.8546905518,6863429.069519043,15003314.971923828,4009079.4563293457,-4689754.009246826,-5295753.955841064,-7204205.513000488,-7165933.132171631,914353.3110618591,-1733615.0407791138,-1049289.2265319824,-5613233.0894470215,-5374965.190887451,-6896310.329437256,5133565.902709961,6903370.380401611
0.14,20816381.454467773,23141618.728637695,37125316.61987305,27966781.616210938,33606655.12084961,13730333.32824707,4543182.849884033,5187343.597412109,5375577.449798584,9843358.039855957,24649738.311767578,22721055.98449707,21532108.306884766,18851808.547973633,-550239.8610115051,3185661.792755127,6136161.804199219,4916005.611419678,-1588946.81930542,817382.2164535522,7937078.952789307,17545244.216918945,18951444.625854492,6066728.115081787,6676304.817199707,5249013.423919678,4715405.9410095215,-3211039.3047332764,-3272669.792175293,304510.9212398529,15840938.568115234,-4991040.229797363,-9727812.767028809,-9898095.13092041,-8325928.688049316,-866894.1855430603,-8916395.18737793,-8653424.263000488,-845828.8908004761,14769484.519958496,-7739323.616027832,-7676259.994506836,-9778724.670410156,-9376158.714294434,-10701283.45489502,-11232189.178466797,2119227.170944214,3160464.04838562,8826040.267944336,-4727272.510528564,-8681003.57055664,-9140377.99835205,-11215092.658996582,-11798644.065856934,-1579717.993736267,-10954520.225524902,-10336082.458496094,-10299682.6171875,-9286270.141601562,-11690258.979797363,184963.47963809967,-1279991.1499023438
0.145,15216174.125671387,21877111.434936523,40199085.2355957,24754884.719848633,35841236.11450195,6763596.534729004,2396783.3518981934,3318221.5690612793,3520164.728164673,9103099.822998047,26934265.13671875,27078842.163085938,26615074.157714844,23042900.08544922,-7165847.301483154,1078363.299369812,4349349.021911621,3065926.7902374268,-1511008.9778900146,2492253.065109253,10405992.50793457,19740797.04284668,21712959.28955078,-447143.88251304626,2167793.035507202,3074192.762374878,2824282.169342041,-2824655.055999756,-2896792.8886413574,1280029.6545028687,18165699.005126953,-3152298.927307129,-13352674.48425293,-13681006.43157959,-10060611.724853516,491611.39130592346,-6136351.585388184,-6890630.24520874,-618463.6354446411,15742932.319641113,-6321697.71194458,-11403614.99786377,-13621457.09991455,-13095933.91418457,-10253950.119018555,-13331550.598144531,2361190.5574798584,3216140.7470703125,7371405.601501465,-4137577.0568847656,-12447836.875915527,-12808873.176574707,-14949306.48803711,-13938042.640686035,-3193003.8928985596,-13231946.94519043,-12562437.057495117,-12378508.567810059,-13031432.151794434,-13740427.97088623,-2851165.294647217,-4168686.866760254
0.15,9055191.040039062,20620084.762573242,43804939.27001953,23383497.23815918,40746643.06640625,3118005.5141448975,2053839.4451141357,2973649.9786376953,3317901.134490967,11844995.498657227,33336498.260498047,33797813.415527344,32791049.95727539,28892129.89807129,-9460542.678833008,630596.2204933167,4038169.8608398438,2888008.3560943604,2488680.124282837,6334124.0882873535,15606796.264648438,25245800.018310547,28350746.154785156,-1868720.1738357544,-169824.10848140717,2571188.449859619,2519089.2219543457,-1707206.6068649292,-51464.006304740906,5874278.0685424805,25116216.6595459,4861511.23046875,-13638535.499572754,-14115200.04272461,-12742716.789245605,-479768.69344711304,-4668097.972869873,-4604787.826538086,2847062.349319458,22460838.317871094,2070491.075515747,-11782141.68548584,-13838845.252990723,-13319785.118103027,-12503728.866577148,-11792144.775390625,3371245.861053467,6631062.5076293945,11680564.880371094,4501749.9923706055,-12650245.666503906,-13060008.04901123,-15034114.837646484,-12431433.67767334,-2566341.1617279053,-7311328.887939453,-6473495.006561279,-10840255.737304688,-13285593.032836914,-12021254.539489746,-1116389.9898529053,206017.94123649597
0.155,16906837.463378906,28001485.82458496,49561851.501464844,27859485.626220703,45913139.34326172,8163934.707641602,3748521.566390991,4345545.291900635,4778998.851776123,15098946.571350098,36603252.41088867,36877304.07714844,35367698.669433594,31101453.78112793,-4697137.832641602,2171643.4955596924,5360164.642333984,4329929.351806641,4748510.837554932,7173012.256622314,18635726.928710938,27047739.028930664,31553590.774536133,2851867.437362671,1877438.0683898926,4053148.7464904785,3892886.161804199,-1695523.0236053467,1936470.627784729,9216276.168823242,28248027.801513672,9166525.840759277,-9681385.040283203,-10051686.28692627,-12818167.686462402,-3038894.6533203125,-5832905.292510986,-4209281.444549561,5316227.436065674,26519195.556640625,6108019.3519592285,-7683494.091033936,-9519170.761108398,-9081458.09173584,-13274343.490600586,-8481162.071228027,3752426.3858795166,7802471.63772583,14595724.105834961,10604193.687438965,-8441583.633422852,-8845740.31829834,-10602608.680725098,-9102244.37713623,-1262178.897857666,-3415730.4763793945,-2548043.727874756,-7631392.478942871,-9013378.143310547,-8618908.882141113,1018937.9453659058,4260488.986968994
0.16,30201440.811157227,38772716.5222168,56678043.365478516,33750907.89794922,49030082.70263672,14965553.283691406,5783646.106719971,6153483.867645264,6549088.001251221,14872708.320617676,34449451.4465332,36232017.517089844,35533466.33911133,30932439.80407715,484455.1086425781,4249236.106872559,7045744.4190979,5946420.669555664,2440847.158432007,3745183.9447021484,18054916.381835938,23419090.270996094,30210704.803466797,7025685.787200928,5156346.321105957,6089429.85534668,5675603.866577148,-2689618.1106567383,586930.9902191162,7891279.697418213,25601690.2923584,6992026.805877686,-5894150.257110596,-5895507.8125,-9162543.296813965,-3384063.959121704,-7962855.815887451,-5541689.872741699,3858110.4278564453,23360713.958740234,1886432.2900772095,-3557790.756225586,-5371453.285217285,-4933355.331420898,-10712497.71118164,-7506769.65713501,2044444.7994232178,4048860.549926758,11289121.627807617,9117561.340332031,-4471164.703369141,-4648311.138153076,-6389625.072479248,-8041662.216186523,-2085242.0330047607,-8133235.931396484,-7447813.987731934,-6731117.725372314,-4777854.442596436,-7684630.393981934,-2097267.8661346436,715580.7018280029
0.165,33001594.54345703,44675117.49267578,64972976.68457031,35505172.72949219,52015956.87866211,12527623.176574707,6159357.54776001,6685603.618621826,7050728.321075439,12229716.300964355,32894054.412841797,37728893.2800293,38818912.506103516,33806659.69848633,-2537532.8063964844,4860671.9970703125,7458876.609802246,6240102.767944336,-526365.2801513672,874337.6135826111,18036544.799804688,20618646.6217041,29610712.0513916,3674786.5676879883,3848057.270050049,6765089.988708496,6290262.222290039,-2839871.406555176,-2154697.6566314697,4955526.351928711,23601945.877075195,4200363.636016846,-8770227.432250977,-8454209.327697754,-6595735.0730896,-1216465.3539657593,-8737449.645996094,-5965743.541717529,838521.5401649475,18178947.44873047,-3410315.0367736816,-6236890.3160095215,-8166404.724121094,-7619229.793548584,-8968208.312988281,-11797888.75579834,-612013.7572288513,-692279.4580459595,5500746.250152588,4730784.893035889,-7382109.642028809,-7300423.145294189,-9197941.780090332,-12280416.488647461,-5564276.218414307,-16376447.677612305,-15821950.912475586,-11037658.69140625,-7457970.142364502,-12061716.079711914,-9640151.977539062,-9124895.095825195
0.17,25818508.14819336,47063632.96508789,74599403.38134766,33541416.16821289,57812332.15332031,548443.7942504883,4236099.720001221,5056824.207305908,5550137.519836426,11175637.245178223,36991550.44555664,44213016.510009766,47103927.61230469,41098335.26611328,-13453340.530395508,3053244.3523406982,5834575.653076172,4682268.142700195,65082.6022028923,2709319.3531036377,21821622.848510742,23863262.176513672,32870494.842529297,-6161966.323852539,-3487089.157104492,5175077.91519165,4874938.96484375,-1502751.7080307007,-2505849.3614196777,5531129.837036133,26566823.959350586,5032942.771911621,-19056364.059448242,-18718999.8626709,-9756762.504577637,-114501.64020061493,-7636116.981506348,-3957937.479019165,469104.6476364136,17893487.93029785,-3776266.33644104,-16661506.652832031,-18612838.745117188,-17955223.083496094,-11709412.574768066,-19117666.244506836,-884389.2812728882,-1485410.0942611694,3129838.9434814453,2540419.816970825,-17795318.603515625,-17717958.450317383,-19726568.2220459,-19714174.270629883,-8974838.256835938,-20058935.165405273,-19386295.318603516,-18519844.05517578,-17942485.809326172,-19486730.575561523,-14504932.403564453,-17806900.024414062
0.175,21251516.342163086,51070083.61816406,82712989.8071289,31916584.014892578,64694877.62451172,-9964655.876159668,1414088.6068344116,2278234.0049743652,3025955.2001953125,12816473.960876465,43576675.41503906,51397495.26977539,55714271.545410156,48397689.81933594,-23200376.510620117,46853.672713041306,3229581.117630005,2312401.77154541,2802034.1396331787,7482930.660247803,26969472.885131836,30504707.33642578,37264518.73779297,-14709702.491760254,-11682271.003723145,2432808.3992004395,2291790.246963501,-86479.52228784561,339474.73764419556,9789233.207702637,30967508.31604004,7219051.837921143,-29307579.040527344,-29144561.767578125,-16137413.024902344,-1427347.6600646973,-5757133.007049561,-769437.2534751892,3409420.2518463135,22094789.505004883,-1754299.0446090698,-27161623.001098633,-29019750.595092773,-28310522.079467773,-15865737.915039062,-22681461.334228516,3066752.4337768555,1785076.379776001,4552713.394165039,2153865.8142089844,-28049922.943115234,-28185707.092285156,-30197198.86779785,-23512189.865112305,-8542314.529418945,-17897712.70751953,-17020290.37475586,-22451486.587524414,-28450082.778930664,-23176149.368286133,-10389317.512512207,-19456420.8984375
0.18,23545825.958251953,54564357.75756836,84481208.80126953,32359180.450439453,67479560.85205078,-10783913.612365723,113904.30480241776,816982.5673103333,1757757.9021453857,14902745.246887207,46386688.232421875,53879795.07446289,58825267.79174805,51127120.97167969,-25163311.004638672,-1487782.0014953613,1983246.922492981,1232135.8919143677,3989863.634109497,10809093.475341797,29218498.22998047,34365207.67211914,39049018.85986328,-16599477.767944336,-15007148.742675781,1012800.2166748047,899518.4302330017,366497.7550506592,3710190.2961730957,13326414.108276367,31917461.395263672,7484898.567199707,-31567840.576171875,-31580352.783203125,-19162582.397460938,-2042215.347290039,-4035997.8675842285,1743140.9358978271,6725674.629211426,25405138.01574707,-1705015.5401229858,-29478069.305419922,-31302154.541015625,-30590999.603271484,-15663291.931152344,-18049024.58190918,9248361.587524414,5864415.168762207,6556060.791015625,1983684.3013763428,-30212299.346923828,-30439695.358276367,-32438610.076904297,-19005132.6751709,-2848659.038543701,-13400920.867919922,-12485406.875610352,-18069286.346435547,-30667400.360107422,-18583158.493041992,2079416.5134429932,-13926409.721374512
0.185,25331153.869628906,51765033.72192383,78812622.0703125,33079315.185546875,64037048.33984375,-5515045.642852783,1420971.393585205,2125129.6997070312,3040600.7766723633,15591322.898864746,44340946.197509766,51173355.10253906,55170265.197753906,48716640.47241211,-22052301.40686035,-116134.1443657875,3343026.876449585,2547967.4339294434,3517333.507537842,11190582.275390625,28025861.740112305,33347396.850585938,37909629.821777344,-13887464.52331543,-13292676.92565918,2269979.238510132,2195959.0911865234,622628.2119750977,4978661.060333252,13224338.53149414,30166864.3951416,6479305.267333984,-26030696.868896484,-26233894.34814453,-16701930.99975586,461050.74882507324,-2610181.3316345215,3009035.348892212,7932117.938995361,25492282.86743164,-2674414.63470459,-23858535.766601562,-25747888.565063477,-25114587.783813477,-10849306.106567383,-9032447.814941406,13702089.309692383,8504430.770874023,8142089.84375,2937299.2515563965,-24717817.306518555,-24800848.00720215,-26771444.32067871,-9859760.284423828,4919922.828674316,-8571234.703063965,-7782583.236694336,-8900053.977966309,-24932369.232177734,-9406057.357788086,15477566.719055176,-5623763.084411621
0.19,23002862.93029785,45038906.09741211,71231079.1015625,32390991.2109375,58074367.52319336,-2423499.584197998,3725612.8787994385,4682597.1603393555,5366163.730621338,14771327.97241211,40890338.89770508,46162845.611572266,48135948.181152344,43673820.49560547,-20163330.078125,2500481.128692627,5731384.754180908,4771467.208862305,3575013.3991241455,9842720.985412598,25727523.803710938,30074783.325195312,35533634.185791016,-11672905.921936035,-10512260.437011719,4680345.058441162,4694252.967834473,1385938.7636184692,3817164.659500122,10621930.122375488,29342828.75061035,6088172.912597656,-19803030.014038086,-20271633.14819336,-12744691.848754883,3723693.1324005127,-1693452.23903656,2689383.5067749023,6933239.459991455,24332538.604736328,-2106188.7741088867,-17683210.372924805,-19583498.001098633,-19121641.159057617,-6939466.953277588,-4250351.428985596,13960054.397583008,9084585.189819336,10125402.450561523,4967438.697814941,-18763275.146484375,-18706726.07421875,-20560029.983520508,-4821071.147918701,8670223.236083984,-4319295.883178711,-3671761.2743377686,-3758574.2473602295,-18763402.938842773,-4375514.030456543,21541006.088256836,-64811.73634529114
0.195,22504226.684570312,43346462.24975586,68730613.7084961,30690746.307373047,54661457.06176758,-3442836.5230560303,4228198.528289795,5382198.810577393,5786501.884460449,12392614.364624023,37866123.19946289,41128314.97192383,42426528.93066406,39297359.466552734,-20851074.21875,3187928.4381866455,6193297.386169434,5107289.3142700195,3610996.723175049,7378849.029541016,23447204.58984375,27322416.305541992,32817100.524902344,-11481339.454650879,-9210011.48223877,5276130.199432373,5194762.706756592,1541708.1117630005,1358157.0386886597,7675263.404846191,29784856.79626465,5827662.467956543,-17779815.673828125,-18422712.326049805,-11012634.27734375,4072284.22164917,-1785273.3135223389,45988.13131451607,4710599.899291992,23358791.35131836,-1395179.6293258667,-15882595.06225586,-17674425.12512207,-17335159.301757812,-7342317.1043396,-6787877.559661865,10829698.56262207,7450322.151184082,11457218.170166016,5232241.153717041,-17006750.106811523,-17014894.485473633,-18734123.22998047,-7233430.862426758,5725993.633270264,-2922837.018966675,-2393202.781677246,-6146077.1560668945,-17061368.942260742,-6846888.065338135,18852237.701416016,387081.8316936493
0.2,27329591.751098633,48608505.24902344,72314506.53076172,29246484.756469727,54998378.75366211,-4247540.9507751465,2094135.5228424072,3190102.5772094727,3430097.5799560547,8479218.482971191,34477252.96020508,37656646.728515625,41217269.89746094,38170478.82080078,-20774688.720703125,950453.519821167,3866175.1747131348,2754306.7932128906,1019253.4923553467,3798200.6072998047,20850082.397460938,25880422.592163086,30577058.792114258,-10843448.638916016,-8581535.339355469,3113850.5935668945,2623706.817626953,-230090.54362773895,-1129360.0797653198,5089800.3578186035,29338808.059692383,4790860.652923584,-17775159.83581543,-18295221.32873535,-10770609.855651855,1875210.6428146362,-2576343.774795532,-3956453.800201416,2352349.042892456,22061889.6484375,-2600691.080093384,-16025514.602661133,-17709566.116333008,-17279884.338378906,-8951295.852661133,-10050774.574279785,7747895.71762085,4972549.915313721,10579588.890075684,3315722.942352295,-16998062.133789062,-17155529.022216797,-18870975.494384766,-10615019.798278809,1317795.6342697144,-4808826.446533203,-4398488.0447387695,-9534293.174743652,-17172351.837158203,-10296055.793762207,14894847.869873047,-911566.7939186096
0.205,30645092.010498047,51873027.80151367,76322708.12988281,28592924.118041992,56625640.869140625,-2437363.386154175,-483083.93359184265,508215.60621261597,729291.3198471069,4810354.232788086,31371572.494506836,37757007.59887695,44627281.188964844,40557826.99584961,-18372577.667236328,-1779234.0517044067,1153208.4941864014,82745.9990978241,-3480243.682861328,780545.1154708862,18890636.444091797,26041963.577270508,30865732.192993164,-8162489.891052246,-7114541.530609131,508400.3210067749,-423200.7563114166,-2911333.0841064453,-2418142.318725586,3491342.544555664,28478504.180908203,4735516.07131958,-15690280.91430664,-15911865.234375,-9919832.229614258,635594.8448181152,-2724233.627319336,-5827710.6285095215,1400117.7549362183,21238637.924194336,-3133846.5213775635,-13874967.575073242,-15523332.595825195,-14888485.9085083,-7289088.249206543,-6579047.679901123,8202761.650085449,4930124.282836914,9174188.613891602,3894003.391265869,-14698304.176330566,-14870056.15234375,-16642616.271972656,-7377293.109893799,3323528.289794922,-5680031.299591064,-5285850.048065186,-6165852.069854736,-14734910.96496582,-7016132.831573486,17923427.58178711,1450940.0129318237
0.21,24178382.873535156,45183956.146240234,74541122.43652344,27833459.854125977,56670886.9934082,-782287.3592376709,-965011.8947029114,120634.09388065338,387079.4177055359,3660183.1912994385,30814294.815063477,41458938.59863281,49283115.38696289,43480697.63183594,-15870849.609375,-2229775.4287719727,737351.9539833069,-275091.0520553589,-5484687.805175781,679149.5680809021,19386453.62854004,28128189.086914062,34888751.98364258,-5067598.342895508,-4591588.497161865,127608.64198207855,-891050.8751869202,-3927678.108215332,-1780017.1375274658,4431864.261627197,30146345.138549805,8053587.913513184,-11913510.3225708,-12005239.486694336,-8835888.862609863,1881654.143333435,-1497545.1231002808,-3361131.6680908203,3025414.46685791,23311029.4342041,1076586.365699768,-9960221.290588379,-11569135.665893555,-10890851.974487305,-3160075.902938843,1917446.1364746094,12559234.619140625,8875239.372253418,10344811.43951416,10211006.164550781,-10782108.306884766,-10819430.351257324,-12481332.778930664,984338.2239341736,12032983.779907227,-1513400.912284851,-912680.8643341064,2418937.921524048,-10492961.883544922,1504488.229751587,27050771.713256836,7905017.852783203
0.215,11141057.968139648,32837638.85498047,67082283.02001953,25737380.981445312,54266075.134277344,-1888064.980506897,539015.0547027588,1794848.5612869263,2099451.3034820557,4766529.083251953,32410469.05517578,44900875.091552734,50678043.365478516,43418563.84277344,-15014870.643615723,-627544.8203086853,2361255.884170532,1397053.1225204468,-2993574.1424560547,3008075.714111328,21751068.115234375,31164707.18383789,39942810.05859375,-3642099.618911743,-1471758.3656311035,1752833.1279754639,999167.2039031982,-2426880.5980682373,-120371.10328674316,8018965.721130371,34099380.49316406,13239866.256713867,-9886417.388916016,-10115587.23449707,-8993685.722351074,3644659.0423583984,23819.450289011,464705.9440612793,5889883.995056152,27662593.841552734,8175975.799560547,-7887574.195861816,-9431971.549987793,-8927042.007446289,-1291602.9691696167,7221634.864807129,17039745.330810547,13378332.138061523,13101991.653442383,17653305.053710938,-8820505.142211914,-8722364.42565918,-10117000.579833984,6347989.082336426,18968763.35144043,4916992.1875,5818203.926086426,7845128.059387207,-8396614.074707031,6948137.283325195,33563121.7956543,12906838.417053223
0.22,4849324.2263793945,27225633.62121582,61159027.099609375,23240127.563476562,51250717.16308594,-3540429.11529541,1903068.4232711792,3116650.342941284,3439795.0172424316,5829867.839813232,32662792.205810547,44247570.0378418,47479221.34399414,40609951.01928711,-14391156.196594238,671177.864074707,3684182.4054718018,2752611.1602783203,496981.79960250854,4488112.449645996,22904869.079589844,32963653.564453125,41140388.48876953,-3432317.2569274902,1816440.224647522,3044774.7707366943,2535280.466079712,-338613.5697364807,465794.4142818451,11269686.698913574,35544773.10180664,15333000.183105469,-10390312.194824219,-10770197.868347168,-9814091.682434082,3948528.528213501,343004.3160915375,317541.36085510254,6583342.0753479,29254093.170166016,11277814.865112305,-8418267.250061035,-9988749.504089355,-9632451.057434082,-3458139.657974243,5734234.33303833,17186281.204223633,13446053.504943848,12967524.528503418,18543659.210205078,-9455547.332763672,-9312738.418579102,-10593969.345092773,5020147.800445557,17825017.92907715,7050695.419311523,8062664.985656738,6338243.48449707,-9237412.452697754,5479885.578155518,32389911.651611328,12389630.317687988
0.225,14156649.589538574,35272598.26660156,64378013.610839844,24037500.381469727,51230434.41772461,-1531543.3740615845,2282273.769378662,3248691.5588378906,3554314.136505127,6210747.241973877,30401729.583740234,41214569.091796875,43410156.25,39379402.16064453,-12012992.858886719,877480.2684783936,3899858.4747314453,2979239.7022247314,926894.3071365356,3455307.722091675,21542098.999023438,32738372.802734375,37579608.91723633,-2488495.349884033,4794788.837432861,3168346.643447876,2606714.2486572266,292341.1726951599,-707204.8187255859,11425962.448120117,31769519.805908203,12106804.847717285,-10645160.675048828,-10973145.484924316,-9206994.05670166,3489068.7465667725,-269856.8403720856,-4364082.336425781,3876841.7835235596,25108581.54296875,7608127.117156982,-8682735.443115234,-10400366.78314209,-10028023.719787598,-6146044.731140137,2007617.2351837158,12970911.026000977,9162771.224975586,9042885.780334473,12322275.161743164,-9757247.924804688,-9644735.336303711,-11126735.68725586,1394099.7123718262,12414368.629455566,3355900.0492095947,4232105.255126953,2523069.6201324463,-9801980.972290039,1650090.3367996216,27814758.30078125,9124787.330627441
0.23,32320056.915283203,50710582.7331543,75892456.0546875,30218393.325805664,56133136.74926758,4224762.916564941,3076540.946960449,3865674.7341156006,4088594.913482666,7553929.805755615,29328176.498413086,41350299.83520508,43504459.381103516,43108852.38647461,-8444098.472595215,1645282.26852417,4605485.439300537,3662767.8871154785,-877747.7741241455,2153267.1451568604,20334527.96936035,32479263.305664062,34620159.14916992,-401923.89488220215,7071838.37890625,3774398.5652923584,2963076.591491699,-163058.3107471466,-1575980.544090271,10093367.576599121,27118221.282958984,7778412.342071533,-8837538.719177246,-8999653.816223145,-6689409.255981445,4000450.611114502,2227.477729320526,-7884074.2111206055,1253010.7498168945,19927274.703979492,2638695.240020752,-6857751.846313477,-8671598.434448242,-8292315.483093262,-5571560.382843018,1163251.7576217651,9351298.332214355,6057500.839233398,6484687.328338623,6537210.941314697,-7932046.890258789,-7882143.020629883,-9626701.354980469,566655.7550430298,10510115.623474121,-992370.9034919739,-247800.75252056122,1693732.500076294,-7979126.930236816,802263.2598876953,26196245.193481445,8338067.054748535
0.235,42204032.89794922,59606082.916259766,85280815.12451172,37382125.85449219,62598331.451416016,9058696.746826172,5294760.704040527,6084729.6714782715,6206640.243530273,10222904.205322266,32676216.12548828,46242752.07519531,48340194.70214844,49889335.63232422,-5720201.9691467285,4006698.1315612793,6825356.006622314,5841022.01461792,-1091406.226158142,3395310.401916504,22226364.135742188,34555889.12963867,37541061.40136719,1517775.297164917,8610973.358154297,6021674.633026123,5044027.328491211,145936.7275238037,234820.47021389008,11357113.8381958,27905986.785888672,8486810.684204102,-6397228.240966797,-6474524.49798584,-4158131.5994262695,5547208.786010742,2148913.3834838867,-5422663.688659668,3029357.671737671,21281036.376953125,3179044.9619293213,-4389907.8369140625,-6119501.113891602,-5912899.971008301,-2410094.738006592,2956587.553024292,10790149.688720703,8196501.731872559,9778059.959411621,7528860.569000244,-5478297.233581543,-5489536.762237549,-7245563.983917236,2430828.809738159,13459321.022033691,-1139208.3168029785,-331189.6026134491,3619446.039199829,-5323406.219482422,2792262.7925872803,27930078.506469727,10933650.016784668
0.24,33971523.28491211,53783592.224121094,82936958.31298828,38214576.721191406,64227348.32763672,9567571.640014648,7833384.5138549805,8627332.68737793,8745822.90649414,12119050.025939941,38070743.560791016,50983535.76660156,53319000.244140625,54430850.982666016,-4251330.375671387,6591637.61138916,9274054.527282715,8276094.436645508,1585436.8209838867,6748170.375823975,26159151.077270508,38448822.021484375,44264263.15307617,2935842.514038086,9469419.479370117,8648473.739624023,7726940.155029297,1912343.3828353882,4160680.2940368652,15734244.346618652,33776847.83935547,14708453.178405762,-5063883.304595947,-5169246.673583984,-3337980.270385742,6763067.245483398,5001089.572906494,561642.587184906,8326853.7521362305,29504356.384277344,9132558.822631836,-3005708.694458008,-4583122.730255127,-4595685.005187988,-185063.52603435516,4827920.913696289,15965608.596801758,13215499.877929688,16207242.965698242,13554682.731628418,-4116297.2450256348,-4168982.0289611816,-5735247.1351623535,4501183.986663818,16318147.659301758,2279231.548309326,3217526.912689209,5599437.713623047,-3864934.9212646484,4889452.4574279785,29711006.16455078,14036753.65447998
0.245,17030536.651611328,39997165.67993164,72053054.80957031,32727287.29248047,59586986.54174805,8334615.707397461,9680213.928222656,10363557.815551758,10599818.229675293,12497880.935668945,40872592.92602539,51157508.850097656,54236602.783203125,54095165.25268555,-2481085.0620269775,8249480.247497559,10896877.28881836,9925789.833068848,5116958.141326904,9759409.90447998,28645952.224731445,41137603.759765625,47680423.736572266,5265109.539031982,9924747.467041016,10408385.276794434,9671893.119812012,4104395.866394043,7209039.688110352,18965631.48498535,38163898.46801758,20469568.252563477,-4289664.745330811,-4433767.795562744,-3531450.7484436035,7145951.271057129,6550610.542297363,3557006.1206817627,11490573.88305664,36446067.810058594,14381121.635437012,-2185123.4436035156,-3711735.963821411,-3757946.014404297,-698289.4539833069,5966818.809509277,19160419.464111328,15572389.602661133,18976243.97277832,18181558.60900879,-3266535.997390747,-3366046.667098999,-4829036.235809326,5807835.578918457,15767346.382141113,5482853.412628174,6407052.993774414,6715809.8220825195,-3168724.536895752,6070374.965667725,30279535.2935791,15617859.840393066
0.25,11134872.436523438,34240360.260009766,66300567.626953125,30590925.216674805,55701892.8527832,10770875.930786133,12161680.221557617,12755745.887756348,13087628.364562988,14186732.292175293,40865653.99169922,49445663.45214844,52573528.28979492,51620407.10449219,784932.017326355,10535915.37475586,13239261.627197266,12265922.546386719,7912200.450897217,11629321.098327637,28873867.03491211,41109977.72216797,45218200.68359375,9038751.602172852,11299435.61553955,12652973.175048828,12058466.911315918,5701714.038848877,7699512.481689453,18036413.192749023,37456722.259521484,20785503.387451172,-2827888.250350952,-2953766.5843963623,-2490305.9005737305,7728041.172027588,6142971.515655518,1492953.6581039429,9331168.174743652,35642585.75439453,14597759.246826172,-751381.6356658936,-2305353.6415100098,-2199868.2022094727,-2769569.6353912354,5970073.699951172,16897714.614868164,13283289.909362793,15693657.875061035,18133157.73010254,-1730127.9306411743,-1918102.8604507446,-3467553.3771514893,5739092.3500061035,13203298.568725586,6243769.645690918,7044635.772705078,6594345.569610596,-1877818.22681427,5922210.216522217,29953075.408935547,15326901.43585205
0.255,23434207.916259766,43680595.39794922,72877555.84716797,38457855.224609375,59353652.95410156,17715749.740600586,16557264.32800293,17221612.93029785,17482524.871826172,19088594.436645508,41418888.092041016,51215259.55200195,52737514.49584961,51174713.134765625,4889133.930206299,14996163.368225098,17735860.82458496,16672737.121582031,10203896.522521973,13289796.829223633,29331916.80908203,40216564.1784668,42112064.361572266,12463355.06439209,15160239.219665527,16907392.501831055,16333965.301513672,6781024.932861328,6957531.452178955,15425599.098205566,35240390.77758789,17657367.706298828,-794537.4250411987,-858784.8544120789,760604.6199798584,9317281.723022461,5107588.291168213,-1147732.2578430176,5374374.866485596,30178325.653076172,11741396.9039917,1206086.7547988892,-328976.89938545227,-55058.34519863129,-4390859.603881836,3984997.7493286133,12127522.468566895,9740270.614624023,10921048.164367676,16072532.653808594,337249.36842918396,62740.48238992691,-1603116.8699264526,3502214.6701812744,11352645.874023438,5491829.872131348,6236884.593963623,4501086.711883545,50726.9985973835,3755386.1141204834,28288778.30505371,13271538.734436035
0.26,39667423.248291016,57295726.77612305,82408020.01953125,49051624.2980957,66762245.178222656,23959587.09716797,20547988.891601562,21346557.6171875,21407991.409301758,23691574.096679688,42702465.05737305,55433322.90649414,54889915.466308594,52635723.11401367,8274427.41394043,19222240.447998047,21906068.801879883,20734748.84033203,11597290.0390625,14387937.545776367,31049051.28479004,40399967.193603516,43006752.014160156,13954163.551330566,20463516.235351562,20980617.52319336,20348287.58239746,7632006.1683654785,6782249.450683594,14960680.961608887,35596149.44458008,16354824.06616211,1158476.8295288086,1132944.107055664,4445075.511932373,11054939.270019531,5300644.874572754,-180385.0531578064,4726142.406463623,27454435.348510742,10221357.345581055,3162654.8767089844,1688438.892364502,2059427.9766082764,-4435527.324676514,1780680.2988052368,10829224.586486816,9084712.028503418,9916362.762451172,16103843.688964844,2324784.994125366,2060714.2448425293,391812.7715587616,1157031.0592651367,11897798.538208008,5656694.412231445,6410164.833068848,2304801.9409179688,2001544.47555542,1496094.7036743164,26248371.124267578,11155639.6484375
0.265,43239135.7421875,60032951.35498047,81714317.32177734,50155391.693115234,68084175.10986328,25043003.08227539,20416900.634765625,21246234.893798828,21146734.2376709,23056520.462036133,40956485.748291016,55692504.8828125,54371322.63183594,51903636.93237305,10088964.462280273,19190889.358520508,21795816.42150879,20606683.7310791,10549084.663391113,13150796.890258789,31458963.39416504,40156196.59423828,44407184.60083008,14501694.679260254,23298881.53076172,21017597.198486328,20297567.36755371,7904275.894165039,6841084.957122803,15889457.702636719,36459354.400634766,17298341.751098633,2983801.3648986816,2890754.222869873,5841011.524200439,11500074.38659668,7065940.380096436,2481589.3173217773,6764251.232147217,28857631.68334961,10443920.135498047,5091318.130493164,3631737.70904541,4018645.763397217,-2844859.1232299805,3180549.144744873,14750611.305236816,11216332.43560791,11964939.11743164,17977426.528930664,4195409.774780273,4040223.5984802246,2447837.5911712646,2670010.805130005,15259681.701660156,7586783.885955811,8246931.076049805,3814787.8646850586,3820347.785949707,3017061.948776245,27012928.009033203,11856329.917907715
0.27,38039970.39794922,54266559.60083008,73956764.2211914,43108325.95825195,62438591.00341797,23252279.28161621,17186000.82397461,17957719.802856445,17825832.36694336,18710830.688476562,35919734.954833984,50779846.19140625,49467529.296875,47526920.318603516,10724167.823791504,15827073.097229004,18472084.045410156,17315011.978149414,7729672.431945801,10067577.362060547,28927719.116210938,36928482.05566406,40278938.29345703,15788639.068603516,21745256.423950195,17848268.508911133,17001068.115234375,7435224.533081055,6025133.6097717285,14786828.04107666,33803436.279296875,15701309.204101562,4288681.507110596,4023753.6430358887,4612484.455108643,10791628.83758545,8789644.241333008,2141432.285308838,6505900.3829956055,29358428.955078125,8555376.052856445,6440278.53012085,4977312.088012695,5255273.342132568,-686703.3839225769,7293418.884277344,19042594.90966797,12294867.515563965,11747417.449951172,17234600.067138672,5463397.50289917,5398935.794830322,3874610.662460327,6988962.173461914,18866064.071655273,8496658.325195312,8955961.227416992,8031507.49206543,5021551.132202148,7358744.144439697,30185760.498046875,14412850.379943848
0.275,42009941.10107422,56819732.666015625,75230400.08544922,42423286.43798828,60634902.95410156,24092708.587646484,16577695.846557617,17314661.026000977,17228048.32458496,17976421.356201172,33794643.40209961,48478477.478027344,46198474.8840332,44012374.87792969,11110349.655151367,15045083.999633789,17872720.71838379,16660020.82824707,7080453.395843506,9001569.747924805,26869226.455688477,32576290.130615234,32680461.883544922,17073699.951171875,19156532.287597656,17168939.5904541,16152967.45300293,7174309.253692627,5291600.227355957,12126902.58026123,29571069.717407227,9717926.025390625,3668843.0309295654,3290238.857269287,3119376.6593933105,10452287.673950195,8786877.632141113,-1497321.605682373,2700863.5997772217,26549644.470214844,2699079.2751312256,5698689.937591553,4319368.839263916,4385092.735290527,116620.0265288353,7241477.489471436,18323379.516601562,9939650.535583496,6835395.336151123,11652925.491333008,4687837.600708008,4616869.926452637,3142182.5885772705,7039301.872253418,17525688.17138672,4506393.909454346,4868680.000305176,8011436.462402344,4283096.790313721,7486543.655395508,29444147.10998535,12949176.788330078
0.28,59004455.56640625,72755851.74560547,89814102.17285156,53843788.146972656,68778457.64160156,28154323.57788086,20893348.693847656,21602272.033691406,21569063.186645508,23948190.689086914,38590991.97387695,54295234.68017578,50220905.30395508,46224037.170410156,11729138.374328613,19321962.356567383,22299589.157104492,20969627.380371094,10948079.109191895,12336601.257324219,29530494.689941406,32404460.906982422,30460960.388183594,16533042.907714844,19650167.46520996,21386648.178100586,20249437.33215332,8181627.27355957,6790595.054626465,12233375.549316406,29696945.190429688,4847569.942474365,796972.1555709839,528248.5485076904,2885074.1386413574,10833256.721496582,7418375.015258789,-3839743.3757781982,191314.9654865265,24505493.1640625,-2458882.8086853027,2661474.7047424316,1419294.834136963,1359889.8649215698,-1440924.882888794,368739.0983104706,13823133.46862793,6634117.603302002,1665927.8869628906,6024226.665496826,1691664.457321167,1562390.4466629028,149237.2453212738,168268.90408992767,10120136.260986328,-3178535.4614257812,-2711986.0649108887,1155652.642250061,1451732.2778701782,603167.1166419983,22021600.7232666,5740871.906280518
0.285,70008628.84521484,84010421.75292969,100191390.99121094,63139137.268066406,76849746.70410156,29977430.34362793,24519203.186035156,25120672.22595215,25163400.650024414,30160261.154174805,44573596.9543457,61722740.173339844,57198177.337646484,52050926.208496094,11904487.609863281,23022457.122802734,25921201.705932617,24623149.871826172,15902460.098266602,16870807.647705078,35031196.59423828,37586193.0847168,36825508.11767578,14877800.941467285,21700843.811035156,24984893.798828125,23866519.927978516,9955562.591552734,10183427.810668945,16272575.378417969,34952491.760253906,7071485.996246338,-2017600.5363464355,-2036460.8764648438,2390266.180038452,10293745.040893555,6577273.845672607,-2009329.080581665,2791430.4733276367,26854701.99584961,-498877.4359226227,-189396.9625234604,-1404285.7885360718,-1354272.2463607788,-3885837.0780944824,-5410971.164703369,11827524.185180664,6667506.217956543,2283799.648284912,7268465.518951416,-1068005.2042007446,-1244466.5431976318,-2582421.064376831,-5643607.139587402,3629442.6918029785,-7347236.633300781,-6747285.36605835,-4554015.159606934,-1156526.4463424683,-5359883.3084106445,16004745.483398438,1130350.2321243286
0.29,61509437.561035156,75787689.20898438,92554161.07177734,56596111.29760742,73105346.6796875,26330514.907836914,21683631.896972656,22150701.52282715,22321886.06262207,28905061.721801758,43498916.62597656,60882644.65332031,57994598.388671875,55011135.10131836,10549041.748046875,20272277.83203125,22899721.145629883,21841182.708740234,16512840.270996094,17401313.78173828,36967426.30004883,42257583.61816406,44299480.43823242,14647822.380065918,20539175.033569336,22217725.75378418,21197572.708129883,10858343.124389648,12086535.453796387,19652849.197387695,39166805.267333984,14035362.243652344,-2296715.021133423,-2189016.819000244,251790.07649421692,8166611.671447754,7069247.722625732,1146414.6375656128,7394182.205200195,30495269.775390625,7721477.98538208,-389550.5368709564,-1729315.4001235962,-1474162.4593734741,-4530629.634857178,-2184179.7828674316,14970373.153686523,10243865.013122559,7975325.107574463,14583639.144897461,-1208794.7130203247,-1419075.4890441895,-2683922.290802002,-2532216.0720825195,4648643.016815186,-3428747.8923797607,-2810455.799102783,-1274986.6247177124,-1257075.548171997,-2319670.6771850586,19946868.896484375,6706900.119781494
0.295,53475074.768066406,67080909.729003906,85166534.42382812,46532321.92993164,66381927.490234375,22875539.779663086,16502464.294433594,16947740.55480957,17225427.627563477,22964014.053344727,38389522.552490234,55387496.94824219,54143577.575683594,54779369.35424805,8345831.871032715,15108155.250549316,17540927.88696289,16664537.42980957,13010756.492614746,14206405.639648438,34067844.39086914,41802959.44213867,45347637.17651367,16006612.777709961,16421342.849731445,17122079.849243164,16133365.631103516,10445548.057556152,10583702.087402344,18794960.021972656,38254295.349121094,17482490.53955078,-1006950.7360458374,-984893.798828125,-1144616.723060608,6928029.0603637695,7533815.383911133,1176517.9634094238,8371926.307678223,30158740.997314453,13301598.54888916,963942.5277709961,-496094.9718952179,-181232.288479805,-2752321.243286133,4724312.782287598,18389087.677001953,12858448.028564453,11103095.054626465,18585786.819458008,87045.8111166954,-134003.6690235138,-1337678.6708831787,4148200.511932373,8507895.469665527,2986716.0320281982,3618210.0772857666,5529820.919036865,57235.91148853302,4528855.800628662,28076297.760009766,15182531.356811523
0.3,81895187.37792969,95781532.28759766,113802459.71679688,61279308.3190918,80864013.671875,29087230.682373047,19447858.810424805,19967426.300048828,20176324.84436035,24130897.521972656,42844257.35473633,61490135.192871094,59993427.27661133,60418876.64794922,8567526.817321777,17913190.841674805,20429519.653320312,19431762.6953125,11997730.255126953,14007127.76184082,34024116.51611328,41252281.188964844,43539867.40112305,16350906.372070312,15185332.298278809,19983249.66430664,18973033.905029297,10391701.698303223,8808609.962463379,17189123.153686523,36500869.75097656,14507648.468017578,-1715044.2600250244,-1806123.6143112183,1322078.3472061157,8939743.995666504,6517588.138580322,-1808253.526687622,5814424.03793335,26793323.516845703,10039605.140686035,256190.06156921387,-1193715.0955200195,-941196.7992782593,-1201110.7206344604,3057026.3862609863,16635643.005371094,11474397.659301758,6649478.912353516,13119416.236877441,-765702.6648521423,-942171.9908714294,-2097205.877304077,2305679.3212890625,4670450.687408447,2457695.960998535,3205670.118331909,3618554.5921325684,-694645.5240249634,2889657.0205688477,26464254.37927246,11754463.195800781
0.305,151200286.86523438,168708312.98828125,184709564.20898438,107067260.7421875,124163734.43603516,46339160.91918945,33024024.963378906,33554794.31152344,33490089.416503906,38825347.900390625,63553325.65307617,86651817.32177734,83848358.15429688,78944458.0078125,13789640.426635742,31166221.618652344,33937156.677246094,32667720.794677734,18242136.001586914,21961503.982543945,44102500.915527344,49579170.22705078,48445854.18701172,14681571.006774902,19023595.809936523,33188259.12475586,32299507.14111328,12391390.800476074,11712443.351745605,20957622.528076172,40463359.83276367,11696912.76550293,-5921499.729156494,-6003957.271575928,5410543.918609619,11882344.245910645,4670895.099639893,-3485287.666320801,5284572.601318359,26582593.91784668,3011355.8769226074,-3994358.539581299,-5378620.147705078,-5076111.316680908,-2985011.577606201,-7998394.48928833,11577043.533325195,8934257.507324219,-767179.6083450317,4275172.233581543,-5083762.168884277,-5220735.0730896,-6324561.11907959,-8689542.770385742,-6903075.218200684,-5219009.3994140625,-4424152.851104736,-7628382.682800293,-4918781.757354736,-8154250.144958496,13883775.71105957,-3847864.3894195557
0.31,216986267.08984375,240201599.12109375,254549591.06445312,152178588.8671875,169746475.21972656,63313556.67114258,46246189.11743164,46700305.9387207,46378532.40966797,58186985.01586914,88167678.83300781,115218307.49511719,111974754.3334961,102174568.17626953,21336566.925048828,44091239.92919922,47004032.135009766,45675899.505615234,27844020.84350586,34220371.24633789,59802017.21191406,65374496.45996094,60651256.5612793,13280581.4743042,22092641.830444336,45961730.95703125,45387264.251708984,15668238.639831543,19246021.270751953,29748342.514038086,49234909.05761719,15421490.669250488,-10654919.624328613,-10703273.77319336,5140658.378601074,11026058.197021484,3956404.9243927,-1295369.9827194214,9529704.093933105,31871740.341186523,1956056.9524765015,-8848185.539245605,-10234771.728515625,-9717761.993408203,-7721917.629241943,-15607520.10345459,9751845.359802246,9841479.301452637,-2561988.115310669,2725982.904434204,-9805229.187011719,-10054644.584655762,-11072430.610656738,-16089136.123657227,-13803756.713867188,-10388515.47241211,-9811866.760253906,-15251119.613647461,-9717330.932617188,-15785448.07434082,4934923.17199707,-14385581.970214844
0.315,227542083.74023438,253862823.48632812,268857666.015625,158596054.07714844,180478530.88378906,65879104.61425781,46782615.661621094,47236770.62988281,46941150.6652832,65548583.984375,95743820.19042969,122287025.45166016,119578147.8881836,110406364.44091797,24350521.087646484,44676502.2277832,47487236.02294922,46376380.920410156,31760496.139526367,40555797.5769043,67273773.19335938,74316535.94970703,67850242.6147461,13689503.66973877,19019161.224365234,46400852.20336914,46030036.92626953,17475357.055664062,24894001.007080078,35818767.54760742,54435482.025146484,21396972.65625,-11579790.115356445,-11699278.831481934,-201237.41030693054,6547473.907470703,5253712.177276611,2168983.9363098145,14231366.157531738,37199234.00878906,7290597.438812256,-9991720.199584961,-11401262.283325195,-10733400.344848633,-11088677.406311035,-11602231.979370117,13159938.81225586,13615064.62097168,2534759.283065796,9007550.239562988,-10700217.247009277,-11223182.678222656,-12108225.82244873,-11982372.283935547,-8592396.73614502,-7371057.033538818,-7091139.316558838,-11186614.036560059,-10829700.469970703,-11791265.487670898,8804468.154907227,-8782242.774963379
0.32,176768157.95898438,200337371.82617188,216726867.67578125,123005615.234375,147086441.04003906,51151382.44628906,35177333.83178711,35774707.79418945,35750026.70288086,53397087.09716797,78592582.70263672,100475006.10351562,97925521.85058594,92238265.99121094,19144247.05505371,33474048.614501953,36082912.44506836,35155982.971191406,25698717.11730957,34739768.981933594,58178421.02050781,64856170.654296875,58917392.73071289,14008566.856384277,13375345.230102539,35194190.979003906,34573608.3984375,16141136.169433594,22483932.495117188,32842555.99975586,49684055.32836914,19319511.41357422,-7792662.143707275,-8018641.471862793,-3559676.6471862793,4571897.029876709,7645292.75894165,2545903.9211273193,13718619.346618652,36156650.54321289,9016123.77166748,-6392501.8310546875,-7706460.475921631,-7120725.154876709,-9153249.740600586,-3438886.1656188965,17036924.362182617,15178620.338439941,7132495.880126953,13072996.139526367,-6936690.807342529,-7668970.108032227,-8423504.829406738,-3889345.407485962,626044.3925857544,-2232737.5411987305,-1943521.7380523682,-3053970.0984954834,-7220872.87902832,-3632313.013076782,16180561.065673828,2321763.753890991
0.325,106678184.50927734,123588348.38867188,139556381.22558594,77166496.27685547,96787162.78076172,30366340.63720703,22928976.05895996,23628150.939941406,23788171.768188477,31216909.408569336,50551376.34277344,67965377.80761719,64743652.34375,59198932.64770508,10086912.155151367,21572618.48449707,24092823.028564453,23094415.66467285,14926177.024841309,21506166.458129883,39784420.013427734,43399307.25097656,39107379.91333008,12553497.314453125,12403205.871582031,23444375.99182129,22237504.959106445,13014961.242675781,13683768.272399902,23437940.59753418,38067272.1862793,7917397.499084473,-2562686.6817474365,-2798700.3326416016,110150.06899833679,8604319.57244873,9689486.503601074,-772978.7230491638,8518017.768859863,29621732.711791992,1683082.4613571167,-1140097.1412658691,-2265811.9201660156,-1885976.1953353882,-3159014.4634246826,-1590910.4347229004,17182830.810546875,12587865.829467773,5730346.202850342,9275582.313537598,-1691647.2911834717,-2361948.251724243,-3075911.9987487793,-2097426.652908325,2980816.602706909,-2659361.8392944336,-2041690.8264160156,-1298658.2517623901,-1980965.6143188477,-1819542.8848266602,14835238.456726074,3383203.7448883057
0.33,58886238.09814453,70754890.44189453,86299552.91748047,50183883.66699219,63619483.947753906,16841089.248657227,18224094.39086914,18812566.75720215,18905084.60998535,15527894.973754883,32773197.174072266,49230747.22290039,45146366.119384766,36410850.524902344,4753205.7762146,16824333.19091797,19419418.334960938,18250532.150268555,8683302.879333496,12214949.607849121,27942985.53466797,28602373.123168945,26686393.73779297,11713207.244873047,16154296.875,18855035.78186035,17270006.17980957,11056225.776672363,6931132.793426514,16593067.169189453,29794628.143310547,-399470.65711021423,1013807.0583343506,830731.5111160278,6044315.814971924,13846054.077148438,10639642.715454102,-3588199.1386413574,4955553.5316467285,25115118.0267334,-5598809.242248535,2660146.951675415,1594529.5095443726,1845868.1106567383,1507584.9294662476,-3448115.825653076,15647837.63885498,10557016.372680664,2596530.6758880615,5188721.179962158,2004508.9721679688,1596531.1527252197,773035.8242988586,-3870152.9502868652,1062556.3859939575,-5183445.453643799,-4323336.601257324,-3133424.2820739746,1759762.167930603,-3714318.7522888184,9510509.490966797,-2128979.444503784
0.335,36290176.39160156,48367839.81323242,68439002.99072266,41640914.91699219,56134723.66333008,13004815.101623535,18414999.00817871,18801435.470581055,18824937.82043457,13107104.301452637,32928081.512451172,51119369.50683594,46125637.05444336,36665493.01147461,5104559.421539307,16765396.118164062,19476085.662841797,18298812.866210938,10494873.046875,13159603.118896484,30314517.974853516,30500102.996826172,32750457.763671875,14831811.904907227,18169948.57788086,18810142.517089844,17405244.827270508,11723495.483398438,8226622.581481934,18118883.13293457,32260372.161865234,5528335.5712890625,3846669.912338257,3671791.0766601562,6752791.404724121,14131478.309631348,10770065.307617188,-1439674.0198135376,7706634.521484375,28410150.5279541,-532953.7987709045,5726798.057556152,4456251.14440918,4705762.86315918,2084770.4410552979,1568389.0581130981,17119935.989379883,14381150.245666504,5805804.72946167,10730418.20526123,4945878.505706787,4776817.321777344,3706965.208053589,1272635.9367370605,5485114.574432373,49457.41221308708,818425.7745742798,2077682.0182800293,4746525.287628174,1335682.3921203613,14642208.099365234,2129492.75970459
0.34,17274782.180786133,32570255.279541016,61832321.16699219,34113059.997558594,56705898.28491211,11355287.551879883,16923870.086669922,17264358.520507812,17491819.381713867,15914258.95690918,39754779.81567383,59633945.46508789,53285003.662109375,46908077.239990234,6388122.081756592,15243448.257446289,17962757.110595703,16932725.90637207,15046456.336975098,19096637.725830078,38705009.46044922,39893482.20825195,47416366.57714844,20381383.895874023,15951393.127441406,17179988.861083984,16232404.708862305,13641456.604003906,14336563.110351562,24502912.521362305,41799816.1315918,19310554.50439453,8583202.362060547,8392748.832702637,3423835.277557373,11483398.4375,11086857.795715332,5256902.21786499,14348094.940185547,36986057.28149414,13926371.574401855,10562977.79083252,8991018.295288086,9281766.891479492,2184684.7534179688,14325862.884521484,22129632.9498291,22418489.456176758,15453768.730163574,22869329.45251465,9640074.729919434,9595923.42376709,8249333.381652832,14064418.79272461,16983568.19152832,13275187.492370605,13823456.764221191,15038384.437561035,9581510.543823242,14197468.757629395,30926198.959350586,18553251.266479492
0.345,-5398363.11340332,10356516.83807373,45091575.622558594,21149280.548095703,48112644.19555664,6808605.194091797,13009320.259094238,13481169.700622559,14011910.438537598,13226474.76196289,38191295.6237793,58622131.34765625,50905563.35449219,45242584.228515625,5006330.490112305,11584259.033203125,14153247.833251953,13220918.655395508,15211625.099182129,20143568.03894043,39717250.82397461,41133892.05932617,50864524.841308594,23228315.353393555,14324204.444885254,13444387.435913086,12665096.282958984,14483181.953430176,16942049.026489258,27148260.11657715,46740890.50292969,23262145.99609375,14190082.550048828,14038721.084594727,3497103.214263916,12932622.909545898,12324295.997619629,11239790.916442871,18068044.662475586,42549468.994140625,21407941.818237305,16146190.643310547,14477830.88684082,14769088.745117188,6340367.794036865,23160161.9720459,26480188.369750977,27505960.46447754,22350111.00769043,28422588.348388672,15097403.526306152,15109100.341796875,13628317.832946777,22862636.56616211,24055969.23828125,22285646.438598633,22742502.212524414,23911298.751831055,15275126.457214355,23133939.743041992,41981365.20385742,29938245.77331543
0.35,-15124373.435974121,-4109572.8874206543,25714284.896850586,13327075.958251953,34166297.912597656,3570916.6526794434,11495121.955871582,12072491.645812988,12597114.562988281,5862681.865692139,27566238.403320312,48177589.416503906,40054626.46484375,29281442.642211914,3689583.0631256104,10279651.641845703,12603759.765625,11644501.686096191,10886741.638183594,14366837.501525879,31303033.82873535,31870866.775512695,37602802.27661133,21638301.849365234,16960353.85131836,12164274.215698242,11125709.533691406,13705972.671508789,12985378.26538086,22709756.85119629,40619659.423828125,11451307.29675293,15888925.552368164,15778868.675231934,8137182.235717773,18867347.717285156,13777547.836303711,11902671.813964844,15323159.217834473,39977466.58325195,13634154.319763184,17765008.9263916,16277561.18774414,16484588.623046875,12451120.376586914,19986257.553100586,26536270.141601562,25469255.447387695,19325452.80456543,21536184.310913086,16698925.018310547,16686504.364013672,15332045.555114746,19669860.83984375,19352035.522460938,18334587.09716797,18774023.056030273,20642681.121826172,16999870.30029297,20035772.3236084,36581478.118896484,24184213.638305664
0.355,66718.55598688126,5255596.160888672,24828939.43786621,19553514.48059082,31152145.385742188,7633047.580718994,14718126.29699707,15265756.607055664,15449933.052062988,3960172.414779663,20999675.750732422,41930965.423583984,34008964.53857422,18665061.950683594,6439662.456512451,13462831.497192383,15575056.076049805,14580441.47491455,8408881.187438965,9779834.747314453,24508924.48425293,24479202.270507812,23223701.47705078,19520643.23425293,20291364.669799805,15374341.96472168,14069181.442260742,12782467.84210205,8102590.560913086,17302856.4453125,30377799.98779297,-1728697.5383758545,12131049.156188965,11946890.830993652,10194428.443908691,21614778.518676758,13964984.893798828,8281760.215759277,9877423.286437988,32939094.54345703,1560066.819190979,13915647.506713867,12649693.489074707,12700846.672058105,14148514.747619629,11542601.585388184,23193660.736083984,19944925.30822754,10479028.701782227,11425819.396972656,12964425.086975098,12792869.567871094,11752511.024475098,11233212.4710083,10151750.564575195,8670872.688293457,9028597.831726074,12131103.515625,13152140.617370605,11679408.073425293,24142412.185668945,11978624.34387207
0.36,24456962.58544922,28076938.62915039,43335376.73950195,32514553.07006836,43002475.73852539,16407909.393310547,18818405.151367188,19302248.001098633,19235254.287719727,11253750.801086426,26725536.346435547,47598510.7421875,38887916.564941406,26569395.065307617,11558371.543884277,17453948.974609375,19486068.725585938,18524316.787719727,11279026.03149414,12579029.083251953,27889112.47253418,28211826.32446289,23690917.96875,20852535.247802734,19469570.15991211,19306238.174438477,18088804.244995117,12899411.20147705,8607180.59539795,18493684.768676758,27516498.565673828,-755390.7036781311,8749659.538269043,8404059.410095215,6417169.094085693,17459270.477294922,13015948.295593262,5540220.737457275,8387984.275817871,29551097.869873047,-14394.93428915739,10481477.737426758,9234900.47454834,9165169.715881348,10758787.155151367,10247815.132141113,20577112.197875977,17913311.004638672,6399887.0849609375,10115309.715270996,9662318.229675293,9291808.128356934,8526648.52142334,9930555.34362793,8580783.84399414,7680107.593536377,8005280.494689941,10858036.994934082,9709202.766418457,10458444.595336914,21907314.30053711,11394310.95123291
0.365,30949569.702148438,36490127.56347656,55885383.60595703,37436676.025390625,53875991.82128906,21376171.112060547,19216991.424560547,19683448.791503906,19738115.310668945,18429601.669311523,36424255.37109375,56401088.71459961,45488895.416259766,39447006.22558594,14140568.733215332,17885610.580444336,19963216.78161621,19035343.170166016,15182284.355163574,18131828.30810547,35667793.27392578,36773437.5,34301734.924316406,24843137.741088867,16386671.06628418,19681531.90612793,18719524.383544922,13488398.551940918,12954540.252685547,24903512.954711914,32659645.080566406,10276814.460754395,12231882.095336914,11784537.315368652,3782446.6228485107,13187299.728393555,13047828.674316406,6570361.137390137,12266716.003417969,32755931.854248047,7641074.180603027,13977864.265441895,12582605.361938477,12547973.6328125,9287400.245666504,18129634.857177734,21461772.918701172,21575765.60974121,11204524.993896484,17468879.69970703,13194836.616516113,12790431.022644043,12103154.182434082,17774520.874023438,16350049.97253418,18290941.23840332,18806159.97314453,18762775.421142578,13339687.34741211,18284629.821777344,32464405.059814453,22798122.40600586
0.37,15681365.013122559,20693641.662597656,43155471.80175781,30821168.899536133,49184341.43066406,20456031.799316406,17205911.63635254,17616952.896118164,17974210.739135742,16220886.23046875,37067768.09692383,55637828.8269043,42641048.431396484,35358982.08618164,14300151.824951172,15962650.299072266,18113412.857055664,17169982.91015625,14663472.175598145,18104112.62512207,36324550.62866211,37714954.3762207,37005027.770996094,28322656.631469727,17023324.966430664,17855291.36657715,16905008.31604004,13541489.601135254,14456315.040588379,27807998.657226562,35255382.5378418,14422987.937927246,20198419.57092285,19770040.51208496,8775300.025939941,15961250.305175781,14996284.484863281,8697921.752929688,15703488.34991455,37075389.86206055,10697846.412658691,21968748.092651367,20475162.506103516,20600608.825683594,13904156.684875488,25247890.47241211,24015928.268432617,25970684.051513672,17563627.243041992,22923688.888549805,21155269.622802734,20904565.811157227,20155599.59411621,24818244.93408203,23869455.337524414,28338851.928710938,29142919.540405273,25833354.949951172,21535474.77722168,25185287.475585938,41515396.11816406,30022720.336914062
0.375,2961117.2676086426,2153462.1715545654,18815053.939819336,23365413.665771484,35550197.60131836,21082862.854003906,17784587.860107422,18057241.439819336,18568309.783935547,8955573.081970215,28880887.985229492,46115463.25683594,32287879.943847656,15236300.468444824,17204635.620117188,16499855.041503906,18658523.559570312,17718900.680541992,11226434.707641602,12893453.598022461,28947748.1842041,29118236.541748047,25044918.060302734,30057382.583618164,22172523.498535156,18598518.37158203,17416362.762451172,13304220.199584961,10908402.442932129,22959733.963012695,29131135.940551758,5538002.967834473,23416444.778442383,23072740.55480957,16296211.242675781,21936521.530151367,16633544.921875,7713929.176330566,12825798.988342285,35657955.169677734,2968892.0974731445,25162160.873413086,23716245.651245117,23963386.53564453,18979993.82019043,23434240.341186523,23766801.834106445,24929880.142211914,16070505.142211914,19579526.901245117,24352533.3404541,24210273.74267578,23432081.22253418,22900682.44934082,22976236.34338379,26347612.380981445,27249998.092651367,23958353.04260254,24754596.710205078,23161460.876464844,37194454.193115234,24036571.502685547
0.38,11424953.46069336,3545331.0012817383,10533422.470092773,23520847.32055664,29629562.377929688,27907394.409179688,21462980.270385742,21708578.10974121,22126098.6328125,7258361.339569092,22626058.57849121,38734920.501708984,24339317.321777344,347117.00677871704,23529708.862304688,20075485.229492188,22165138.244628906,21293508.529663086,10245351.791381836,10097065.925598145,23123546.600341797,19730449.676513672,9827899.932861328,30321233.74938965,25569459.915161133,22248069.763183594,20982088.088989258,13568183.898925781,7064961.910247803,15928006.172180176,20641145.706176758,-5753523.349761963,18038093.56689453,17804254.53186035,16454576.49230957,21906526.565551758,15785175.323486328,3766227.0069122314,5254408.359527588,28315629.959106445,-7132154.941558838,19773420.333862305,18407421.112060547,18664958.953857422,17700864.791870117,16535467.147827148,19698259.353637695,18628534.3170166,7257731.4376831055,11354016.304016113,19024707.794189453,18784357.07092285,18088258.743286133,15949818.61114502,16590713.500976562,15755496.978759766,16519147.872924805,17070743.560791016,19165674.209594727,16264242.172241211,24862541.19873047,14224263.191223145
0.385,27471179.962158203,16336915.969848633,20029087.06665039,25529924.392700195,32287799.835205078,33904956.81762695,22544332.50427246,23094968.795776367,23214534.759521484,11012985.229492188,21854310.989379883,36791412.353515625,20830974.578857422,129878.28254699707,25995109.55810547,21221580.505371094,23219692.23022461,22383485.794067383,11975605.010986328,11954473.495483398,23573535.919189453,14896440.505981445,2851059.913635254,28613216.400146484,22304519.653320312,23196952.81982422,22148355.48400879,14046824.45526123,7035823.822021484,13654905.319213867,17821134.567260742,-9794940.948486328,11064106.941223145,10949802.39868164,9272562.980651855,15521371.841430664,14195661.544799805,1161909.2226028442,179904.7738313675,20663581.84814453,-10579335.21270752,12886661.529541016,11520343.780517578,11767357.82623291,13335164.070129395,14641544.342041016,16895837.783813477,13771672.248840332,894409.716129303,6099963.665008545,12206312.17956543,11820400.23803711,11240623.474121094,14150421.142578125,14571414.947509766,9805902.481079102,10403828.620910645,15238246.91772461,12143518.447875977,14570338.249206543,19528648.376464844,13646894.454956055
0.39,24987327.575683594,13935142.517089844,21676496.505737305,19924112.31994629,29197641.372680664,30368984.22241211,17943113.327026367,18995441.436767578,18666273.11706543,10337574.95880127,19710256.576538086,33440536.499023438,15864587.783813477,612841.2485122681,20027795.791625977,16874425.888061523,18804773.330688477,17890081.40563965,11765622.13897705,12621031.761169434,24456186.294555664,11584048.2711792,2114519.1192626953,25184492.111206055,15916514.39666748,18547309.87548828,17678489.685058594,13945765.495300293,8809512.1383667,15468159.675598145,18893329.620361328,-9977906.227111816,11097299.575805664,11049338.340759277,4860460.28137207,11927103.996276855,15242332.458496094,2591203.451156616,1574083.4474563599,17186685.56213379,-9342265.129089355,13020847.32055664,11616825.103759766,11891048.431396484,14663075.44708252,21001926.42211914,20496013.641357422,15712286.949157715,3456580.16204834,6327165.126800537,12384660.720825195,12067910.194396973,11509942.054748535,20695434.5703125,21579494.47631836,14917885.780334473,15447880.744934082,21622261.04736328,12439319.610595703,21100093.841552734,27106107.711791992,21847314.834594727
0.395,6145966.053009033,-5685821.056365967,4507266.044616699,11590559.959411621,18212627.410888672,22554340.362548828,13917257.308959961,15210720.06225586,14486073.49395752,3813590.5265808105,14686658.85925293,27987087.24975586,10989031.791687012,-9044193.267822266,13772709.846496582,13046102.523803711,14921902.656555176,13931450.843811035,9104324.340820312,9513209.342956543,21663236.618041992,8666793.823242188,1648139.7151947021,23910017.013549805,14607058.52508545,14580436.706542969,13545009.61303711,13774911.880493164,8729062.0803833,16438444.137573242,18041194.915771484,-12129086.4944458,17650217.056274414,17578117.37060547,9049526.21459961,15912683.486938477,18319435.119628906,5658706.6650390625,6148931.503295898,17901447.296142578,-9357804.298400879,19531358.71887207,18137947.08251953,18391773.223876953,21936555.862426758,28637870.78857422,27804006.576538086,21900217.056274414,10266543.3883667,8980032.920837402,18902326.583862305,18857786.178588867,18172540.66467285,28417369.842529297,31199129.104614258,23981147.76611328,24477485.65673828,29234020.233154297,19203611.373901367,28695529.93774414,38088619.232177734,28294136.04736328
0.4,2210503.339767456,-12853874.206542969,-7372584.819793701,15902308.464050293,17400587.08190918,25475152.96936035,18602382.65991211,19618633.270263672,18875459.671020508,3170648.8132476807,16126745.223999023,30828168.869018555,17035255.432128906,-16060703.27758789,19737009.048461914,17687700.271606445,19479675.29296875,18590654.373168945,9477909.088134766,8801539.421081543,21183933.25805664,12189473.152160645,4368002.891540527,29454891.204833984,21409763.33618164,19295581.817626953,17931499.481201172,14858299.255371094,7660112.380981445,16065254.211425781,16927074.432373047,-11922948.837280273,23567167.282104492,23475854.873657227,16260349.27368164,21304729.461669922,19201187.133789062,6191121.578216553,8692673.683166504,20987018.585205078,-9019456.86340332,25303941.72668457,23947017.669677734,24082511.90185547,25783918.380737305,30076751.708984375,30594852.447509766,25190479.278564453,12489558.219909668,11494541.16821289,24611804.962158203,24756673.81286621,23871156.692504883,29772661.209106445,33312267.303466797,26734281.539916992,27198041.915893555,30677711.486816406,24924268.72253418,29951211.92932129,40174499.51171875,27972385.40649414
0.405,28537105.560302734,10291945.457458496,9260902.404785156,35265132.904052734,36403686.5234375,42835411.071777344,29562208.17565918,30070684.4329834,29695198.05908203,14528264.045715332,27533514.02282715,45117366.790771484,34942882.5378418,-3967252.254486084,37263965.60668945,28458749.771118164,30135478.973388672,29457498.55041504,14892994.88067627,14837942.123413086,28545637.130737305,24568597.7935791,15776193.618774414,40758197.78442383,30683210.372924805,30173171.997070312,28688083.64868164,16958305.35888672,8732491.493225098,18043159.48486328,21621429.443359375,-2160280.704498291,25472793.579101562,25470209.1217041,19020660.400390625,21264991.760253906,16720264.434814453,3579878.568649292,8604863.166809082,25380752.563476562,-2229297.399520874,27163803.100585938,25795606.61315918,25847915.649414062,21518701.553344727,26739048.00415039,26188999.17602539,23048763.275146484,8987783.432006836,14600136.756896973,26349355.697631836,26398826.599121094,25405994.415283203,26325670.24230957,26431110.382080078,22608568.19152832,23104387.283325195,27402154.92248535,26403732.299804688,26495487.213134766,32942043.30444336,26171817.779541016
0.41,57839233.3984375,38938194.274902344,37887222.29003906,51124935.150146484,55840682.98339844,59373271.94213867,35605987.548828125,35891551.97143555,35805942.53540039,26067583.084106445,36076538.0859375,55575756.07299805,47082340.240478516,18618864.059448242,51335781.09741211,34388282.775878906,35977821.350097656,35343147.27783203,19118505.477905273,21278493.881225586,37135486.6027832,36119190.21606445,30330009.46044922,50572383.880615234,35073024.74975586,36111907.958984375,34718727.111816406,18261814.11743164,11094228.744506836,22691930.770874023,30592287.063598633,12719567.29888916,26728900.909423828,26836057.662963867,18306951.52282715,18587060.928344727,15229638.09967041,1134085.1783752441,9002086.639404297,29953351.974487305,9794978.141784668,28507432.93762207,27091707.229614258,27224262.237548828,16482223.510742188,25807374.954223633,21474237.4420166,20366147.994995117,6615372.180938721,19182399.74975586,27620395.66040039,27395927.42919922,26485994.338989258,25379293.44177246,19350381.85119629,19691890.716552734,20268199.920654297,26514413.833618164,27445518.493652344,25606613.159179688,26359605.78918457,28628742.218017578
0.415,56849452.97241211,39112239.837646484,43923194.885253906,47966911.31591797,52653053.283691406,60114101.40991211,32198333.740234375,32688781.73828125,32440292.358398438,24535762.786865234,29610254.287719727,47786201.47705078,39229560.85205078,27673076.629638672,51301303.86352539,31023105.62133789,32588668.823242188,31734514.236450195,16882896.423339844,19877246.856689453,36469070.43457031,36061832.427978516,34982952.11791992,53052574.157714844,33839885.71166992,32699260.711669922,31337047.576904297,18239437.103271484,10481110.572814941,25391347.885131836,34855533.599853516,19638191.22314453,30181083.67919922,30256458.282470703,19854503.631591797,20082075.119018555,18225955.963134766,1378704.0710449219,11026659.01184082,32321620.94116211,17317464.82849121,32001136.779785156,30572078.704833984,30838430.404663086,18968126.29699707,29393722.534179688,22979446.411132812,22021617.889404297,9359923.362731934,22688549.041748047,31160266.876220703,30752353.66821289,29999155.044555664,28961578.369140625,19360719.680786133,22340564.727783203,22926366.806030273,30050685.88256836,30985071.182250977,29285284.0423584,26303037.643432617,32777935.028076172
0.42,35046146.392822266,17892053.604125977,25387493.133544922,35443923.95019531,34700485.22949219,49691574.09667969,27660970.68786621,28435153.96118164,27799007.415771484,15530729.293823242,15418596.267700195,30055452.346801758,22145206.451416016,17528850.555419922,43503677.36816406,26592823.028564453,28123876.571655273,27055862.426757812,12284349.44152832,13095674.514770508,27911703.10974121,27457603.454589844,25781913.75732422,49676956.17675781,32226646.423339844,28214485.16845703,26770242.69104004,18580144.88220215,5681671.619415283,23370420.455932617,30686206.817626953,13767848.014831543,33211677.55126953,33155735.01586914,24299482.345581055,25056480.407714844,22853155.1361084,2915599.3461608887,12241924.285888672,30517072.677612305,13976622.581481934,34962425.231933594,33557353.97338867,33789299.01123047,26341243.743896484,31589654.92248535,27577400.20751953,26090970.993041992,12963337.898254395,20996152.877807617,34176811.21826172,33823646.545410156,33068996.42944336,31062166.213989258,23157688.14086914,25304199.21875,25811899.185180664,32132011.41357422,34110229.4921875,31476032.257080078,27569099.42626953,31738363.26599121
0.425,30330358.505249023,12113315.58227539,13504900.932312012,33858100.89111328,28919692.993164062,44273933.41064453,30252016.067504883,31036336.89880371,30254472.732543945,14657400.131225586,9513488.76953125,22120712.280273438,17340114.59350586,6941682.815551758,40717109.68017578,29242860.794067383,30626251.220703125,29634624.481201172,12307437.896728516,10017632.484436035,22544488.90686035,22389278.411865234,13079594.612121582,46413417.81616211,33859283.447265625,30751186.37084961,29332370.75805664,20321491.241455078,569665.0743484497,19781038.284301758,24732572.555541992,4571783.065795898,32537235.260009766,32442127.227783203,26848798.751831055,26433658.599853516,24086273.193359375,2969204.1873931885,11000820.15991211,25803043.365478516,5241279.125213623,34264190.673828125,32860996.24633789,32871814.727783203,30182342.529296875,27820913.314819336,28162069.32067871,27587890.625,12569219.589233398,14400058.74633789,33401943.20678711,33260066.986083984,32279899.59716797,27196161.2701416,23301103.591918945,22660062.789916992,23132541.65649414,28287897.10998535,33339199.06616211,27631755.828857422,23744270.32470703,24550788.87939453
0.43,50841590.881347656,31016649.24621582,23083486.557006836,43764884.94873047,40201816.55883789,49185848.236083984,36007904.052734375,36587306.97631836,35924949.645996094,23106054.306030273,13155930.519104004,27199377.059936523,26608894.34814453,10412150.382995605,45303306.579589844,34981712.341308594,36161281.58569336,35433849.3347168,16066972.732543945,12645589.828491211,24883487.701416016,24714717.864990234,9059978.485107422,47018119.81201172,37137794.494628906,36316616.05834961,35086894.98901367,21962129.592895508,-985711.9917869568,19292646.408081055,24367668.15185547,3501794.3382263184,30230201.721191406,30196046.829223633,25435342.78869629,22110927.58178711,22074796.676635742,1701376.3189315796,9661342.62084961,22753496.170043945,2075272.0832824707,32036342.62084961,30595685.958862305,30414838.790893555,28768230.438232422,22604106.903076172,25216579.43725586,26520706.176757812,10596795.082092285,9685157.775878906,31044773.10180664,31068489.07470703,29827226.638793945,21995803.833007812,19893096.923828125,18009378.43322754,18546028.13720703,23090017.318725586,30846843.719482422,22417142.868041992,18372972.48840332,18574369.430541992
0.435,63796245.57495117,43444213.8671875,32970104.217529297,47514915.466308594,46623970.03173828,55268413.54370117,36369171.142578125,36819831.84814453,36195320.12939453,26857229.232788086,14511346.817016602,31197578.43017578,32057254.791259766,20304407.119750977,49907829.28466797,35275058.74633789,36413486.48071289,35792881.01196289,17398738.861083984,14748207.092285156,28405563.354492188,27098621.368408203,15645937.9196167,50746482.849121094,39595420.837402344,36551750.18310547,35430526.73339844,21955808.639526367,773252.7852058411,22448593.139648438,28890012.741088867,11278229.713439941,31065507.888793945,30994588.85192871,23773931.5032959,18385499.954223633,21173507.690429688,1855130.910873413,11491094.589233398,25403551.10168457,8146339.416503906,32864852.905273438,31374776.84020996,31208251.953125,27362998.962402344,23563344.955444336,25651903.15246582,27411163.330078125,12210612.297058105,13293506.622314453,31903121.948242188,31911056.518554688,30555509.567260742,22978244.78149414,19141376.495361328,19857822.41821289,20459594.7265625,24109273.91052246,31558238.983154297,23466060.638427734,19869316.10107422,20674385.07080078
0.44,52432106.018066406,32498332.977294922,27393352.508544922,41725284.576416016,38753532.40966797,56670494.079589844,33216583.251953125,33681297.302246094,32934108.73413086,20724245.071411133,11370769.500732422,28614559.173583984,25935737.60986328,23609416.961669922,50980934.143066406,32012985.229492188,33378421.783447266,32613426.208496094,15888512.61138916,13668457.984924316,28224636.07788086,25025671.005249023,25720895.767211914,54838954.92553711,42009292.60253906,33500148.77319336,32259136.199951172,21553075.790405273,3491321.325302124,26242435.455322266,32990703.582763672,19491615.295410156,34886699.67651367,34639694.21386719,25317413.330078125,20597427.368164062,22642040.252685547,4216303.34854126,15634497.64251709,32559654.235839844,15864603.996276855,36502330.7800293,34951160.4309082,34964775.08544922,28037984.84802246,29359233.856201172,30681533.813476562,30923503.875732422,15821995.735168457,22173683.166503906,35725730.895996094,35583961.486816406,34198337.55493164,28636188.507080078,21179224.014282227,27715827.94189453,28332872.39074707,29906187.057495117,35323741.9128418,29243251.80053711,26953401.565551758,27562429.428100586
0.445,50642383.57543945,29801954.26940918,27678125.381469727,47868175.5065918,38055030.822753906,60274967.193603516,36697429.65698242,37085418.701171875,36361057.28149414,17877155.303955078,15820119.857788086,31504657.745361328,22508762.35961914,22305919.647216797,52538112.64038086,35322006.22558594,36993003.845214844,36102100.37231445,17541082.38220215,14572873.11553955,28689617.156982422,23816934.58557129,31447494.506835938,56941112.51831055,45552078.24707031,37154945.373535156,35749305.725097656,23053991.317749023,6070361.137390137,28283021.926879883,34179759.97924805,20929540.634155273,35778537.75024414,35459308.62426758,28218540.19165039,25738767.623901367,22963369.369506836,5977022.171020508,17641300.201416016,37781528.47290039,15427190.780639648,37268535.61401367,35641399.38354492,35856517.79174805,26745679.85534668,29831726.07421875,32647495.26977539,31266384.12475586,14424532.890319824,25304317.474365234,36572971.34399414,36326889.03808594,34837150.57373047,28921592.712402344,17628530.502319336,30131200.790405273,30793300.62866211,30296056.747436523,36203681.94580078,29484260.55908203,27524766.92199707,28219196.319580078
0.45,94313018.79882812,69587379.4555664,59109275.817871094,79979759.2163086,62691844.94018555,72547103.88183594,48758720.39794922,48814529.41894531,48405151.3671875,29186052.322387695,32761631.01196289,47403366.08886719,34044162.75024414,26495170.59326172,56685195.92285156,47150268.5546875,48940635.681152344,48147773.74267578,24256778.717041016,20896331.787109375,34457302.09350586,28467512.130737305,29917760.848999023,55974071.50268555,47645019.53125,49144989.013671875,47742294.31152344,26095630.645751953,8417857.17010498,28638236.99951172,33426319.122314453,15979498.863220215,30036678.314208984,29909458.16040039,28428110.122680664,27247591.018676758,20175865.173339844,4940976.619720459,15262248.039245605,35757270.81298828,6350816.249847412,31656724.92980957,30009309.768676758,30350795.74584961,21399894.71435547,19890596.389770508,26608448.028564453,24509687.423706055,6354995.250701904,16812351.22680664,30812242.50793457,30628395.080566406,28998235.70251465,19022308.349609375,4584569.931030273,19767208.099365234,20506053.924560547,20288402.557373047,30514560.69946289,19313274.383544922,14965689.659118652,17221139.907836914
0.455,157429122.9248047,128025711.05957031,103047813.41552734,116185638.42773438,93837722.77832031,85684890.74707031,58223155.9753418,57873554.22973633,57804405.212402344,44830120.08666992,48064437.86621094,63343769.07348633,49892452.239990234,35696201.32446289,58823966.97998047,56395042.419433594,58131622.314453125,57498767.8527832,29845684.051513672,27764108.657836914,41331005.09643555,34549018.85986328,24309906.005859375,52915058.13598633,44858482.360839844,58257297.51586914,56963233.947753906,27926534.65270996,9799944.877624512,28451427.459716797,31749429.70275879,10709679.60357666,22114137.649536133,22251062.393188477,25475873.947143555,23735124.588012695,17543676.376342773,3187688.5890960693,11442966.46118164,28619987.48779297,-2027305.8414459229,23921806.33544922,22376777.64892578,22737922.66845703,16440189.361572266,8079154.014587402,18582836.151123047,15461320.877075195,-1291407.7043533325,4329366.683959961,22915678.024291992,22888832.092285156,21271045.684814453,7462245.464324951,-8739825.248718262,4766133.3084106445,5436998.36730957,8530579.566955566,22668794.631958008,7542042.255401611,-885999.9775886536,2836935.9970092773
0.46,175169692.99316406,144979400.63476562,113406654.35791016,120910934.44824219,97141349.79248047,85944534.30175781,55541164.39819336,55055637.35961914,55071075.439453125,46973632.8125,46242877.96020508,62161762.23754883,50971492.767333984,38970741.271972656,55319293.97583008,53635643.005371094,55385478.97338867,54711120.60546875,28836904.525756836,28614439.010620117,41699756.62231445,34588947.29614258,20593339.920043945,50526046.75292969,39097457.88574219,55291767.12036133,54052513.122558594,27154706.954956055,9355965.614318848,28050046.920776367,29349540.71044922,10029489.517211914,19801919.93713379,19997444.15283203,22859565.73486328,19561597.82409668,18576936.721801758,3925027.847290039,10188311.576843262,23526361.4654541,-2027234.0774536133,21547325.134277344,20145084.381103516,20433412.551879883,16584058.76159668,6400912.761688232,17207248.68774414,12135181.427001953,-2144172.6684570312,-81020.3105211258,20595046.997070312,20642683.029174805,19228958.129882812,5886354.923248291,-10363326.072692871,-924005.5680274963,-555287.8975868225,6950299.7398376465,20321733.474731445,6073258.399963379,-5191575.527191162,-2159622.6692199707
0.465,127493896.484375,102012001.03759766,77161613.46435547,89849479.67529297,68501029.96826172,72160987.8540039,45305122.37548828,45067874.908447266,44946884.15527344,33960422.51586914,30547737.12158203,45394226.07421875,35800106.048583984,30965322.494506836,49962841.03393555,43539375.30517578,45443462.37182617,44554618.83544922,23735307.693481445,23580904.006958008,34926841.735839844,28272304.53491211,20944253.92150879,50821071.62475586,36673812.86621094,45137489.318847656,43916282.653808594,25221679.6875,7540598.392486572,26492992.401123047,26439401.626586914,12452392.578125,24881319.046020508,24931205.74951172,23613008.499145508,18596935.272216797,21580566.40625,6184037.208557129,11233586.311340332,23630804.06188965,3179486.5131378174,26375978.469848633,24995929.718017578,25199243.545532227,20394327.16369629,14836147.30834961,21694723.12927246,15511180.877685547,1459939.2414093018,5120372.295379639,25588201.52282715,25542526.245117188,24347261.428833008,14110544.204711914,-758467.7934646606,4975210.666656494,5025805.473327637,15312804.222106934,25188322.067260742,14532007.217407227,3321379.8999786377,3913212.776184082
0.47,65397460.9375,46177814.48364258,31522283.55407715,55251293.18237305,37976799.01123047,57780315.39916992,39002357.482910156,39169960.021972656,38844303.131103516,20955194.4732666,16681905.746459961,29389322.28088379,19991151.809692383,18559494.018554688,48692089.08081055,37519405.364990234,39493022.91870117,38463989.2578125,20379808.42590332,17698438.64440918,27252975.463867188,21274330.139160156,21101469.039916992,52992465.97290039,40234477.99682617,39133377.07519531,37987621.30737305,23922143.936157227,5852143.287658691,23141937.255859375,23030622.482299805,12364038.467407227,31620265.96069336,31512096.405029297,27100498.19946289,20516044.61669922,22320056.915283203,6130453.586578369,11226565.36102295,24745325.088500977,4896254.062652588,32978446.96044922,31505411.14807129,31704793.93005371,23234542.846679688,22238977.432250977,24340131.759643555,19381536.48376465,3572676.658630371,10923998.832702637,32233142.852783203,31990718.841552734,30899820.32775879,21307485.580444336,8878224.37286377,12460135.459899902,12470579.147338867,22423152.923583984,31647514.34326172,21722194.67163086,12506591.796875,10900068.283081055
0.475,44641616.82128906,28552381.51550293,15756314.277648926,45393074.03564453,30018438.3392334,54252693.17626953,40013477.32543945,40425754.54711914,39864788.05541992,18914642.333984375,12651590.347290039,24138858.795166016,14664183.616638184,11432616.233825684,51558315.27709961,38769897.4609375,40551223.75488281,39547889.709472656,20109323.501586914,14176368.713378906,23674882.888793945,17344888.68713379,16849380.493164062,54709358.21533203,45056903.83911133,40274368.28613281,39204013.82446289,23241825.103759766,5428312.7784729,19743669.509887695,19279893.87512207,8007560.729980469,34407653.80859375,34212551.11694336,29989324.56970215,22577852.249145508,20244405.74645996,3323502.779006958,9318289.756774902,22577283.85925293,1476027.8463363647,35802085.876464844,34320396.423339844,34574245.45288086,23556051.25427246,21901130.67626953,22642284.393310547,19667449.951171875,3837891.101837158,11836642.265319824,35017742.15698242,34578594.20776367,33551856.994628906,21112060.546875,11878614.42565918,14786681.175231934,15020521.16394043,21850784.301757812,34279323.57788086,21316333.770751953,14165530.20477295,11873997.688293457
0.48,62204673.767089844,46769702.91137695,28373386.38305664,54707481.384277344,38500907.89794922,58427074.43237305,41706321.716308594,42105075.83618164,41323570.251464844,23134481.43005371,13653141.021728516,25973865.509033203,17031387.329101562,12556821.823120117,53459930.419921875,40527759.55200195,42014556.884765625,41076087.951660156,19999971.389770508,12768154.14428711,24034389.49584961,16237485.885620117,11165117.263793945,54281944.274902344,44853404.9987793,41824039.459228516,40714843.75,22242111.206054688,6415170.669555664,19551853.17993164,16882110.595703125,4401206.970214844,33199993.133544922,32965248.107910156,29322471.618652344,22579851.150512695,18597030.639648438,1726281.8813323975,8403471.946716309,19525026.321411133,-181430.74214458466,34596714.01977539,33301746.368408203,33537364.959716797,22893632.888793945,18970970.153808594,21881048.20251465,18833026.885986328,6328473.5679626465,12220993.041992188,33928867.34008789,33357089.99633789,32453624.725341797,18512226.104736328,12477215.766906738,15875713.348388672,16296590.805053711,19039659.50012207,33164924.62158203,18687852.85949707,12840190.887451172,11447982.788085938
0.485,76154808.0444336,63433471.6796875,42289520.263671875,60012126.92260742,44681087.493896484,58939094.54345703,38395767.21191406,38681598.66333008,37866649.62768555,23885797.50061035,13605909.34753418,28475856.78100586,21026704.788208008,18921237.94555664,50816356.65893555,37160011.291503906,38527412.41455078,37627178.19213867,18305480.95703125,12489627.838134766,25853399.2767334,17312200.54626465,10710478.782653809,50943119.049072266,38891529.08325195,38374862.67089844,37189281.46362305,20735403.060913086,8205179.214477539,23287717.819213867,18215116.500854492,6358230.5908203125,30518634.796142578,30335962.295532227,24916400.909423828,20185110.092163086,19094738.006591797,3637730.836868286,10424024.58190918,20871156.692504883,4078717.2317504883,31821462.631225586,30763731.002807617,30856037.139892578,21818656.92138672,20530202.865600586,25590501.78527832,20200588.22631836,11380578.04107666,16687910.079956055,31434589.385986328,30858167.64831543,30075195.3125,20163959.503173828,16557828.903198242,20573627.471923828,20946550.369262695,20971456.52770996,30816619.873046875,20589076.99584961,15704996.109008789,15885128.021240234
0.49,65763053.89404297,59226356.506347656,43398143.76831055,52710769.65332031,43303409.576416016,51349250.79345703,32524127.960205078,32792198.181152344,32219303.131103516,20025899.88708496,12979305.267333984,30753482.818603516,26058725.357055664,26328403.47290039,45137321.47216797,31279830.932617188,32722866.05834961,31926643.37158203,16382637.023925781,12942664.14642334,27506471.633911133,20584814.071655273,16501873.016357422,45385826.110839844,32034980.77392578,32614475.25024414,31498987.197875977,19384765.625,9939964.294433594,27432168.96057129,23049222.946166992,11712028.503417969,27270738.60168457,27270206.451416016,19744709.014892578,17225257.873535156,19936740.87524414,6370516.777038574,13328750.610351562,26636892.318725586,9408619.88067627,28549470.901489258,27585027.69470215,27537319.18334961,19704591.751098633,25255634.307861328,29948629.37927246,22479286.193847656,14400155.067443848,21715637.20703125,28328519.821166992,27930778.50341797,27140914.916992188,24695384.979248047,22799409.866333008,25845399.856567383,26039556.5032959,25932420.73059082,27969541.549682617,25272165.298461914,21612348.556518555,22454742.431640625
0.495,46019416.80908203,44925155.63964844,37688224.79248047,43033878.326416016,41453758.239746094,42813312.53051758,30084585.189819336,30462041.8548584,30229202.270507812,17582988.739013672,14857200.622558594,34106513.97705078,32710777.282714844,31522661.209106445,41149257.65991211,28980491.638183594,30480993.270874023,29875551.223754883,16241270.065307617,14116536.140441895,28820356.369018555,24951883.31604004,23348852.157592773,41470840.45410156,29438064.575195312,30443836.212158203,29529214.85900879,18946401.596069336,11325014.114379883,28602970.123291016,28242160.79711914,15400576.5914917,24564445.49560547,24711507.79724121,17701633.45336914,16626487.731933594,19504594.802856445,7074062.824249268,14532131.19506836,31944671.630859375,10506770.133972168,25943984.985351562,24926759.719848633,24889646.530151367,17754926.681518555,28062490.463256836,30281707.763671875,22899530.4107666,13444500.923156738,22388006.21032715,25603548.049926758,25500982.2845459,24580562.591552734,27406419.75402832,26409927.368164062,27069416.046142578,27163721.084594727,28691389.083862305,25461479.18701172,27773567.19970703,25368305.206298828,25501089.096069336
0.5,33663700.103759766,33258792.877197266,31596448.89831543,39744987.48779297,42166114.807128906,42086536.4074707,32763744.354248047,33277202.606201172,33226337.432861328,19545631.408691406,19284116.744995117,37563842.7734375,37749336.24267578,32951923.370361328,42627262.115478516,31865341.186523438,33300277.709960938,32812892.91381836,18313491.821289062,16447252.27355957,30486925.12512207,28447587.966918945,27908056.259155273,44347721.099853516,32454254.150390625,33301864.624023438,32486492.156982422,19806978.225708008,12961661.338806152,28163497.924804688,31434999.465942383,17295660.0189209,26138296.127319336,26172817.23022461,20196979.522705078,19536273.956298828,19007562.6373291,7287164.688110352,14908176.42211914,34306324.00512695,10350835.800170898,27603099.822998047,26491674.423217773,26573394.775390625,18684940.338134766,29671146.392822266,28077760.696411133,22407493.591308594,12636132.24029541,21648618.698120117,27008371.353149414,27103424.072265625,26058506.01196289,29232276.916503906,26830327.9876709,26774581.909179688,26910627.365112305,30250591.278076172,26902900.69580078,29301511.764526367,26971364.974975586,27310993.194580078
0.505,26234323.501586914,23720233.917236328,24405866.622924805,39515495.30029297,41422340.393066406,48074737.548828125,36651485.443115234,37253372.19238281,37157127.380371094,22449708.938598633,23684686.6607666,39633190.1550293,38375656.12792969,32128025.05493164,48406696.31958008,35844882.96508789,37207595.82519531,36666114.807128906,21193820.95336914,20090137.481689453,33078620.91064453,30498020.17211914,31940828.323364258,53641860.96191406,38136684.41772461,37187576.29394531,36256984.71069336,21623146.057128906,15387766.83807373,29982965.46936035,33351341.247558594,21115550.994873047,33913002.014160156,33636501.31225586,24797037.12463379,23532009.12475586,20074981.689453125,9689024.925231934,17034566.87927246,36066661.8347168,14850940.704345703,35413558.95996094,34176792.14477539,34307510.37597656,22733688.354492188,34390174.865722656,27791408.53881836,24108936.309814453,15940112.113952637,25923475.26550293,34643287.658691406,34673442.84057617,33612926.4831543,34202465.05737305,27294033.05053711,30366127.014160156,30596942.901611328,35174072.265625,34419525.146484375,34296432.49511719,29979234.69543457,33942775.72631836
0.51,16756219.863891602,14921900.749206543,18116628.646850586,36609966.27807617,38329395.29418945,50968318.939208984,37218265.533447266,37858100.89111328,37597267.150878906,22257003.784179688,26246391.29638672,41044841.76635742,37574436.18774414,33071590.423583984,51997730.25512695,36299697.87597656,37698970.794677734,37074798.583984375,22609270.095825195,23565172.19543457,36113811.49291992,32338958.740234375,37195953.369140625,60820217.13256836,41348766.3269043,37646118.1640625,36566558.837890625,23232282.638549805,17998813.62915039,34519058.22753906,35793731.689453125,27220111.846923828,42370956.42089844,41915821.07543945,27518379.21142578,25032117.84362793,21865770.33996582,12950352.668762207,20856210.708618164,39316265.10620117,22757125.854492188,44000549.31640625,42583972.9309082,42616989.13574219,26361743.927001953,40748310.08911133,29816513.061523438,28007278.442382812,21409524.91760254,34471851.34887695,43152511.59667969,42949241.638183594,41972942.35229492,40498023.986816406,29091648.10180664,36678043.365478516,36971359.25292969,41812545.77636719,42835765.83862305,40908802.0324707,33827445.98388672,43068641.662597656
