time,Fp1,Fpz,Fp2,AF3,AF4,F7,F5,F3,F1,Fz,F2,F4,F6,F8,FT7,FC5,FC3,FC1,FCz,FC2,FC4,FC6,FT8,T7,C5,C3,C1,Cz,C2,C4,C6,T8,TP7,CP5,CP3,CP1,CPz,CP2,CP4,CP6,TP8,P7,P5,P3,P1,Pz,P2,P4,P6,P8,PO7,PO5,PO3,POz,PO4,PO6,PO8,CB1,O1,Oz,O2,CB2
0.0,31077081.68029785,42187339.782714844,42039417.2668457,14323204.99420166,17938894.271850586,4172726.631164551,2988975.763320923,3081471.2047576904,2969229.4597625732,6182791.709899902,1574167.251586914,11782287.59765625,9593611.717224121,11107845.306396484,625301.2418746948,3014513.9694213867,2979032.039642334,3016263.723373413,1443068.027496338,2040633.6784362793,4342120.170593262,6686768.531799316,3309898.3764648438,-1633501.1720657349,1094666.4810180664,2961685.4190826416,3011362.075805664,1196051.3591766357,30472.09419310093,9423479.080200195,1721195.5785751343,1893600.2254486084,-4110025.405883789,-4126864.9101257324,418367.9223060608,-699604.5708656311,-28145.13072371483,-3938254.3563842773,1127995.252609253,-611838.4599685669,-1558354.139328003,-4146223.0682373047,-4092418.1938171387,-4116611.0038757324,-777439.7134780884,-4810650.825500488,-1781591.4154052734,-1382406.3539505005,-2274573.32611084,-3002836.9426727295,-4146306.5147399902,-4173464.298248291,-4121363.639831543,-4831339.359283447,-2911171.6747283936,-3592709.541320801,-3590312.2425079346,-4858981.132507324,-4159166.3360595703,-4883240.222930908,-8412155.151367188,-4687602.519989014
0.005,-45703479.7668457,-58809009.55200195,-53979969.0246582,-29072473.526000977,-26900369.64416504,-12079095.840454102,-5539867.877960205,-5495366.096496582,-4734831.809997559,-6210794.925689697,-10201302.528381348,-12916567.8024292,-14771937.370300293,-14042901.039123535,1368097.424507141,-4304380.893707275,-5180239.200592041,-4845224.380493164,-1662687.1824264526,-3378508.5678100586,-1823469.0427780151,-5085214.138031006,3153363.4662628174,3130260.944366455,-3276602.9834747314,-4820345.401763916,-4693962.574005127,-203283.78677368164,-3027037.3821258545,-334033.93626213074,131470.99316120148,-2705147.9816436768,2966014.3852233887,3684761.7626190186,-1237086.296081543,-2828933.9542388916,2637262.5827789307,1954035.5205535889,817394.5546150208,2997244.5964813232,4789544.105529785,2814842.2241210938,3008353.7101745605,3083343.505859375,1420754.5518875122,8222323.417663574,-3958722.8298187256,4075770.854949951,2031092.882156372,4280382.6332092285,2934254.6463012695,3152674.1981506348,2796839.714050293,8216889.381408691,4249490.737915039,3785630.226135254,3886459.5890045166,9262735.366821289,2693063.259124756,8853422.164916992,1154612.0643615723,-4960336.208343506
0.01,-94260169.98291016,-116753860.47363281,-108347366.33300781,-57736049.65209961,-56527214.05029297,-24632255.55419922,-12461915.016174316,-12473293.30444336,-11497929.573059082,-17157444.00024414,-23046714.782714844,-29405340.19470215,-31085851.669311523,-31612800.59814453,-1582585.8116149902,-10758582.11517334,-11990824.699401855,-11526506.423950195,-6017087.936401367,-9123810.768127441,-8859950.065612793,-13817696.571350098,-2017834.4249725342,3166676.2828826904,-5375561.237335205,-11442629.81414795,-11394548.416137695,-1578847.2890853882,-5154970.645904541,-6144001.483917236,-5067040.920257568,-6978112.22076416,5367309.093475342,6449038.982391357,-1045392.5132751465,-3770967.960357666,4048496.723175049,2652976.0360717773,-782418.7874794006,1480734.944343567,5741661.548614502,5229831.218719482,5378474.235534668,5470929.145812988,2948318.7198638916,14020434.379577637,-3436889.6484375,6830380.916595459,3619761.9438171387,6246887.683868408,5354047.775268555,5599203.109741211,5085486.41204834,14050767.89855957,8575021.743774414,6281465.530395508,6451985.3591918945,15522432.327270508,4843677.997589111,14917870.52154541,5312833.309173584,-3652924.060821533
0.015,-111575828.5522461,-129240356.4453125,-119422737.12158203,-69298858.64257812,-68049552.91748047,-31889919.28100586,-16306451.797485352,-16336074.829101562,-15670364.379882812,-24182128.90625,-33541412.353515625,-35434249.87792969,-37661346.435546875,-39530632.01904297,-6746395.111083984,-14808762.550354004,-15930855.751037598,-15448546.409606934,-10353511.810302734,-13745832.443237305,-14395271.301269531,-18141321.182250977,-10177487.37335205,-289027.78029441833,-4971779.823303223,-15270153.045654297,-15433538.436889648,-2225897.0737457275,-6124465.465545654,-6524785.041809082,-11464936.256408691,-9946855.545043945,3594150.3047943115,4605268.955230713,666849.1959571838,-3631269.2165374756,4275395.87020874,-471172.7201938629,-2991236.925125122,-4039772.9873657227,1744747.7579116821,3581740.8561706543,3578902.9598236084,3605087.995529175,4285382.7476501465,13592721.939086914,-714234.7097396851,7379772.663116455,2108456.611633301,3711285.352706909,3543201.446533203,3736579.418182373,3269967.555999756,13626611.709594727,10248106.956481934,4459022.998809814,4552074.432373047,14958224.296569824,2918823.9574432373,14362733.840942383,5162826.5380859375,-1006420.6123352051
0.02,-116114608.76464844,-126624427.79541016,-117007675.17089844,-73099403.38134766,-70579444.8852539,-35711250.30517578,-17558029.174804688,-17527761.459350586,-17036796.56982422,-26738784.790039062,-38254707.33642578,-35429656.982421875,-39048213.958740234,-41406143.18847656,-10386487.007141113,-16297233.581542969,-17235008.239746094,-16676927.56652832,-12880256.652832031,-16396829.605102539,-15907358.169555664,-19096893.310546875,-15821693.420410156,-2595380.5446624756,-3957773.9238739014,-16385087.966918945,-16689420.700073242,-1911568.9992904663,-6985405.445098877,-3297856.330871582,-14191213.607788086,-10840277.671813965,2026557.6839447021,2773192.882537842,2066447.2579956055,-3650062.084197998,4154258.7280273438,-1901568.7704086304,-3921224.1172790527,-7815580.84487915,-2275213.7184143066,2122103.214263916,2080385.446548462,2001461.7443084717,6471010.684967041,14133305.549621582,1606585.7410430908,8419335.36529541,77681.80221319199,2085743.6656951904,1852020.8597183228,2153511.5242004395,1754295.4683303833,14070974.349975586,12509895.324707031,3609053.611755371,3472122.1923828125,15244949.340820312,1470849.3947982788,14740140.914916992,7021468.162536621,2542072.296142578
0.025,-124864440.91796875,-134090103.14941406,-124830291.74804688,-79076622.00927734,-74954917.90771484,-39604728.69873047,-19029932.022094727,-18918973.922729492,-18167013.16833496,-28425046.920776367,-39932498.931884766,-36284980.77392578,-41141311.64550781,-43002216.33911133,-11837390.899658203,-17677898.406982422,-18624517.4407959,-17920724.868774414,-14233346.939086914,-19065296.173095703,-15447275.161743164,-19616254.806518555,-18237535.47668457,-2133350.372314453,-4182889.938354492,-17651729.583740234,-17857948.303222656,-1839055.7765960693,-9251940.727233887,-471556.99133872986,-13431547.164916992,-10665868.759155273,3325241.804122925,3869099.3785858154,2056649.923324585,-4794244.766235352,3861622.5719451904,421592.44418144226,-3201374.053955078,-6681857.585906982,-3279525.2799987793,3429338.9320373535,3500262.2604370117,3320199.728012085,9101580.619812012,19576076.50756836,2070546.1502075195,10878064.155578613,507541.5372848511,4312674.999237061,3057257.1754455566,3548927.3071289062,3200785.8753204346,19354021.072387695,17786781.311035156,7239845.752716064,6968180.179595947,20602895.736694336,3110770.9407806396,20148649.215698242,14558162.689208984,7570683.95614624
0.03,-140848632.8125,-153961990.3564453,-144546813.96484375,-89625946.04492188,-85552970.88623047,-44628402.70996094,-22680711.74621582,-22585992.81311035,-21481861.114501953,-33276828.76586914,-44321319.580078125,-42410480.49926758,-47263175.96435547,-48706920.6237793,-12630252.838134766,-21127201.080322266,-22222322.463989258,-21462453.842163086,-16298204.42199707,-23807603.83605957,-17830085.75439453,-22671989.44091797,-21743490.21911621,-1151128.888130188,-5366850.852966309,-21388925.552368164,-21342185.974121094,-3202524.9004364014,-12787669.18182373,-1609495.759010315,-14169976.234436035,-11893332.481384277,5892271.995544434,6349725.246429443,1039609.5514297485,-6713342.189788818,2785790.9202575684,2902672.76763916,-2935513.973236084,-3633075.952529907,-3098513.126373291,5939143.180847168,6085952.281951904,5866538.524627686,9758091.926574707,26030952.45361328,1178824.3055343628,12383513.450622559,3097778.797149658,7495422.840118408,5653708.457946777,6182522.296905518,5920685.768127441,25738351.821899414,23843820.571899414,12452073.097229004,12346488.952636719,27085886.001586914,5933418.750762939,26578889.846801758,23882858.276367188,13314036.36932373
0.035,-158746093.75,-177501235.96191406,-168292861.93847656,-101219894.40917969,-99871299.74365234,-48345676.42211914,-27199794.76928711,-27230089.18762207,-26109920.501708984,-40921775.817871094,-52205635.07080078,-53329505.920410156,-57148658.752441406,-58729728.69873047,-12699970.245361328,-25625410.079956055,-26844924.926757812,-26215591.430664062,-19327169.41833496,-29350990.295410156,-24468818.66455078,-28919435.501098633,-28258062.3626709,-1388717.8897857666,-5701955.318450928,-26259912.490844727,-26058462.142944336,-5404332.160949707,-15488063.81225586,-7059649.467468262,-18892539.978027344,-15693354.606628418,7014478.68347168,7407134.532928467,-110227.5550365448,-8222853.660583496,699914.3958091736,1737451.7917633057,-5142321.586608887,-3716488.5997772217,-4754938.125610352,7011809.825897217,7067972.183227539,6919111.251831055,6768452.167510986,27721130.37109375,-293355.0775051117,10520932.1975708,4506415.843963623,7454721.450805664,6815624.713897705,7258738.040924072,7071471.691131592,27569511.41357422,25760269.165039062,13661326.40838623,13855208.396911621,28869981.76574707,6999724.388122559,28200759.887695312,28094053.268432617,16563554.763793945
0.04,-173121917.72460938,-197286300.6591797,-189421936.03515625,-110234130.859375,-112459625.24414062,-48853637.6953125,-30265541.076660156,-30378868.103027344,-29559694.290161133,-47869045.25756836,-59081565.856933594,-64580940.24658203,-67394180.29785156,-67991844.1772461,-11256749.153137207,-28783304.21447754,-30034339.904785156,-29624122.619628906,-22251321.79260254,-33092727.661132812,-31775308.60900879,-35645450.592041016,-33949172.97363281,-2101047.0390319824,-4395584.1064453125,-29494958.877563477,-29337280.2734375,-6899854.1831970215,-15977746.00982666,-13432698.249816895,-24414367.67578125,-19877218.24645996,6735452.651977539,7026183.605194092,-781419.4560050964,-8680489.540100098,-1618785.8581542969,-2098188.1618499756,-8789888.381958008,-7844805.2406311035,-7691301.8226623535,6716403.007507324,6622281.074523926,6595788.478851318,2314572.811126709,25005825.04272461,-2025528.4309387207,6577223.300933838,3126410.722732544,4809041.976928711,6428636.074066162,6882426.2619018555,6703749.656677246,25143890.380859375,22474142.07458496,10407121.658325195,10686903.953552246,26390150.07019043,6502507.209777832,25533943.17626953,25846054.077148438,15866858.48236084
0.045,-180509155.2734375,-207830947.87597656,-201389862.06054688,-115472648.62060547,-119049659.7290039,-48020214.08081055,-31825296.40197754,-31854284.286499023,-31303737.64038086,-52351032.25708008,-62074321.74682617,-71257766.72363281,-73594779.96826172,-70164230.34667969,-9839862.823486328,-30320257.18688965,-31529561.99645996,-31263332.36694336,-24677396.774291992,-35011436.462402344,-35821121.21582031,-38931194.30541992,-34657539.36767578,-2361094.9516296387,-2735540.6284332275,-30848911.28540039,-30761331.55822754,-7291948.318481445,-15527680.397033691,-16649410.247802734,-26914901.733398438,-20870401.38244629,7235158.443450928,7446683.406829834,-636422.336101532,-8696968.078613281,-3131588.4590148926,-4430050.849914551,-10724323.272705078,-12173239.707946777,-8442607.879638672,7213396.072387695,7077064.990997314,7080974.102020264,666839.5400047302,23594013.214111328,-3250122.0703125,4403190.612792969,1799021.2440490723,4128285.4080200195,6760920.04776001,7298803.329467773,7166407.585144043,23947610.85510254,18897087.09716797,8355597.496032715,8450448.036193848,25284149.169921875,6941396.713256836,24365280.151367188,22833892.822265625,14830354.690551758
0.05,-180200149.5361328,-206784896.85058594,-200105453.49121094,-117017547.60742188,-119180549.62158203,-48709228.515625,-33130058.28857422,-33007976.531982422,-32448249.81689453,-54978252.41088867,-62634212.493896484,-71830406.18896484,-74180198.6694336,-65004905.700683594,-10540961.265563965,-31485574.72229004,-32623973.846435547,-32373573.303222656,-26393587.112426758,-36607124.32861328,-36125282.287597656,-37762329.1015625,-31679412.841796875,-2559176.9218444824,-2275928.258895874,-31900598.526000977,-31743360.51940918,-7286226.272583008,-16057008.743286133,-15908725.73852539,-26990482.330322266,-18117389.678955078,9174553.871154785,9423139.572143555,150460.48164367676,-9286302.56652832,-3565887.689590454,-3077047.109603882,-9776980.40008545,-13297549.2477417,-5651322.841644287,9146205.90209961,9072649.002075195,8969415.664672852,2692547.32131958,26249576.568603516,-3037693.2621002197,5448863.983154297,3724014.5206451416,7152871.608734131,8722382.545471191,9164139.747619629,9225169.18182373,26578920.364379883,19255098.342895508,11109805.1071167,11025023.460388184,28050886.154174805,9019577.980041504,27250009.536743164,23858385.08605957,17256374.35913086
0.055,-175890670.7763672,-199447982.78808594,-191036514.28222656,-115709846.49658203,-116125297.54638672,-50691421.50878906,-34055152.893066406,-33939331.0546875,-33138538.360595703,-55898887.634277344,-62492744.44580078,-69122421.26464844,-72332595.82519531,-59720752.71606445,-12335203.170776367,-32354801.177978516,-33440570.831298828,-33138339.99633789,-26259441.375732422,-37406143.18847656,-34548118.591308594,-35593311.30981445,-30022977.828979492,-3230627.0599365234,-2986096.6205596924,-32820770.263671875,-32564174.65209961,-7073257.923126221,-17227695.46508789,-14009370.803833008,-27882335.662841797,-15297034.26361084,10373420.715332031,10782188.415527344,614299.6549606323,-10505832.67211914,-3510323.7628936768,-33608.11993479729,-8471774.101257324,-12296877.86102295,-2351074.695587158,10330683.708190918,10314734.45892334,10083766.93725586,4283712.863922119,29015935.89782715,-1867419.4812774658,6877663.135528564,7350365.161895752,9852619.171142578,10158512.115478516,10316436.767578125,10599889.755249023,29158851.623535156,20972290.0390625,14566826.820373535,14506428.718566895,30636882.781982422,10305175.78125,30000329.971313477,26497438.430786133,20657564.163208008
0.06,-173376129.15039062,-195184341.43066406,-185585388.18359375,-113889587.40234375,-113783477.78320312,-51914829.25415039,-33879875.18310547,-33972274.78027344,-32904739.379882812,-54745750.427246094,-61235275.26855469,-67242195.12939453,-72360176.08642578,-60462512.9699707,-12811622.619628906,-32303215.02685547,-33363689.422607422,-33008911.1328125,-24066570.281982422,-35992416.38183594,-32674533.84399414,-36438163.75732422,-32004043.579101562,-4201545.715332031,-3845689.058303833,-32741462.70751953,-32572017.669677734,-6285186.767578125,-17128150.939941406,-13563465.118408203,-30414554.595947266,-15787539.4821167,8849688.529968262,9431385.040283203,-156202.9868364334,-11370544.43359375,-3627223.7300872803,1389462.8286361694,-9487692.832946777,-12231372.833251953,-1810703.6352157593,8780718.803405762,8793522.834777832,8521039.009094238,1961059.808731079,27783283.233642578,-1283347.487449646,5945785.045623779,8758296.966552734,8565891.26586914,8808593.75,8844189.643859863,9168672.561645508,27815437.31689453,19435668.9453125,13387731.552124023,13455441.47491455,29183958.053588867,8706583.023071289,28582733.154296875,26002763.748168945,19950572.967529297
0.065,-175821182.25097656,-198439071.65527344,-189291763.30566406,-114628654.47998047,-113988533.02001953,-52463233.947753906,-33684936.5234375,-33970497.131347656,-32786872.86376953,-53134845.73364258,-58954040.52734375,-67919654.8461914,-74638824.46289062,-65024078.369140625,-12505780.220031738,-32300823.211669922,-33311279.296875,-32925502.77709961,-22361631.393432617,-33756492.614746094,-31326902.389526367,-39716156.005859375,-34682270.05004883,-5122107.982635498,-4441278.93447876,-32506473.541259766,-32580024.71923828,-5373408.317565918,-15254926.681518555,-14303338.050842285,-32064609.52758789,-18011648.178100586,6122999.19128418,6751024.24621582,-1668530.3449630737,-11162181.854248047,-3957181.215286255,715084.6719741821,-11617616.653442383,-12874376.29699707,-2445611.9537353516,6020366.191864014,6065279.960632324,5809732.913970947,-1979263.3056640625,25493064.880371094,-1358354.926109314,4506776.332855225,8391476.63116455,6869290.828704834,5987476.348876953,6259516.716003418,6448667.526245117,25597990.036010742,17024427.41394043,10648633.003234863,10771551.132202148,26894155.502319336,5940047.740936279,26197237.014770508,24314479.82788086,17058485.03112793
0.07,-182871856.68945312,-208006942.74902344,-199983581.54296875,-118902206.42089844,-117152206.42089844,-53962829.58984375,-35116619.11010742,-35379043.57910156,-34260444.64111328,-53849967.95654297,-57773227.69165039,-70397003.17382812,-76520957.94677734,-67909683.22753906,-13692219.734191895,-33843173.98071289,-34758205.41381836,-34371204.3762207,-23557535.17150879,-33913509.368896484,-31164678.5736084,-41281688.69018555,-34436756.1340332,-5592799.663543701,-5086949.825286865,-33841934.20410156,-34077732.08618164,-5443924.427032471,-13124187.469482422,-15015641.212463379,-31058273.315429688,-17875762.939453125,5844645.977020264,6369610.30960083,-2280158.042907715,-10278582.572937012,-4108237.7433776855,810561.2397193909,-11434025.764465332,-10992325.782775879,133698.2399225235,5743832.588195801,5747176.170349121,5523128.032684326,-2694709.300994873,28380578.994750977,-360852.06270217896,6439776.420593262,10791872.97821045,11682466.506958008,5503755.09262085,6081418.037414551,6138902.187347412,28585903.16772461,20946487.426757812,14596181.869506836,14697168.350219727,29916393.280029297,5782899.856567383,29133872.985839844,28322093.963623047,19786828.994750977
0.075,-193395401.00097656,-223291427.6123047,-216077682.4951172,-124421241.7602539,-123874626.15966797,-55730907.44018555,-37244411.46850586,-37343391.41845703,-36347206.115722656,-57070095.06225586,-59010616.302490234,-74063789.36767578,-77847892.76123047,-70056686.40136719,-15591089.248657227,-35957660.67504883,-36813529.96826172,-36472251.892089844,-25953266.143798828,-36675743.103027344,-32468788.146972656,-39818431.85424805,-32504642.486572266,-4964669.704437256,-5880160.808563232,-35986087.799072266,-36233512.87841797,-6504274.368286133,-12047068.59588623,-16517610.549926758,-29467826.84326172,-15427639.00756836,9140826.225280762,9565724.37286377,-1212142.825126648,-9542865.753173828,-4072806.3583374023,4149337.2917175293,-8607623.100280762,-6351735.591888428,6044717.311859131,9135919.570922852,8917894.36340332,8780946.731567383,27754.241600632668,36161117.55371094,2156145.3342437744,11296969.413757324,16767923.355102539,22535085.678100586,8775043.487548828,9348762.512207031,9336566.925048828,36302909.85107422,31353178.024291992,25698802.947998047,25803461.0748291,37701286.31591797,9159441.947937012,36926448.822021484,38707485.19897461,29486339.569091797
0.08,-205356689.453125,-242807815.5517578,-236526412.9638672,-128166687.01171875,-133295074.46289062,-55344875.33569336,-37645534.51538086,-37679321.2890625,-36707115.173339844,-60169067.3828125,-61285144.8059082,-78936897.27783203,-81356307.98339844,-76456542.96875,-15250915.52734375,-36277946.47216797,-37182968.13964844,-36928123.474121094,-25881427.764892578,-38978424.072265625,-34605350.494384766,-38844230.65185547,-33251377.10571289,-3453190.803527832,-6576323.509216309,-36410106.65893555,-36709991.455078125,-7350608.825683594,-11902003.288269043,-20286201.47705078,-30645164.489746094,-15096686.363220215,13013239.860534668,13506842.613220215,329364.47858810425,-9293847.08404541,-4529889.106750488,9199840.545654297,-6779519.081115723,-3704242.22946167,10014283.180236816,13176185.607910156,12694902.420043945,12684580.80291748,1495650.4106521606,41423351.2878418,3890586.3761901855,14127923.011779785,20893913.26904297,30217100.143432617,12829236.030578613,13146210.670471191,13056902.885437012,41401287.07885742,38661510.4675293,34139343.26171875,34304317.474365234,42806892.39501953,12883162.498474121,42094791.412353516,46781368.255615234,37101715.087890625
0.085,-214718673.7060547,-258452697.75390625,-253202056.88476562,-130059402.46582031,-141164901.73339844,-53855476.37939453,-36883609.771728516,-37032558.44116211,-35945449.82910156,-62080139.16015625,-63071956.634521484,-83505668.64013672,-86391700.7446289,-84321151.73339844,-13541806.2210083,-35447044.372558594,-36435253.14331055,-36243255.615234375,-23746509.552001953,-39645130.1574707,-36361766.81518555,-40458465.576171875,-36508098.60229492,-3128678.0834198,-7325803.756713867,-35488788.60473633,-35973220.82519531,-7640117.168426514,-12311944.961547852,-24731674.194335938,-33994647.97973633,-17813077.926635742,14233726.501464844,14903713.22631836,489728.03354263306,-9627734.184265137,-6003326.416015625,11787415.504455566,-8145835.876464844,-5986767.768859863,9385576.248168945,14496747.016906738,14037974.35760498,14038207.054138184,-779552.5193214417,40265892.028808594,3157720.3273773193,12739967.346191406,19783498.764038086,28969018.936157227,14191841.125488281,14373615.264892578,14247676.849365234,40218338.01269531,36797508.239746094,33592792.51098633,33818710.32714844,41557209.01489258,13929286.003112793,40915069.580078125,46193805.69458008,36064170.837402344
0.09,-218541687.01171875,-260481964.11132812,-254230850.21972656,-132852966.30859375,-142562805.17578125,-56497943.87817383,-38658267.974853516,-38948268.89038086,-37690906.5246582,-64779266.357421875,-64819572.44873047,-84304283.14208984,-86362152.09960938,-81779182.43408203,-15589321.13647461,-37216209.411621094,-38188869.47631836,-37964218.13964844,-24110641.479492188,-41060802.4597168,-36580261.23046875,-40277721.4050293,-34950370.78857422,-6020051.002502441,-8721632.957458496,-37042804.71801758,-37621788.024902344,-8565822.60131836,-13448556.900024414,-25572284.698486328,-34316715.240478516,-17094356.536865234,13272867.202758789,13964413.6428833,-1194021.7018127441,-10844370.84197998,-8015441.89453125,10079328.536987305,-9833521.842956543,-8464458.465576172,9440385.818481445,13449058.532714844,13362097.74017334,13204261.779785156,-3552225.8281707764,38080818.17626953,1977126.0023117065,11490386.962890625,18359724.044799805,25087398.529052734,13164857.864379883,13489468.574523926,13505586.624145508,38207981.10961914,32788562.774658203,30830032.348632812,31065155.029296875,39468013.763427734,13090904.235839844,38901668.548583984,42341991.42456055,32661476.135253906
0.095,-217727279.66308594,-248358932.4951172,-237400039.67285156,-137308288.57421875,-136277923.58398438,-65464614.86816406,-43991035.46142578,-44281097.412109375,-42890743.255615234,-68618553.1616211,-66600997.92480469,-78791656.49414062,-75871261.59667969,-62433963.775634766,-23195363.998413086,-42598331.451416016,-43461582.18383789,-43130596.16088867,-28487709.045410156,-44064552.307128906,-34336284.63745117,-32500679.01611328,-22541557.31201172,-11034374.237060547,-10852086.067199707,-42377887.72583008,-42750717.16308594,-10563026.428222656,-14929799.07989502,-20626237.869262695,-27860443.115234375,-7125161.170959473,12741053.581237793,13186785.697937012,-3429432.8689575195,-12745002.746582031,-9671306.610107422,6590534.210205078,-7999005.317687988,-4459837.913513184,16196176.528930664,12724238.395690918,12965868.949890137,12708567.61932373,-3217028.3794403076,40787952.4230957,3184347.8679656982,14898387.908935547,22704931.259155273,27909692.764282227,12471194.26727295,12987639.427185059,13263424.87335205,41066787.71972656,36268924.713134766,34953449.24926758,35149421.69189453,42302227.02026367,12891416.549682617,41796779.63256836,43665824.89013672,36228576.66015625
0.1,-213832336.42578125,-230103332.51953125,-212924697.87597656,-139254211.42578125,-124915260.3149414,-74986259.46044922,-48207172.39379883,-48386737.82348633,-46933822.63183594,-69392837.52441406,-65946136.474609375,-67957916.25976562,-58378276.82495117,-35799484.25292969,-30803459.16748047,-46864768.981933594,-47655998.22998047,-47266342.16308594,-31845230.102539062,-44912132.263183594,-29305828.094482422,-18566312.789916992,-4004969.1200256348,-14468435.287475586,-12701006.889343262,-46814365.38696289,-46847942.35229492,-11734423.637390137,-15112909.317016602,-12368749.618530273,-17755496.978759766,7684535.503387451,13182886.123657227,13375978.469848633,-4489984.035491943,-13942647.933959961,-10888655.662536621,4543179.035186768,-3664864.7785186768,4385441.303253174,26272743.225097656,13101954.460144043,13252998.352050781,13158395.767211914,-1390367.5079345703,44977195.739746094,5636829.376220703,20298404.693603516,29717815.399169922,35717525.482177734,12880852.699279785,13386015.892028809,13776698.112487793,45180614.47143555,43996913.90991211,42065582.275390625,42233177.185058594,46452892.3034668,13471014.022827148,45949325.56152344,47468120.57495117,43738151.55029297
0.105,-207051101.6845703,-213425033.56933594,-192822357.17773438,-134726882.9345703,-112474174.49951172,-77801063.53759766,-46593326.568603516,-46723400.1159668,-45272617.34008789,-63656623.84033203,-60922584.533691406,-55975406.646728516,-43583194.732666016,-18055507.65991211,-32374526.977539062,-45261112.213134766,-46086910.247802734,-45754341.12548828,-29173713.68408203,-40524101.25732422,-22660604.47692871,-6501356.601715088,8739631.652832031,-14248682.022094727,-13060717.582702637,-45350669.860839844,-45261688.232421875,-10147110.939025879,-12598543.167114258,-5130897.998809814,-10923130.03540039,16532178.87878418,12908241.271972656,13181592.94128418,-3768380.641937256,-13213611.602783203,-12235750.198364258,4218719.482421875,-1125258.207321167,9399234.771728516,30288631.439208984,12999077.796936035,12801575.660705566,12942625.045776367,-1921404.7193527222,43415004.73022461,5674228.191375732,21440216.064453125,30831542.96875,38434654.235839844,12763298.988342285,13102377.891540527,13367363.929748535,43402915.954589844,44532821.65527344,40445350.646972656,40667163.84887695,44722137.451171875,13026729.583740234,44175167.083740234,43812187.19482422,44141113.28125
0.11,-199657730.10253906,-202354995.72753906,-182272659.3017578,-126710235.59570312,-103220787.04833984,-74656639.0991211,-41113903.0456543,-41344161.98730469,-39934898.376464844,-55075866.69921875,-54291637.4206543,-47520957.946777344,-37705615.99731445,-15059939.38446045,-29409408.569335938,-39750911.712646484,-40669403.076171875,-40400863.64746094,-22917446.13647461,-34230934.143066406,-17058383.94165039,-1634822.964668274,9921566.009521484,-12381885.528564453,-11936681.747436523,-39817134.857177734,-39869510.650634766,-6939244.270324707,-8223483.085632324,-1080506.2055587769,-9939052.58178711,15334981.918334961,11463421.821594238,12095521.926879883,-2231574.773788452,-11476154.327392578,-13516759.872436523,4157538.414001465,-1303687.9301071167,7025156.9747924805,26226755.142211914,11780463.218688965,11465445.518493652,11560461.99798584,-4471669.673919678,37628707.88574219,3198956.01272583,18147996.90246582,25332645.416259766,33468559.26513672,11508377.075195312,11764448.165893555,11873070.71685791,37492980.95703125,37031944.274902344,29689043.045043945,30027070.999145508,38836582.18383789,11463685.989379883,38254852.294921875,32822582.244873047,36388805.3894043
0.115,-196426055.90820312,-198712753.29589844,-179971725.4638672,-122465469.36035156,-100388244.62890625,-72746398.92578125,-38085571.2890625,-38445873.26049805,-37074634.55200195,-51216609.954833984,-51473365.783691406,-44940902.70996094,-38905780.79223633,-19416664.123535156,-28348134.994506836,-36647392.27294922,-37661911.01074219,-37308895.111083984,-19963886.260986328,-32295272.827148438,-14810972.213745117,-1974005.6991577148,5155027.866363525,-12545514.106750488,-10783516.883850098,-36676013.9465332,-36847129.821777344,-5257503.986358643,-4780682.563781738,400084.13791656494,-10932242.393493652,10677470.207214355,10376852.989196777,11212935.447692871,-1499299.40700531,-10975144.386291504,-13624433.517456055,4212342.262268066,-536351.5615463257,3593096.971511841,22467077.255249023,10717508.316040039,10668281.555175781,10460000.038146973,-5163205.623626709,36786361.69433594,2623111.4864349365,17017957.68737793,22463701.248168945,29907785.415649414,10466291.427612305,10841215.133666992,10937973.976135254,36677581.787109375,34328289.03198242,23742036.819458008,24115892.41027832,38055061.34033203,10606277.465820312,37429485.32104492,27505096.435546875,32110473.6328125
0.12,-195999282.83691406,-197851074.21875,-178740371.70410156,-122903060.91308594,-101869682.31201172,-75022972.1069336,-39562335.96801758,-39875423.431396484,-38526947.021484375,-53492004.39453125,-53757087.70751953,-46206005.09643555,-41246673.583984375,-21879619.598388672,-31607452.392578125,-37996189.11743164,-39073253.6315918,-38527656.55517578,-22115936.279296875,-35374423.98071289,-15560279.846191406,-3073342.5617218018,2207330.7037353516,-16272439.956665039,-11235716.819763184,-38102416.9921875,-38187511.4440918,-6017175.197601318,-4460004.806518555,1179491.5199279785,-9998437.881469727,9702276.229858398,9766985.893249512,10384574.890136719,-2352274.4178771973,-12325351.71508789,-12362092.971801758,5043756.008148193,3263512.372970581,5128798.007965088,25091123.580932617,9921413.42163086,10180647.850036621,9802817.344665527,-3278960.4663848877,43058094.0246582,6183021.068572998,21280464.17236328,27792266.845703125,34118682.861328125,9755065.91796875,10333913.803100586,10451034.545898438,42991497.03979492,43588233.947753906,31035625.457763672,31272117.614746094,44430530.5480957,10377268.79119873,43700557.708740234,34744850.158691406,37460632.32421875
0.125,-188873352.05078125,-188490493.77441406,-168689132.6904297,-120532585.14404297,-99895072.93701172,-76647628.78417969,-41016067.50488281,-41053047.18017578,-39764110.56518555,-54849235.53466797,-56270122.52807617,-46028686.5234375,-40371051.78833008,-19814716.339111328,-35389823.91357422,-39317470.55053711,-40343887.32910156,-39720436.096191406,-23927879.333496094,-37435745.23925781,-16217798.233032227,-3054264.783859253,2065097.3320007324,-21929054.260253906,-13626440.048217773,-39517547.607421875,-39448551.177978516,-6611142.158508301,-6556389.331817627,3221687.7937316895,-7991861.820220947,11802346.229553223,7318399.906158447,7545857.4295043945,-4143533.706665039,-13895356.178283691,-11313846.588134766,5865762.710571289,7094042.3011779785,8487452.507019043,29213222.50366211,7312622.547149658,7615217.208862305,7370520.59173584,-2976138.5917663574,46648437.5,9866333.0078125,25381950.37841797,34571594.23828125,39821708.67919922,7208674.430847168,7886204.719543457,7893826.007843018,46562290.19165039,54127868.65234375,41364208.22143555,41424327.8503418,48012634.27734375,8062335.968017578,47194873.80981445,43100631.71386719,42879642.486572266
0.13,-172793975.83007812,-168516296.38671875,-149839019.77539062,-111710464.47753906,-90563835.14404297,-73978927.61230469,-38727382.65991211,-38459056.85424805,-37292160.03417969,-49799568.17626953,-54304637.90893555,-41372596.740722656,-35872257.232666016,-15235616.683959961,-36401367.1875,-36989459.99145508,-37814376.83105469,-37330757.14111328,-20987617.49267578,-34046466.82739258,-14060969.352722168,-1495690.5841827393,2196164.36958313,-26568063.735961914,-16797445.29724121,-37183147.43041992,-37065799.713134766,-4726663.112640381,-8012305.25970459,7288985.729217529,-7137749.671936035,13160286.903381348,2410127.4013519287,2526858.329772949,-5756087.303161621,-14569277.7633667,-11951403.617858887,5442491.054534912,7642316.818237305,7712921.619415283,27960105.895996094,2430410.861968994,2611902.2369384766,2525263.547897339,-6873483.657836914,39822681.42700195,8911836.624145508,23038379.669189453,33673858.642578125,38559490.20385742,2295845.0317382812,2919477.701187134,2776346.6835021973,39751049.04174805,52432361.6027832,40228771.2097168,40300403.5949707,41061378.479003906,2967931.2705993652,40348304.748535156,38054920.1965332,37679409.02709961
0.135,-162533706.66503906,-155299667.35839844,-138331573.48632812,-104717079.16259766,-81536010.7421875,-71114547.72949219,-35577980.041503906,-35223819.732666016,-34156063.079833984,-42789276.123046875,-49573036.193847656,-35798320.77026367,-30915920.25756836,-10589888.572692871,-36219154.357910156,-33917987.82348633,-34544971.46606445,-34245990.75317383,-16337553.024291992,-28346567.153930664,-9972028.732299805,2075170.7553863525,3226897.2396850586,-28251945.49560547,-19224231.719970703,-34074890.13671875,-33970630.64575195,-1847857.4752807617,-6605698.585510254,11499421.119689941,-6588551.044464111,14139254.570007324,-1423550.7249832153,-1049224.2574691772,-6844992.637634277,-15362631.797790527,-13646770.477294922,4812672.6150512695,6427012.920379639,4575752.258300781,24145212.173461914,-1292295.8135604858,-1153342.7238464355,-1300260.6630325317,-11549823.760986328,29129718.780517578,4916626.453399658,16750228.881835938,27142976.760864258,33440269.470214844,-1530405.2829742432,-992041.826248169,-1126603.2457351685,29203878.40270996,42490730.28564453,29777580.26123047,30047040.939331055,30263319.01550293,-1099760.4131698608,29846117.01965332,23441053.39050293,26966222.763061523
0.14,-170958755.49316406,-165285705.56640625,-148244674.6826172,-108214378.3569336,-83377510.07080078,-72261444.09179688,-36211978.912353516,-36010200.50048828,-34931846.618652344,-42160800.93383789,-47591648.10180664,-35829925.537109375,-30162765.502929688,-8911659.240722656,-36687606.81152344,-34651298.52294922,-35318851.470947266,-35034942.626953125,-15732104.301452637,-26599252.700805664,-7764450.0732421875,5397875.785827637,6264564.037322998,-26865097.045898438,-19891326.904296875,-34832836.15112305,-34715274.810791016,-1278066.2775039673,-3518099.308013916,12309733.390808105,-5046677.112579346,16714778.900146484,-625170.5884933472,26348.95220398903,-7631556.034088135,-17150876.998901367,-14807310.104370117,6179120.063781738,6871891.975402832,5575464.248657227,25342630.38635254,-488592.9822921753,-308905.09486198425,-570918.5600280762,-12237515.449523926,26818300.247192383,3562391.2811279297,14302927.017211914,24884263.99230957,33845745.08666992,-817255.4969787598,-290415.4658317566,-277544.7368621826,27104164.123535156,40252433.77685547,25206071.853637695,25597793.579101562,27990097.045898438,-387197.1070766449,27788795.471191406,16768468.856811523,24509883.880615234
0.145,-185380706.78710938,-186902023.3154297,-169572341.9189453,-115741149.90234375,-94062805.17578125,-71868179.32128906,-38936695.09887695,-38913589.47753906,-37792186.73706055,-47883567.810058594,-49727142.333984375,-42674987.79296875,-35963932.037353516,-14113717.079162598,-34553569.79370117,-37415740.966796875,-38351871.490478516,-37953376.77001953,-19056631.088256836,-30007289.88647461,-9745453.834533691,2841350.0785827637,6692007.064819336,-23081932.067871094,-18143999.099731445,-37607414.24560547,-37547142.028808594,-3447282.314300537,-2083468.6756134033,8188656.806945801,-5291366.100311279,17702888.48876953,3567389.965057373,4188439.36920166,-7709762.096405029,-18425312.042236328,-15422682.762145996,8927418.70880127,8207359.313964844,10321470.260620117,30415386.199951172,3578815.221786499,3732279.3006896973,3545087.0990753174,-9689748.764038086,33804084.77783203,5976879.596710205,17381204.60510254,29930656.43310547,39721450.80566406,3260349.988937378,3786538.600921631,3856666.8033599854,34208568.57299805,49917762.756347656,32255882.263183594,32523506.16455078,35134780.88378906,3774579.0481567383,34851711.27319336,24594017.028808594,32432773.59008789
0.15,-181849609.375,-194340698.2421875,-180731185.91308594,-112903732.29980469,-101360343.93310547,-60741924.28588867,-37544815.06347656,-37553653.717041016,-36513992.30957031,-51472332.00073242,-51447616.57714844,-51248409.271240234,-46337600.70800781,-27882011.41357422,-25380144.119262695,-36033908.84399414,-37166343.688964844,-36749782.56225586,-20690370.559692383,-34042835.2355957,-14040030.479431152,-8365468.0252075195,-1937572.1216201782,-17268835.067749023,-13869438.171386719,-36131488.80004883,-36330398.55957031,-5340026.378631592,-3783019.781112671,1088790.8935546875,-11300086.02142334,11145408.630371094,7117489.814758301,7476131.439208984,-6185711.860656738,-17178106.3079834,-16956665.0390625,9779932.975769043,6354673.385620117,10784912.109375,29980833.053588867,7031970.024108887,7063974.380493164,7045727.252960205,-8841417.31262207,39285503.38745117,6877852.439880371,19221014.02282715,34483909.606933594,40871932.98339844,6814305.305480957,7242516.040802002,7163957.595825195,39639957.427978516,57549766.540527344,39298599.24316406,39350852.966308594,40754314.42260742,7196419.715881348,40233249.66430664,34093040.466308594,38656135.55908203
0.155,-161472442.62695312,-186348251.34277344,-180506607.05566406,-99032684.32617188,-100884002.68554688,-41137218.4753418,-30807464.599609375,-30733283.99658203,-29895725.25024414,-48261421.20361328,-49136280.05981445,-57620437.62207031,-57130653.381347656,-46438201.904296875,-11687654.495239258,-29315402.98461914,-30360958.099365234,-30117750.16784668,-17800071.716308594,-35018856.048583984,-17107101.440429688,-22678339.0045166,-17367855.072021484,-10136312.484741211,-8457177.16217041,-29318206.787109375,-29867721.557617188,-4749250.888824463,-6475506.30569458,-6115931.987762451,-21203376.77001953,-2315650.224685669,8653392.791748047,8851284.02709961,-3300020.694732666,-14051777.839660645,-19677850.7232666,7538497.9248046875,663826.8232345581,3451850.8911132812,20859390.258789062,8648591.041564941,8547211.647033691,8541289.329528809,-11431283.950805664,36567283.630371094,2594103.5747528076,14488530.158996582,31650203.704833984,32504203.79638672,8468367.576599121,8776527.404785156,8484185.218811035,36773323.05908203,51550655.364990234,34720485.68725586,34719593.0480957,38042514.80102539,8557201.385498047,37447292.32788086,32206214.904785156,34913742.06542969
0.16,-149534286.49902344,-185404159.54589844,-185697128.29589844,-88764030.45654297,-100435028.07617188,-26744516.372680664,-24745138.16833496,-24588569.64111328,-23911676.40686035,-43266273.498535156,-45139717.10205078,-62395225.524902344,-64942230.224609375,-61380943.298339844,-2099868.059158325,-23234693.52722168,-24057441.71142578,-24044975.28076172,-14016272.54486084,-34061103.82080078,-17777845.38269043,-30671018.600463867,-28381738.662719727,-3963122.606277466,-4351079.940795898,-23290107.72705078,-24032032.012939453,-2985221.8627929688,-7426377.296447754,-11612058.639526367,-27784431.45751953,-13871635.437011719,9929020.881652832,10224856.37664795,-756485.641002655,-11571947.09777832,-21681709.28955078,4631820.6787109375,-4232104.778289795,-4634048.4619140625,11675180.435180664,10164669.036865234,9950803.756713867,9820359.230041504,-13600756.645202637,31381021.49963379,-2812312.126159668,6827785.015106201,24706270.217895508,22716594.696044922,9822746.276855469,10175353.050231934,9821967.124938965,31477622.985839844,39730091.0949707,23262508.392333984,23386785.50720215,32770195.00732422,9792243.003845215,32342662.811279297,23281654.357910156,27626403.80859375
0.165,-154328872.68066406,-194878845.21484375,-195763595.5810547,-89277702.33154297,-103440635.68115234,-25155076.98059082,-23807863.235473633,-23620429.99267578,-22999973.29711914,-42339122.7722168,-43817314.14794922,-65303253.173828125,-67423233.03222656,-64988449.09667969,-1056940.3171539307,-22235254.287719727,-22967432.022094727,-23091148.376464844,-13644436.836242676,-33941082.00073242,-17396778.106689453,-28918193.817138672,-27674955.368041992,-1391245.8419799805,-2496038.1984710693,-22410116.19567871,-23137699.127197266,-2344795.2270507812,-7066003.799438477,-13518292.427062988,-27257999.420166016,-16418214.797973633,11595070.838928223,12065134.048461914,267141.8488025665,-10706062.316894531,-21304376.60217285,2830183.744430542,-4522951.602935791,-5469863.414764404,10714816.093444824,12064609.52758789,11773784.637451172,11608751.29699707,-11646568.298339844,32079914.093017578,-2552157.8788757324,3821926.5937805176,21409463.88244629,21022211.0748291,11488533.973693848,12015083.312988281,11834215.16418457,32200241.088867188,38343654.63256836,18458122.25341797,18695453.643798828,33427425.384521484,11614526.748657227,33174346.923828125,20643503.189086914,26956512.451171875
0.17,-152341369.62890625,-187819168.0908203,-187123031.61621094,-89241195.67871094,-100830436.70654297,-28229377.74658203,-24635711.669921875,-24498357.77282715,-23924608.23059082,-43250556.94580078,-45020229.33959961,-62517757.415771484,-63434730.529785156,-56781848.9074707,-3452911.138534546,-23108505.249023438,-23898176.193237305,-24061120.986938477,-15623288.15460205,-34645092.01049805,-16771596.908569336,-22774562.83569336,-20349885.940551758,-2251247.8828430176,-1111081.3617706299,-23256971.35925293,-23941579.818725586,-2608931.541442871,-8015737.533569336,-9979899.406433105,-23739021.30126953,-12271093.368530273,11916778.564453125,12390303.611755371,409784.13820266724,-10348328.590393066,-19487312.31689453,564189.7320747375,-1991317.1529769897,-689401.9842147827,14911547.660827637,12455366.134643555,12200324.058532715,12142004.013061523,-7308423.042297363,37702693.939208984,3646533.966064453,7163691.04385376,23434608.459472656,26024633.407592773,11878588.676452637,12408149.719238281,12532135.009765625,37975605.01098633,49460216.5222168,23906400.680541992,24135465.621948242,39116416.931152344,12154438.018798828,38835163.11645508,26899963.37890625,32356788.635253906
0.175,-128439453.125,-154112808.22753906,-154781936.6455078,-78560043.33496094,-87824073.7915039,-25226692.19970703,-22182928.08532715,-22218973.15979004,-21697578.43017578,-40704692.84057617,-44969463.34838867,-53895900.72631836,-55730426.78833008,-45900691.986083984,-2359801.2924194336,-20925466.537475586,-21727731.704711914,-21887577.056884766,-15934468.269348145,-34125289.91699219,-15336144.44732666,-19660913.467407227,-16586219.787597656,-3281636.7149353027,1597616.43409729,-20893863.677978516,-21592079.162597656,-1912162.3039245605,-10844169.616699219,-3000924.1104125977,-23299066.5435791,-9051501.274108887,10071628.57055664,10411894.798278809,611432.4927330017,-10047816.276550293,-18776321.411132812,-3561145.782470703,-941864.013671875,1809887.170791626,15760968.208312988,10517781.257629395,10416128.158569336,10449094.772338867,-5439074.0394592285,40280891.41845703,8778503.41796875,11064564.70489502,25732622.146606445,29221900.939941406,10235683.44116211,10462284.088134766,10810270.309448242,40743434.90600586,58330810.546875,29685432.43408203,29857917.78564453,41787982.94067383,10410639.762878418,41329208.37402344,31499584.197998047,34973918.91479492
0.18,-106382827.75878906,-128532806.39648438,-132218856.81152344,-67021652.22167969,-77096549.98779297,-18626235.961914062,-18222877.502441406,-18484313.96484375,-17879236.221313477,-36107349.39575195,-42480438.232421875,-47495952.60620117,-50996093.75,-43932083.12988281,1267241.4779663086,-17293790.817260742,-17993175.506591797,-18090499.877929688,-13913984.298706055,-32078117.37060547,-13385140.419006348,-22003978.729248047,-19339227.6763916,-2455564.022064209,4226442.813873291,-17149290.084838867,-17778263.092041016,-215136.3641023636,-13002872.467041016,786495.3279495239,-26657773.971557617,-10637073.516845703,7632353.30581665,7966246.604919434,214652.79161930084,-10927435.874938965,-20478075.02746582,-7466108.322143555,-2664221.5251922607,-1214790.940284729,11509316.444396973,7972258.567810059,7969467.639923096,8011383.056640625,-8052998.5427856445,35675178.52783203,7036605.358123779,9712888.717651367,24295763.01574707,26714054.107666016,7947327.136993408,7875690.937042236,8178258.895874023,36244789.123535156,52857936.85913086,26403053.283691406,26556346.893310547,37206047.05810547,7894418.716430664,36601272.58300781,26153520.584106445,30415113.44909668
0.185,-114926498.41308594,-143463592.52929688,-146659378.0517578,-69783775.32958984,-81728393.5546875,-18531517.028808594,-18418804.168701172,-18755023.956298828,-17896913.528442383,-35360954.28466797,-40195007.32421875,-49857482.91015625,-52848445.892333984,-52314479.82788086,1136009.4547271729,-17588615.41748047,-18202329.635620117,-18149421.69189453,-12666182.518005371,-30452632.904052734,-12504591.941833496,-26528676.986694336,-22911411.28540039,-1804567.4562454224,3769871.473312378,-17510581.970214844,-17898126.60217285,329547.61385917664,-12465457.916259766,-2616560.459136963,-29848501.205444336,-14411345.481872559,5901383.399963379,6445958.137512207,-2007322.072982788,-13301647.186279297,-23580747.604370117,-8566411.018371582,-4983675.956726074,-5386077.880859375,7801345.348358154,6212881.088256836,6133329.86831665,6186600.208282471,-12689656.257629395,27665790.557861328,329876.1546611786,3814881.8016052246,20678205.490112305,22102016.44897461,6124188.423156738,6124652.38571167,6129408.836364746,28191560.745239258,38012660.98022461,16441082.000732422,16602090.835571289,29177618.0267334,5966856.479644775,28532279.96826172,14970329.284667969,23126977.920532227
0.19,-140419433.59375,-175536804.19921875,-175004196.1669922,-82066215.51513672,-92829368.5913086,-25507110.595703125,-22803634.643554688,-22994787.216186523,-21934154.510498047,-38611030.57861328,-39509727.478027344,-55258647.91870117,-56235988.61694336,-59472339.63012695,-3910040.6169891357,-21828464.50805664,-22475761.41357422,-22259817.123413086,-13793573.379516602,-30417049.407958984,-12912508.964538574,-28387653.350830078,-21774360.65673828,-3829684.4959259033,341783.91098976135,-21845415.115356445,-21997154.235839844,-1353981.614112854,-10512271.881103516,-8316698.07434082,-30029327.392578125,-15941167.831420898,4323578.834533691,5033904.075622559,-5308591.365814209,-15423110.008239746,-26172046.661376953,-7980108.261108398,-5946984.29107666,-5769639.492034912,8417541.50390625,4602550.029754639,4415459.632873535,4496118.068695068,-15962869.644165039,22297567.36755371,-4875316.619873047,-944322.7648735046,18818862.915039062,19771766.662597656,4306487.083435059,4622250.080108643,4337002.754211426,22656692.504882812,27682722.091674805,9203434.944152832,9373547.554016113,23824789.04724121,4169562.816619873,23198207.85522461,7571916.580200195,19165357.58972168
0.195,-144020904.54101562,-175784210.20507812,-174182174.6826172,-84672447.20458984,-90438751.22070312,-29233421.325683594,-25138034.82055664,-25195821.76208496,-24160663.604736328,-39433158.87451172,-38257209.77783203,-52845577.239990234,-53686771.392822266,-54743846.89331055,-7603965.282440186,-24041364.669799805,-24773820.877075195,-24505809.783935547,-14960959.434509277,-30831668.853759766,-12603878.97491455,-25622606.27746582,-16742282.86743164,-6705445.766448975,-2186729.4311523438,-24034601.21154785,-24180843.353271484,-3472735.4049682617,-9632975.578308105,-8230539.321899414,-28036945.343017578,-13955639.839172363,2579770.803451538,3147634.506225586,-7192593.097686768,-15740103.721618652,-27235462.188720703,-8633024.215698242,-5715829.849243164,-2845781.3262939453,11010870.933532715,2726435.1844787598,2580603.1227111816,2618827.3429870605,-16881240.844726562,21585760.11657715,-5249425.411224365,-666837.4538421631,20123033.52355957,20027561.18774414,2432801.4850616455,2831421.375274658,2517595.7679748535,21767786.026000977,27425615.310668945,9414066.314697266,9620732.307434082,23121265.411376953,2269064.426422119,22536052.703857422,7432875.633239746,19568813.32397461
0.2,-119813957.21435547,-142492446.89941406,-143838287.35351562,-73012329.1015625,-73919631.95800781,-24439470.291137695,-22263824.462890625,-22430400.848388672,-21510395.050048828,-35193954.46777344,-34995395.66040039,-43013759.61303711,-46391963.958740234,-42648780.822753906,-5375215.05355835,-21197212.21923828,-21970201.49230957,-21770660.400390625,-13619205.474853516,-30325004.57763672,-10499688.148498535,-20803485.870361328,-12223651.885986328,-6333126.068115234,-1177899.718284607,-21139081.954956055,-21451877.59399414,-3746039.390563965,-10007655.143737793,-2239042.9973602295,-26026332.85522461,-10777395.248413086,1997809.648513794,2258028.507232666,-6481439.590454102,-14842205.047607422,-27069709.77783203,-10365731.239318848,-5156381.607055664,-441340.4166698456,12111598.96850586,2005568.504333496,1936376.452445984,1891728.8780212402,-16452724.45678711,23321229.934692383,-3034704.9236297607,2920237.7796173096,22773674.01123047,20883350.372314453,1903252.8400421143,1998140.0966644287,1876056.432723999,23449172.973632812,30789930.34362793,13608521.461486816,13876729.011535645,24746974.94506836,1651695.4898834229,24234235.763549805,10329297.065734863,21664916.9921875
0.205,-101919914.24560547,-122241043.09082031,-124092857.36083984,-63348567.962646484,-63433338.1652832,-18170272.827148438,-18495843.8873291,-18869359.970092773,-17933769.22607422,-31394235.610961914,-32155220.03173828,-37143421.1730957,-42905349.73144531,-36741008.75854492,-522181.6301345825,-17425228.118896484,-18207311.630249023,-18074724.197387695,-10796133.041381836,-29389837.26501465,-8410216.331481934,-18253351.21154785,-10554279.327392578,-2510030.0312042236,1511021.4948654175,-17445737.838745117,-17839355.46875,-2317704.439163208,-9857329.368591309,1846583.8432312012,-24965101.24206543,-9234032.63092041,3379596.948623657,3554603.8150787354,-4617957.592010498,-13985718.727111816,-26588806.15234375,-10515108.108520508,-4509204.387664795,-425845.11637687683,11720093.727111816,3414733.1714630127,3240967.7505493164,3215248.5847473145,-15535216.331481934,24640243.530273438,-1690105.91506958,5287504.196166992,24393524.169921875,21095138.549804688,3361912.250518799,3139743.0896759033,3158880.2337646484,24881675.720214844,30717103.958129883,16296009.063720703,16572624.206542969,25883993.14880371,3114190.5784606934,25456378.936767578,11237693.786621094,23293663.024902344
0.21,-110347190.8569336,-137132949.82910156,-133987762.45117188,-66830131.53076172,-69042694.09179688,-17829034.80529785,-18564043.045043945,-18919813.15612793,-17896848.678588867,-32885044.09790039,-32378620.147705078,-40078422.54638672,-46166313.17138672,-40521450.04272461,1458995.8190917969,-17330448.150634766,-18138339.99633789,-17976394.653320312,-9536020.278930664,-29463258.743286133,-8087564.468383789,-19037611.00769043,-10616377.830505371,579547.2264289856,2676504.611968994,-17502342.224121094,-17798612.594604492,-1125470.3998565674,-8533174.514770508,-132033.3033800125,-24504903.79333496,-9651785.850524902,5178472.04208374,5582716.464996338,-3363751.4114379883,-13067319.869995117,-26475137.71057129,-9018278.121948242,-3779745.101928711,-1222735.6433868408,11586815.83404541,5377728.462219238,5021162.986755371,5108663.558959961,-14128360.748291016,24498764.038085938,-1775828.5999298096,4613943.099975586,24281406.40258789,20530082.70263672,5147336.959838867,4957988.262176514,4906438.827514648,24900259.017944336,28433765.411376953,15977103.233337402,16164333.34350586,25685689.92614746,5018343.925476074,25286054.611206055,9259762.76397705,24038164.138793945
0.215,-122964225.76904297,-154003906.25,-149341690.06347656,-73438293.45703125,-76379180.90820312,-20432497.024536133,-20796253.204345703,-20919481.27746582,-19956863.403320312,-36336223.60229492,-34059005.73730469,-43044651.03149414,-48955192.56591797,-43283313.7512207,561194.9563026428,-19460748.67248535,-20290842.056274414,-20037954.330444336,-10622829.43725586,-30675233.840942383,-8082457.542419434,-19928073.88305664,-10581895.82824707,330636.50131225586,2001327.0378112793,-19660911.560058594,-19837888.717651367,-1076832.0560455322,-7187399.387359619,-3220781.5647125244,-23847021.102905273,-9953554.153442383,5320552.349090576,5949999.809265137,-2785520.7920074463,-11560909.271240234,-26844379.425048828,-9031392.097473145,-3251950.50239563,-726221.0249900818,11958220.481872559,5607156.276702881,5299924.850463867,5395490.1695251465,-12467940.330505371,23488571.166992188,-1866681.3373565674,3236827.850341797,23309041.97692871,19377134.323120117,5255829.334259033,5350511.074066162,5120952.129364014,23898462.295532227,29085216.522216797,14579025.268554688,14652151.107788086,24792732.23876953,5186846.733093262,24318758.010864258,6536150.932312012,24165817.260742188
0.22,-115509773.25439453,-141826324.46289062,-150147888.18359375,-70191703.79638672,-71014129.63867188,-19580865.85998535,-20685277.938842773,-20700687.408447266,-19930862.426757812,-35763301.849365234,-33577037.8112793,-38404052.734375,-45432346.34399414,-37203674.31640625,294501.03640556335,-19548574.447631836,-20356256.48498535,-20032714.84375,-11598940.8493042,-31522935.86730957,-5937211.036682129,-18440975.189208984,-10240842.819213867,-1327208.5189819336,1109072.5660324097,-19621448.516845703,-19769271.850585938,-1140676.6176223755,-6412562.847137451,-1930524.3492126465,-22362073.89831543,-8856153.48815918,3653129.3392181396,4270856.857299805,-2358486.4139556885,-10274177.551269531,-27458271.026611328,-11665513.99230957,-3132139.4443511963,747021.0790634155,11716670.989990234,3877875.566482544,3842218.3990478516,3763402.223587036,-11717635.154724121,22276262.283325195,-1592344.9993133545,3649438.8580322266,22257074.3560791,17833770.751953125,3632944.8223114014,3946370.1248168945,3615164.041519165,22501754.760742188,32816917.419433594,13490507.125854492,13515824.317932129,23658353.805541992,3471774.5780944824,23065757.751464844,4947233.6769104,23757532.119750977
0.225,-101052413.94042969,-121541297.91259766,-154101379.39453125,-62199382.78198242,-61363471.98486328,-16790370.94116211,-18087327.95715332,-18248777.389526367,-17550764.083862305,-31726325.98876953,-30733110.427856445,-32302417.755126953,-40610996.24633789,-29572469.71130371,831879.734992981,-17269071.578979492,-18041856.76574707,-17682849.884033203,-10218667.030334473,-30747526.168823242,-2542343.854904175,-16956672.66845703,-10638133.04901123,-1977017.6410675049,181954.5030593872,-17242219.924926758,-17350727.081298828,-280671.06008529663,-5394524.574279785,1260177.493095398,-20289388.65661621,-8152976.036071777,1565829.1578292847,2131446.123123169,-2459270.0004577637,-10300504.684448242,-28132148.74267578,-13743906.021118164,-3358933.687210083,917003.2143592834,10212028.503417969,1756602.2872924805,1835120.5587387085,1620008.3494186401,-12722702.980041504,20881280.89904785,-1826720.2377319336,4827791.213989258,20734228.134155273,15984724.998474121,1642885.0889205933,2030903.3393859863,1723490.9534454346,20946247.100830078,34573230.7434082,12234087.944030762,12259557.723999023,22155178.07006836,1377842.664718628,21525146.484375,4667949.676513672,22633718.490600586
0.23,-105978179.93164062,-129502899.16992188,-181555694.58007812,-62999809.26513672,-63897956.84814453,-18204610.82458496,-16742919.921875,-17022768.020629883,-16174968.719482422,-29776065.826416016,-28715490.341186523,-34665039.0625,-42374412.536621094,-31514837.26501465,-904673.6359596252,-15946553.230285645,-16746330.261230469,-16358434.677124023,-7544694.900512695,-28817798.614501953,-1390418.529510498,-19214752.197265625,-12264598.846435547,-2408948.8983154297,-1739164.3524169922,-15983045.57800293,-15950455.665588379,847687.4232292175,-3985027.79006958,587112.2479438782,-18899316.787719727,-10505751.609802246,200307.04140663147,951080.9779167175,-3367491.9605255127,-10906640.05279541,-28897451.400756836,-12584845.542907715,-3936692.237854004,-1306249.3801116943,7705759.048461914,513796.44870758057,366904.05011177063,291914.85047340393,-14485203.742980957,19441461.56311035,-2604203.224182129,3946424.2458343506,18030029.296875,13963761.329650879,339103.9967536926,794225.1563072205,569582.2238922119,19602527.618408203,31751146.31652832,10441884.04083252,10448285.102844238,20618698.120117188,128374.15933609009,20080541.610717773,4861674.3087768555,20821104.049682617
0.235,-124967544.55566406,-156951324.46289062,-213432022.09472656,-71522888.18359375,-75726379.39453125,-23128059.38720703,-17908216.47644043,-18057317.73376465,-17037687.301635742,-31365653.99169922,-28802061.080932617,-42627464.294433594,-48497142.79174805,-40847137.451171875,-4959159.851074219,-16770290.37475586,-17669773.10180664,-17268392.56286621,-6445858.955383301,-27196050.6439209,-3367592.3347473145,-23973402.02331543,-14159979.820251465,-4097985.7444763184,-3798407.793045044,-16956054.6875,-16812892.91381836,851077.9142379761,-3653733.491897583,-3523386.7168426514,-19307313.919067383,-15323460.578918457,-34370.001405477524,1004169.5833206177,-3934297.0848083496,-10399284.362792969,-29885463.71459961,-10215093.612670898,-4962541.580200195,-4117515.5639648438,4800993.919372559,424129.75430488586,4613.329190760851,258093.08886528015,-15083809.852600098,18545980.45349121,-2890589.2372131348,472659.8262786865,14581209.182739258,12264077.186584473,95862.22469806671,640861.6304397583,478790.9984588623,18978685.37902832,27603067.39807129,8870552.062988281,8853160.858154297,19887979.50744629,58457.087725400925,19463417.053222656,4445182.800292969,18891811.37084961
0.24,-128835327.1484375,-163328338.62304688,-214679977.4169922,-73582527.16064453,-78850166.32080078,-24156452.178955078,-18699144.36340332,-18665456.771850586,-17656147.003173828,-32086402.893066406,-28632843.017578125,-44225608.825683594,-49503482.818603516,-45253425.59814453,-7015538.692474365,-17241733.55102539,-18250656.127929688,-17871753.692626953,-7611602.783203125,-26643041.610717773,-5179600.238800049,-25932823.181152344,-14795814.514160156,-5652996.063232422,-3526101.3507843018,-17531454.08630371,-17478672.02758789,-286465.7938480377,-5122880.458831787,-5402257.919311523,-21046152.114868164,-18847026.824951172,683319.9262619019,1713987.3504638672,-3008466.7205810547,-8850855.827331543,-31072692.87109375,-10178962.707519531,-6162185.192108154,-5004486.083984375,2130825.7579803467,1123347.0439910889,696658.2536697388,1119552.9699325562,-14293329.238891602,17997415.54260254,-2439443.588256836,-3361833.095550537,11919405.937194824,11250241.27960205,746487.3790740967,1287714.123725891,1104773.1637954712,18533536.911010742,25952274.322509766,7766914.367675781,7783447.742462158,19617473.602294922,814050.4360198975,19184705.73425293,2261026.620864868,17310869.216918945
0.245,-109673851.0131836,-138341690.06347656,-186131256.10351562,-63944862.365722656,-67787818.9086914,-18448160.17150879,-16827102.661132812,-16840599.060058594,-15978047.370910645,-29109739.303588867,-26530670.166015625,-36332256.31713867,-42837924.95727539,-39828754.42504883,-4416298.866271973,-15390561.1038208,-16457498.550415039,-16084205.627441406,-8561419.486999512,-26645507.8125,-3972799.062728882,-23010101.318359375,-13546648.025512695,-4651712.417602539,-181130.75196743011,-15734519.958496094,-15881695.747375488,-942150.7120132446,-6545369.1482543945,-2944896.2211608887,-22305891.036987305,-18708753.58581543,1430703.5207748413,2084883.451461792,-1420859.2176437378,-8023067.474365234,-31989013.671875,-12062715.530395508,-6834634.304046631,-4040555.953979492,158636.1974477768,1718315.839767456,1453045.129776001,1670284.390449524,-13809716.22467041,16454326.629638672,-2131518.1255340576,-5691618.4425354,11185106.27746582,10381836.891174316,1378847.9566574097,1790448.9040374756,1502576.1127471924,16757980.346679688,26164869.30847168,6030215.263366699,6102853.775024414,18073434.829711914,1384476.7808914185,17531732.5592041,-2103198.528289795,15773142.81463623
0.25,-91637588.50097656,-115337539.67285156,-164067977.90527344,-53798862.45727539,-57239925.384521484,-11880949.020385742,-13761322.021484375,-13968575.477600098,-13204243.659973145,-25683050.15563965,-24564588.54675293,-29136577.606201172,-36603588.10424805,-32633682.250976562,81155.71737289429,-12558603.286743164,-13617189.407348633,-13147594.451904297,-7181540.012359619,-26422472.00012207,-1280633.0919265747,-19190677.642822266,-11167729.377746582,-1472010.612487793,4237270.832061768,-12953549.3850708,-13158360.481262207,106924.36993122101,-5715204.238891602,-127412.54270076752,-21691394.805908203,-16552692.413330078,1463651.7763137817,1771561.3842010498,-690245.3899383545,-8376030.921936035,-31740785.598754883,-12218476.295471191,-6493796.348571777,-3465184.6885681152,-965955.1382064819,1610992.0740127563,1409975.0518798828,1215355.2770614624,-14133708.953857422,13978754.043579102,-2076133.0127716064,-6568125.7247924805,12342384.338378906,9176197.052001953,1284366.7268753052,1546266.794204712,1202548.3846664429,13973621.368408203,25809877.395629883,3521162.0330810547,3559150.218963623,15273345.947265625,1138259.1724395752,14702502.250671387,-6537294.864654541,14499506.950378418
0.255,-94675292.96875,-121104537.96386719,-170816726.6845703,-53887569.427490234,-60150215.14892578,-10257524.490356445,-12110163.688659668,-12373528.480529785,-11559089.660644531,-26093324.661254883,-25274551.391601562,-31262260.43701172,-37958950.04272461,-32343971.252441406,2296703.577041626,-11039156.913757324,-12033122.062683105,-11398210.525512695,-4663364.410400391,-25884582.51953125,-624975.0852584839,-19025003.43322754,-9162733.07800293,1165906.6677093506,7516383.171081543,-11426033.973693848,-11511604.309082031,2134625.9117126465,-3204057.216644287,-611343.4433937073,-19718112.94555664,-15356121.063232422,1583139.5387649536,1929233.7894439697,-406213.641166687,-8195747.375488281,-29757001.876831055,-9400619.506835938,-5560176.372528076,-4236656.665802002,-1262213.5877609253,1632399.4398117065,1396292.4480438232,982204.3180465698,-13229537.963867188,13438044.548034668,-1206935.6441497803,-6653380.393981934,14407504.081726074,8694084.167480469,1344261.4078521729,1509319.1862106323,1314675.211906433,13418283.462524414,25202190.399169922,2444251.775741577,2346682.7869415283,14482653.617858887,1099210.3815078735,14060365.676879883,-7165879.726409912,15450278.282165527
0.26,-109838714.59960938,-142798660.2783203,-191244689.94140625,-60739925.384521484,-71066741.94335938,-12152548.789978027,-12132125.854492188,-12275250.434875488,-11310366.6305542,-29209867.477416992,-27233875.274658203,-38635189.056396484,-44106845.85571289,-38027317.04711914,1576269.7458267212,-11012927.055358887,-11904153.823852539,-11194808.006286621,-3291233.3011627197,-25192142.486572266,-2536549.0913391113,-22085592.26989746,-8759096.145629883,1501131.1769485474,8804600.715637207,-11253851.890563965,-11276838.302612305,3546940.0882720947,-1446844.3393707275,-3305708.646774292,-18342445.373535156,-15863180.160522461,2772045.373916626,3427790.403366089,814573.4667778015,-6589010.238647461,-26857721.32873535,-6655222.8927612305,-5225094.795227051,-4852819.919586182,-986832.4995040894,2729389.6675109863,2540251.4934539795,2315535.306930542,-10162527.084350586,16432668.685913086,361161.9770526886,-6548233.0322265625,15532364.845275879,9982582.092285156,2589832.305908203,2703517.198562622,2775954.7233581543,16681966.781616211,25646879.196166992,3975095.748901367,3776281.8336486816,17537302.017211914,2375385.522842407,17308092.11730957,-3391450.881958008,19431718.826293945
0.265,-117675575.25634766,-153876983.64257812,-201159881.59179688,-64222190.856933594,-76642967.2241211,-12959239.959716797,-12083852.767944336,-12133604.049682617,-11052258.491516113,-29963216.78161621,-26552057.26623535,-41887851.71508789,-47679389.95361328,-43553401.947021484,130089.47670459747,-10892483.711242676,-11684277.534484863,-11076531.410217285,-2536298.990249634,-23939247.131347656,-4111404.8957824707,-24539764.404296875,-9935400.96282959,-194967.6275253296,7872685.90927124,-10943295.4788208,-11085612.297058105,4012647.6287841797,-1168707.9668045044,-5251387.596130371,-18716299.057006836,-16899251.93786621,3420969.009399414,4307614.326477051,2187660.4557037354,-5414022.922515869,-25105993.270874023,-6978215.69442749,-6327334.880828857,-4047791.4810180664,-1129276.7524719238,3365748.167037964,3306618.2136535645,3468894.9584960938,-8059041.0232543945,18988090.51513672,482285.61878204346,-7512884.140014648,13539201.736450195,10992914.199829102,3344115.0188446045,3482739.6869659424,3615195.2743530273,19406393.05114746,25216873.168945312,4842226.505279541,4664605.140686035,20164703.369140625,3269598.960876465,19994388.580322266,-986591.100692749,22172763.82446289
0.27,-113600547.79052734,-148747695.92285156,-196510650.63476562,-60983116.149902344,-73101982.11669922,-11391976.356506348,-10716102.600097656,-10777229.309082031,-9739775.657653809,-26113006.591796875,-22413597.106933594,-38857917.78564453,-46362892.150878906,-46001007.080078125,-276249.9749660492,-9519427.299499512,-10285892.486572266,-9828463.554382324,-134753.09312343597,-21861913.681030273,-3270756.483078003,-24249456.40563965,-11190284.729003906,-2698830.1277160645,5219226.360321045,-9553660.39276123,-9799115.180969238,4503119.945526123,-823136.031627655,-5422389.030456543,-19696336.74621582,-17813880.920410156,706992.3281669617,1640785.0980758667,1437382.3404312134,-6633764.266967773,-25918727.87475586,-9498498.916625977,-8327658.653259277,-2964385.509490967,-3075062.7517700195,814821.183681488,783793.9262390137,1123010.1585388184,-10173714.637756348,15634570.121765137,-1970533.9670181274,-10516470.909118652,7996817.588806152,7930907.726287842,665228.4860610962,949885.9643936157,791727.9601097107,15869149.208068848,21071704.864501953,757443.904876709,643553.614616394,16531957.626342773,752795.3386306763,16310745.239257812,-6198543.548583984,17631422.04284668
0.275,-104573135.37597656,-137425292.96875,-185647262.5732422,-54572032.9284668,-65906326.29394531,-8652257.919311523,-8278096.1990356445,-8331758.499145508,-7498865.604400635,-20726346.969604492,-18354627.60925293,-34353523.25439453,-42949455.26123047,-45636539.459228516,980757.6537132263,-7076927.661895752,-7951687.335968018,-7498596.668243408,3250299.9305725098,-20056718.826293945,-1175800.4426956177,-22035238.26599121,-10564827.919006348,-4231697.559356689,3216121.6735839844,-7327205.181121826,-7453166.961669922,5367061.138153076,444050.6398677826,-4067951.202392578,-19116949.0814209,-18667963.0279541,-4332071.304321289,-3355016.4699554443,-1059040.3079986572,-9061234.474182129,-28424976.348876953,-11302557.945251465,-9567431.449890137,-3280271.7685699463,-6628662.109375,-3983372.926712036,-4149437.427520752,-3960574.8653411865,-14114409.446716309,8202027.320861816,-4648433.685302734,-13770728.11126709,2112731.695175171,1195173.2635498047,-4424673.557281494,-3975109.577178955,-4461020.946502686,8100908.279418945,15694337.844848633,-6546389.102935791,-6662175.178527832,8642826.080322266,-4257166.385650635,8431396.484375,-16259107.58972168,7347272.3960876465
0.28,-94424591.06445312,-124677581.78710938,-171840866.0888672,-48202571.868896484,-59167812.34741211,-5105918.407440186,-6021128.177642822,-5994040.489196777,-5370412.349700928,-18075555.8013916,-17637884.14001465,-31636428.833007812,-39392135.62011719,-42394874.572753906,3869144.916534424,-4777670.383453369,-5866081.237792969,-5245262.145996094,3748151.3023376465,-20153526.306152344,125927.12044715881,-19323198.318481445,-7563519.9546813965,-3209316.4920806885,4384381.7710876465,-5267009.258270264,-5184691.429138184,5679140.567779541,1545057.2967529297,-1139913.79737854,-16400901.794433594,-18715660.095214844,-6434218.406677246,-5328258.991241455,-1847686.6483688354,-9647831.916809082,-30235122.680664062,-11254815.101623535,-8710402.488708496,-4314280.986785889,-8932300.567626953,-5985059.2613220215,-6293653.0113220215,-6287441.253662109,-14092363.357543945,5557472.705841064,-4243438.243865967,-13366415.023803711,948076.4865875244,-2793515.682220459,-6543428.421020508,-6104259.967803955,-6551517.486572266,5342717.170715332,15844994.54498291,-9438261.032104492,-9596876.14440918,5888011.455535889,-6439644.336700439,5789362.907409668,-20351009.368896484,1854242.3248291016
0.285,-85152526.85546875,-112155097.96142578,-157338363.64746094,-43944534.30175781,-53941459.65576172,-1699987.0538711548,-5570770.263671875,-5497745.513916016,-4942011.35635376,-19283449.172973633,-19653837.203979492,-30217710.494995117,-35802021.02661133,-37318042.75512695,6703467.845916748,-4324020.3857421875,-5590354.442596436,-4794315.814971924,-173928.97605895996,-22017713.54675293,597658.4553718567,-16908041.00036621,-3987826.5857696533,-611593.3656692505,7652164.936065674,-4846340.179443359,-4766390.323638916,4989827.1560668945,1863281.9652557373,2593300.8193969727,-12985512.733459473,-16746818.542480469,-3024527.3113250732,-1893781.5427780151,565631.2704086304,-7514981.269836426,-29823472.97668457,-10272135.734558105,-5873211.860656738,-3640697.479248047,-6963794.708251953,-2671356.678009033,-2976326.2271881104,-2926500.7972717285,-9187558.1741333,12215376.853942871,-687421.7987060547,-7888085.36529541,6624349.117279053,1510554.552078247,-3037447.214126587,-2783738.374710083,-2877712.0113372803,12175207.138061523,23580041.885375977,-3420641.8991088867,-3577744.245529175,12945384.979248047,-3083189.9642944336,12911989.212036133,-12656738.28125,8371254.920959473
0.29,-84111862.18261719,-109539970.39794922,-152623046.875,-45351573.9440918,-53420082.092285156,-1700027.7042388916,-7909711.3609313965,-7894946.098327637,-7283712.863922119,-22655927.658081055,-22068109.5123291,-30581226.348876953,-33925083.16040039,-34792888.64135742,6545214.1761779785,-6752893.447875977,-7998343.944549561,-7199078.08303833,-4881569.862365723,-23674747.467041016,1225591.3019180298,-15679855.346679688,-2287209.0339660645,-7135.315332561731,9011471.74835205,-7123102.66494751,-7267654.895782471,4431465.625762939,2722406.6257476807,4635747.43270874,-10140480.041503906,-13190858.840942383,1705025.1960754395,2564190.626144409,3063733.3393096924,-4834841.251373291,-27698303.22265625,-8813018.798828125,-2415332.317352295,-371654.8979282379,-1248869.53830719,1914785.2659225464,1741459.9657058716,1909763.6938095093,-4893616.676330566,21824342.727661133,3177199.363708496,-838690.9365653992,15951120.376586914,11783262.252807617,1776382.8039169312,1927682.0421218872,2075076.8184661865,21964017.868041992,32586826.32446289,7039380.073547363,6916733.741760254,23055002.212524414,1674500.9422302246,22926647.186279297,-166620.12040615082,20704559.326171875
0.295,-95702056.88476562,-123892944.3359375,-164958877.56347656,-53447807.31201172,-60547039.03198242,-6418740.749359131,-11943237.3046875,-12018794.059753418,-11308609.008789062,-26236953.735351562,-24391447.067260742,-34805793.76220703,-36341426.849365234,-38189384.46044922,3053293.228149414,-10888357.162475586,-11887643.814086914,-11311118.125915527,-6345638.751983643,-24100839.614868164,1411580.6818008423,-16414924.621582031,-3192660.331726074,-2945833.444595337,7118285.179138184,-11121892.929077148,-11409130.096435547,5020049.095153809,5022716.522216797,3249041.5573120117,-7703872.6806640625,-10465781.211853027,2596561.6703033447,3012344.8371887207,2320940.7329559326,-3758535.861968994,-25441959.381103516,-6315362.453460693,17963.329330086708,3449221.134185791,4161316.394805908,2735483.8848114014,2682047.6055145264,2768024.682998657,-5057285.785675049,25666141.510009766,5472488.880157471,3068550.1098632812,23346199.03564453,20474260.330200195,2539407.0148468018,2851957.5595855713,2927843.0938720703,25768888.473510742,36124542.236328125,14079970.359802246,13950934.410095215,27039403.915405273,2609247.4460601807,26749029.1595459,6318820.953369141,26874889.373779297
0.3,-109587097.16796875,-142434738.1591797,-182382781.98242188,-61491432.189941406,-70366630.55419922,-11115324.974060059,-14757364.273071289,-14869543.075561523,-14006814.002990723,-28468362.80822754,-27186410.903930664,-41402393.34106445,-41391956.3293457,-44031616.2109375,330778.7775993347,-13698145.866394043,-14385418.891906738,-14163856.506347656,-5275671.95892334,-24490650.177001953,-318649.5900154114,-18219745.635986328,-5238591.67098999,-5930659.770965576,5442786.693572998,-13913065.910339355,-14090737.342834473,5882092.475891113,7145442.008972168,232262.38787174225,-5486079.216003418,-10412374.496459961,686311.4237785339,825190.3057098389,-433160.0069999695,-4199374.675750732,-24274909.97314453,-3234038.1145477295,427756.3691139221,5072034.3589782715,5971528.53012085,816996.0379600525,744441.80727005,628796.0410118103,-6737166.881561279,23717994.689941406,6617434.024810791,2879821.538925171,25572801.58996582,23293636.322021484,322349.2205142975,892033.9345932007,838149.0707397461,23668537.139892578,34990947.72338867,15290042.877197266,15125713.348388672,24850118.63708496,679888.0100250244,24506240.844726562,5181614.875793457,24300226.21154785
0.305,-109552421.56982422,-143050750.73242188,-183363952.63671875,-60364894.86694336,-72268257.14111328,-9742822.647094727,-14292620.658874512,-14374455.451965332,-13306181.907653809,-27543102.264404297,-28937444.68688965,-44332237.243652344,-43062984.466552734,-44922382.35473633,2253779.649734497,-13125215.530395508,-13625802.040100098,-13687953.94897461,-4763916.015625,-25585008.62121582,-3021458.148956299,-18617134.09423828,-6314218.521118164,-4744563.579559326,7159519.195556641,-13354615.211486816,-13376522.064208984,5657195.568084717,7148118.495941162,-548128.4856796265,-4304401.874542236,-12139679.908752441,690603.9714813232,886359.8704338074,-1651026.2489318848,-5010409.832000732,-24507480.62133789,-1768689.8708343506,-828775.0482559204,3898741.9605255127,4857452.392578125,871604.7406196594,626267.1947479248,516149.10364151,-5806714.5347595215,22342174.530029297,6995572.566986084,1174770.9512710571,23469688.415527344,22197208.404541016,160735.41343212128,777583.1818580627,792046.3681221008,22245681.762695312,34214405.05981445,13994286.53717041,13850431.442260742,23156793.59436035,622723.8774299622,22917636.87133789,2795881.0329437256,20856664.657592773
0.31,-94499252.31933594,-122969741.82128906,-163413848.87695312,-50247341.15600586,-62847015.380859375,-3281978.8455963135,-11629892.349243164,-11625108.71887207,-10451979.637145996,-22879135.131835938,-27173126.220703125,-40298362.731933594,-38421508.7890625,-39008491.51611328,7019444.465637207,-10366115.57006836,-10847948.07434082,-10923438.07220459,-5086695.671081543,-25694614.41040039,-3463832.378387451,-16398391.723632812,-5496242.523193359,-535068.929195404,10641308.784484863,-10544784.545898438,-10622902.870178223,4892383.575439453,5838943.004608154,2355340.4808044434,-4633224.010467529,-13402065.27709961,3317013.740539551,3753468.9903259277,-636245.1910972595,-5706835.2699279785,-25570480.346679688,-3539076.566696167,-2165117.7406311035,1571037.769317627,3637792.3488616943,3660673.3798980713,3214173.0785369873,3359886.1694335938,-3605573.1773376465,23798477.172851562,5868017.196655273,-79700.5221247673,20059831.619262695,20582193.37463379,3002127.6473999023,3414969.2058563232,3553615.8084869385,23773447.036743164,34873901.3671875,12813373.565673828,12756669.044494629,24466049.194335938,3239095.92628479,24395547.86682129,2184470.6535339355,21835622.787475586
0.315,-80675590.51513672,-103538528.44238281,-141718002.31933594,-41487182.6171875,-51448314.66674805,1297906.2795639038,-9678567.886352539,-9567162.51373291,-8521529.197692871,-17418952.94189453,-22977888.107299805,-34159690.856933594,-32392574.310302734,-32820476.531982422,9630157.470703125,-8423157.691955566,-8964941.024780273,-8786936.75994873,-4377131.462097168,-23490728.3782959,-747256.6962242126,-13707263.946533203,-3641755.8193206787,2073251.9626617432,12670244.216918945,-8520350.456237793,-8788739.204406738,5240812.301635742,5522727.966308594,6044925.689697266,-5463412.761688232,-13571096.420288086,5057338.237762451,5687870.025634766,658007.9197883606,-6080477.237701416,-26305959.701538086,-7344768.524169922,-2267452.2399902344,-213431.31363391876,3530154.4666290283,5625557.422637939,5100826.263427734,5447444.915771484,-3943100.4524230957,24408758.16345215,3471786.7374420166,-1259346.9619750977,17834775.924682617,19250534.057617188,5159371.852874756,5367512.226104736,5407639.980316162,24399400.71105957,33955314.63623047,11293059.349060059,11296143.531799316,25122417.449951172,5049023.151397705,25163253.784179688,169593.9600467682,23811613.082885742
0.32,-80613967.89550781,-102672386.1694336,-137755645.75195312,-41609912.87231445,-48883712.76855469,815805.3755760193,-9614547.729492188,-9481633.186340332,-8647850.036621094,-15719101.905822754,-20986362.45727539,-33240428.924560547,-31792062.759399414,-32794063.568115234,9269635.200500488,-8465150.833129883,-9080817.222595215,-8644800.186157227,-3029010.534286499,-21141916.275024414,1639509.677886963,-13680665.969848633,-2340200.662612915,2230590.1050567627,13611087.799072266,-8544336.318969727,-8851616.859436035,6558180.332183838,6418012.1421813965,6601735.591888428,-5708352.088928223,-13841702.461242676,4957097.53036499,5665775.299072266,1725830.5549621582,-5442126.274108887,-25913276.67236328,-10209510.803222656,-1614388.2274627686,-1086092.1144485474,3780524.492263794,5601166.248321533,5127447.605133057,5450611.591339111,-6441734.313964844,22380550.384521484,1952900.6481170654,-2859565.9732818604,17446130.752563477,18065513.610839844,5261063.098907471,5443696.975708008,5224075.3173828125,22264705.657958984,30849819.18334961,9441478.729248047,9411381.721496582,23240690.231323242,4969320.297241211,23261226.654052734,-4369930.267333984,22971950.53100586
0.325,-88799903.8696289,-114412597.65625,-149558883.6669922,-46324096.6796875,-54405582.427978516,-102485.26930809021,-9635634.422302246,-9627275.466918945,-8847197.532653809,-18497287.75024414,-23228303.909301758,-37778274.53613281,-36328731.536865234,-37216972.35107422,10390044.212341309,-8623157.501220703,-9339442.253112793,-8893274.307250977,-3322790.3842926025,-21727937.698364258,494006.7231655121,-16122627.258300781,-2165545.94039917,4058674.3354797363,16004127.502441406,-8762483.596801758,-8907283.782958984,6873619.556427002,6653401.3748168945,3718993.4253692627,-5722660.064697266,-14589140.892028809,6458704.948425293,7173060.417175293,3936588.764190674,-3522015.09475708,-24905910.49194336,-10414415.35949707,-1754905.7006835938,-1293737.530708313,4279093.7423706055,6894888.877868652,6479555.606842041,6722790.241241455,-7569127.559661865,21072290.420532227,2664959.9075317383,-3770153.045654297,17993278.50341797,18359413.146972656,6593784.332275391,6831507.205963135,6515224.933624268,20884937.286376953,28847314.834594727,9224144.93560791,9107208.251953125,22101913.452148438,6283382.415771484,21972030.639648438,-6824963.569641113,22018180.84716797
0.33,-93252456.66503906,-122725662.23144531,-161019912.71972656,-47334274.29199219,-59195415.49682617,3208767.1756744385,-7871145.725250244,-8012905.120849609,-7183296.203613281,-21592851.638793945,-26096904.754638672,-41562469.482421875,-39784229.27856445,-40040863.037109375,15542824.745178223,-6956716.060638428,-7792089.939117432,-7519188.404083252,-5171420.097351074,-24518756.866455078,-2528247.117996216,-17652032.85217285,-2324172.9736328125,9879829.406738281,19632223.12927246,-7159555.912017822,-7215741.157531738,5525676.727294922,5551182.746887207,622116.6849136353,-6288294.315338135,-14502034.187316895,11459848.403930664,12109131.813049316,7110355.377197266,-1364865.3030395508,-24518199.920654297,-8807671.546936035,-3061789.9894714355,-806977.9872894287,6112112.045288086,11561531.066894531,11169574.737548828,11405862.808227539,-6517505.168914795,23014507.293701172,3930204.8683166504,-2871524.0955352783,18168436.05041504,21194101.333618164,11317171.096801758,11526465.41595459,11361959.457397461,22947147.369384766,29649660.110473633,11140007.972717285,10954840.660095215,24211778.64074707,10940357.208251953,23893972.396850586,-4191477.2987365723,24485107.421875
0.335,-92833190.91796875,-124396240.234375,-163148223.87695312,-44593322.75390625,-59674236.29760742,7970990.180969238,-5450287.342071533,-5594936.847686768,-4877926.826477051,-21784608.840942383,-25790351.86767578,-41365356.4453125,-39254577.63671875,-40091480.25512695,20794094.08569336,-4542857.646942139,-5445564.270019531,-5248897.075653076,-6099102.973937988,-25994812.01171875,-3679464.340209961,-16709690.09399414,-2297038.5551452637,16089321.13647461,21793844.22302246,-4743661.880493164,-4995941.638946533,4291427.6123046875,4630194.664001465,-477861.0169887543,-7062890.05279541,-13147894.859313965,16769243.240356445,17271238.327026367,9051675.796508789,-293923.10976982117,-25000015.258789062,-7312743.663787842,-4322484.970092773,57705.21983504295,8918517.112731934,16718416.213989258,16409093.856811523,16572484.970092773,-5307260.036468506,25651943.20678711,3140452.3849487305,-1180529.4752120972,17220342.6361084,24707052.23083496,16555362.701416016,16688011.169433594,16622385.025024414,25822277.069091797,30664859.771728516,12501623.153686523,12295079.231262207,27009891.510009766,16032121.658325195,26592271.80480957,-542492.926120758,27718198.776245117
0.34,-94045639.03808594,-126246269.22607422,-158356903.07617188,-44346141.81518555,-59770606.994628906,8113691.329956055,-5181021.213531494,-5204364.29977417,-4764501.094818115,-20797786.712646484,-23781875.610351562,-40153797.1496582,-37830909.729003906,-41144294.73876953,20703645.706176758,-4181311.60736084,-5075183.391571045,-4761625.289916992,-5598362.922668457,-25101524.353027344,-2596390.48576355,-15736495.018005371,-2838774.4426727295,17620500.564575195,21671129.22668457,-4319473.743438721,-4897860.527038574,4552910.327911377,5048418.5218811035,-630719.9597358704,-7073914.051055908,-12316521.644592285,18303344.7265625,18672012.329101562,8892624.855041504,-582423.2697486877,-25309556.96105957,-6767227.649688721,-4651213.645935059,191312.37268447876,10092256.546020508,18394884.10949707,18260278.701782227,18201253.89099121,-4157122.1351623535,25401826.858520508,260148.94247055054,-875945.0912475586,15249977.111816406,25747678.756713867,18230043.411254883,18390834.80834961,18122095.108032227,25710865.020751953,29314468.383789062,11095300.674438477,10913825.035095215,26867156.982421875,17681745.529174805,26462760.92529297,-1427049.5176315308,26855136.87133789
0.345,-95460464.47753906,-126175575.25634766,-147295211.7919922,-46983608.24584961,-60185642.24243164,3427392.9595947266,-7433191.299438477,-7376356.601715088,-7071859.836578369,-21072055.81665039,-23365255.35583496,-39564239.501953125,-37027233.1237793,-43192089.08081055,15493505.477905273,-6307518.482208252,-7192717.0753479,-6778503.894805908,-5724389.553070068,-23983791.35131836,-1425007.5817108154,-16367950.439453125,-4218283.653259277,13892316.818237305,20705305.099487305,-6388405.799865723,-7100402.83203125,5177438.735961914,6086884.021759033,-820303.3804893494,-5855614.185333252,-12893962.860107422,15752283.096313477,16144458.770751953,7982712.745666504,-2020563.8408660889,-24892137.52746582,-6417676.4488220215,-4391023.635864258,-775543.5109138489,8413596.153259277,16080011.367797852,16081876.754760742,15870386.123657227,-1742286.205291748,22375022.888183594,-2363928.0796051025,-2370842.456817627,13192394.256591797,23994098.663330078,15814452.171325684,16099643.70727539,15503813.743591309,22625856.399536133,26729923.248291016,8483277.320861816,8362364.768981934,23801252.365112305,15437977.79083252,23415842.056274414,-6443930.149078369,22564659.118652344
0.35,-87883773.80371094,-113652511.59667969,-125296882.62939453,-45286380.767822266,-54807563.78173828,-272629.052400589,-9306200.02746582,-9244960.78491211,-8803104.400634766,-20782615.661621094,-23456554.412841797,-35789295.1965332,-32967502.59399414,-40525035.8581543,10215947.151184082,-8119124.412536621,-9049766.540527344,-8720843.315124512,-6880508.899688721,-23547918.31970215,14741.224236786366,-15546107.292175293,-4730077.266693115,8259312.629699707,18954347.610473633,-8211474.418640137,-8773927.688598633,4477327.346801758,6708160.400390625,782790.2436256409,-3512295.4845428467,-12467788.696289062,11395844.459533691,11974219.32220459,6824506.759643555,-4812489.986419678,-24850177.764892578,-5407513.618469238,-3825181.9610595703,-1299483.5376739502,6590201.377868652,11788536.071777344,11789508.819580078,11688866.61529541,222180.18770217896,18920919.41833496,-3271904.945373535,-3580506.5631866455,12502627.3727417,22391672.134399414,11470547.676086426,11788212.776184082,11115590.09552002,19017816.5435791,25229843.139648438,7693252.086639404,7618818.283081055,20139545.440673828,11263334.274291992,19692161.560058594,-10893322.944641113,19768653.869628906
0.355,-71738372.80273438,-91144012.45117188,-96319892.88330078,-36989707.946777344,-42485118.8659668,221962.00489997864,-8789007.186889648,-8677418.70880127,-8069225.311279297,-17465612.411499023,-20995353.69873047,-27622531.89086914,-24414152.145385742,-31875402.450561523,7972441.19644165,-7637281.41784668,-8585273.742675781,-8384747.505187988,-6979505.0621032715,-22386240.005493164,3373285.5319976807,-10609091.758728027,-3165620.803833008,3678266.5252685547,15166063.30871582,-7786324.977874756,-8130810.737609863,2738692.283630371,6755588.531494141,5161145.6871032715,-1045413.8517379761,-9146755.21850586,7145547.389984131,7924717.903137207,4161951.0650634766,-8612507.820129395,-26534542.083740234,-4541036.128997803,-2793806.0760498047,-135352.86486148834,7643679.141998291,7416653.633117676,7359689.235687256,7453034.8777771,-1955245.9716796875,16429836.27319336,-3351033.6875915527,-2656777.1434783936,13950977.325439453,23121219.635009766,7195755.0048828125,7373132.705688477,6944502.353668213,16417982.10144043,24607780.45654297,9173886.2991333,9066085.815429688,17422256.469726562,6991972.44644165,16891153.33557129,-12030177.116394043,20496479.034423828
0.36,-62311752.31933594,-79218612.67089844,-78087448.12011719,-31136943.817138672,-34288501.73950195,1448513.2694244385,-7811251.163482666,-7583324.432373047,-6994762.897491455,-14214447.021484375,-18025913.23852539,-22862791.061401367,-18916641.235351562,-26074632.64465332,7189470.7679748535,-6734463.691711426,-7559558.868408203,-7298838.138580322,-5835655.212402344,-20906827.926635742,6549860.000610352,-5938165.187835693,-1835924.1485595703,1115201.8308639526,11021497.72644043,-6873243.33190918,-7153561.115264893,1322070.3601837158,6145955.0857543945,8319548.606872559,-864976.4060974121,-6191082.954406738,4487516.8800354,5358924.388885498,253941.65515899658,-11508922.576904297,-29539806.365966797,-5937608.71887207,-2192523.0026245117,962723.6723899841,10061099.0524292,4678405.284881592,4603710.651397705,4693645.95413208,-7353083.13369751,15522890.090942383,-3896028.2802581787,-562626.3618469238,16319484.71069336,24801387.786865234,4595393.180847168,4642073.631286621,4465873.718261719,15488876.342773438,23131099.700927734,10901458.740234375,10683465.957641602,16473051.071166992,4339850.425720215,15947569.847106934,-10476460.456848145,22384483.337402344
0.365,-69890846.2524414,-90244888.30566406,-81977668.76220703,-35758117.67578125,-40181358.337402344,-587090.1346206665,-9165089.60723877,-8889159.202575684,-8407930.374145508,-16223667.14477539,-19974660.873413086,-28924573.89831543,-23708400.72631836,-30989822.387695312,5552416.3246154785,-8144840.240478516,-8749126.434326172,-8290470.123291016,-6241403.579711914,-22037893.295288086,4967202.663421631,-8443208.694458008,-4060758.590698242,549191.2364959717,11027196.884155273,-8152625.08392334,-8509858.131408691,509734.8690032959,4764178.276062012,5619417.667388916,-4740576.74407959,-8473046.30279541,4532836.9140625,5399580.478668213,-2013179.063796997,-11799858.093261719,-31977983.474731445,-10162306.785583496,-3739534.1396331787,-736870.5868721008,9730371.475219727,4831794.261932373,4735768.3181762695,4696717.739105225,-10030209.5413208,16668922.424316406,-4645227.432250977,123113.60985040665,17100578.30810547,24662490.844726562,4768682.00302124,4900023.460388184,4724361.896514893,16667112.350463867,20749746.322631836,11378187.17956543,11071889.877319336,17767545.700073242,4576905.250549316,17335861.206054688,-7699060.916900635,23077041.625976562
0.37,-83951385.49804688,-109175582.88574219,-95860000.61035156,-45147701.263427734,-53561298.37036133,-4234817.028045654,-11777189.254760742,-11555506.706237793,-11127302.169799805,-21808570.861816406,-26311847.686767578,-40410743.713378906,-33862064.361572266,-41180809.020996094,3515001.2969970703,-10797408.103942871,-11257406.234741211,-10731552.124023438,-8803013.801574707,-25828138.35144043,-788188.7555122375,-16727380.752563477,-8835105.895996094,1122477.0545959473,16327613.830566406,-10684317.588806152,-11099626.541137695,-76589.35338258743,3804808.8550567627,-621551.7520904541,-10426322.937011719,-14742754.936218262,6164812.5648498535,6994909.286499023,-1065924.048423767,-10359476.089477539,-32484951.01928711,-14132055.282592773,-7032984.733581543,-4352608.203887939,6246197.22366333,6606838.226318359,6444805.62210083,6436121.463775635,-7069557.666778564,18721336.364746094,-4551150.321960449,-1457763.5526657104,15218314.170837402,22245718.002319336,6471061.229705811,6827087.40234375,6530376.91116333,18777038.57421875,19283811.569213867,10687296.867370605,10409507.751464844,19961387.634277344,6426963.806152344,19609075.54626465,-5250104.904174805,22290218.353271484
0.375,-87801292.4194336,-114057319.64111328,-99978599.54833984,-47741794.58618164,-59484928.131103516,-5478499.889373779,-12006576.538085938,-11798145.294189453,-11420590.4006958,-23539257.049560547,-29593940.73486328,-45164485.931396484,-38117816.92504883,-45088088.98925781,2511516.571044922,-11051609.03930664,-11550742.149353027,-11174503.326416016,-9796182.632446289,-27648359.298706055,-4276639.938354492,-21638593.673706055,-11806189.53704834,953174.5910644531,22105308.532714844,-11013454.43725586,-11386975.288391113,70999.52548742294,5101657.390594482,-3349591.9704437256,-13194878.578186035,-18583763.122558594,6310035.705566406,7097027.778625488,828179.121017456,-9431345.93963623,-31254531.860351562,-13741347.312927246,-8974428.176879883,-6055414.67666626,3433664.083480835,6684944.152832031,6525064.945220947,6704998.016357422,-2734088.659286499,19023496.627807617,-3700292.3488616943,-3680885.076522827,12213784.217834473,19346912.384033203,6536608.695983887,6973394.870758057,6748742.580413818,19133123.39782715,19839469.90966797,9083271.980285645,8930662.155151367,20261528.01513672,6586782.932281494,19918863.29650879,-5134490.489959717,19971326.82800293
0.38,-82495018.0053711,-106959487.91503906,-94429756.16455078,-43180160.52246094,-55670898.4375,-4721819.4007873535,-9334307.670593262,-9045063.018798828,-8734282.493591309,-19377069.4732666,-26249114.990234375,-41512290.954589844,-35023639.67895508,-42013839.72167969,1996538.9966964722,-8341620.445251465,-8991871.83380127,-8767810.821533203,-6946421.6232299805,-24756488.800048828,-2459103.584289551,-19204154.96826172,-11990830.421447754,-1103519.6781158447,23666158.67614746,-8537435.531616211,-8821624.755859375,1533742.1894073486,8079769.134521484,-932314.2170906067,-12041049.003601074,-17857566.833496094,4041441.4405822754,4780438.8999938965,1117269.8736190796,-9286600.112915039,-29316049.575805664,-9403665.542602539,-7867497.92098999,-4952915.668487549,3114007.9498291016,4171244.1444396973,4170857.9063415527,4386693.000793457,-1988140.344619751,16735643.38684082,-3382220.983505249,-5073841.094970703,10022537.231445312,17096521.377563477,4110486.0305786133,4345633.506774902,4434215.068817139,16845714.569091797,21443952.560424805,6476922.035217285,6426559.925079346,17904308.319091797,4161943.4356689453,17545316.696166992,-8077714.920043945,15774220.46661377
0.385,-81985359.19189453,-106488639.83154297,-94399803.1616211,-41335983.27636719,-53256977.08129883,-5713737.964630127,-7341345.310211182,-7042270.183563232,-6632764.3394470215,-15863968.849182129,-22161748.8861084,-39274192.810058594,-33515068.05419922,-41514320.373535156,592681.4675331116,-6240382.671356201,-7004966.259002686,-6748862.266540527,-3679500.8182525635,-20905824.661254883,-52051.51066184044,-15761596.6796875,-13032451.629638672,-3617691.0400390625,22465278.62548828,-6568495.750427246,-6784445.762634277,3215905.4279327393,9569169.044494629,1126127.004623413,-11057826.99584961,-17450153.350830078,2314818.1438446045,3006128.3111572266,832776.5464782715,-8190288.543701172,-27598651.885986328,-7157911.777496338,-5978966.71295166,-4549833.77456665,2583998.680114746,2313199.758529663,2477809.6675872803,2448223.352432251,-3750595.808029175,14057386.39831543,-4125451.08795166,-5964664.459228516,8801852.226257324,15185182.571411133,2328477.382659912,2250072.0024108887,2601565.5994415283,14091846.466064453,22209564.208984375,3515264.7495269775,3449032.0682525635,15204727.172851562,2316553.5926818848,14843259.811401367,-12210845.947265625,10597819.328308105
0.39,-87758735.65673828,-114441314.69726562,-101019241.33300781,-45175704.95605469,-56795845.03173828,-8510797.500610352,-8181306.838989258,-8060092.926025391,-7319891.929626465,-17599077.224731445,-23658592.224121094,-42766929.626464844,-36976184.8449707,-46047931.67114258,-836685.1210594177,-6999413.967132568,-7777617.931365967,-7396888.732910156,-4145170.6886291504,-20778659.82055664,-1306546.688079834,-16851221.084594727,-16271873.474121094,-3868656.3968658447,23262935.638427734,-7227864.742279053,-7409283.16116333,3388437.509536743,8100495.338439941,115684.25595760345,-12620830.535888672,-20290470.123291016,3694021.463394165,4332574.367523193,2386354.2079925537,-5755773.544311523,-26661579.132080078,-12084280.967712402,-5853146.553039551,-6619924.545288086,175136.35754585266,3823709.24949646,3932918.3101654053,3644479.274749756,-3856284.1415405273,12917238.235473633,-4582809.925079346,-6689136.505126953,8030513.763427734,13930598.258972168,3816899.061203003,3588276.6246795654,3905563.5929107666,12855511.665344238,21308895.111083984,1731575.3698349,1558443.1886672974,14056545.25756836,3689096.689224243,13673682.21282959,-15255537.986755371,6415729.522705078
0.395,-85674751.28173828,-112340431.2133789,-97666740.41748047,-46022647.857666016,-57244201.66015625,-8543187.141418457,-9380060.195922852,-9480413.436889648,-8457990.646362305,-20152606.964111328,-28311494.827270508,-44234771.728515625,-37835781.09741211,-46371665.954589844,157126.0243654251,-8226673.126220703,-8980153.08380127,-8566363.334655762,-6931090.354919434,-23016490.936279297,-3058429.002761841,-18437829.971313477,-17618812.561035156,-1009291.6488647461,27233844.757080078,-8332626.3427734375,-8512018.203735352,2334544.1818237305,6359253.883361816,685820.2219009399,-13271702.766418457,-21807191.848754883,6506632.8048706055,7098192.21496582,5348166.465759277,-3896388.292312622,-26603971.481323242,-21437938.690185547,-6277632.713317871,-7671001.434326172,-959426.5818595886,6849634.170532227,6702457.427978516,6433931.350708008,-1574444.29397583,12761446.952819824,-3141451.358795166,-6060615.539550781,8235127.4490356445,14592702.865600586,6741240.501403809,6633562.5648498535,6714983.4632873535,12674654.960632324,19883602.142333984,1927605.9865951538,1667264.2230987549,13823395.729064941,6522508.62121582,13363334.655761719,-16852443.69506836,4356050.01449585
0.4,-70873268.1274414,-94022644.04296875,-79508697.50976562,-38842247.009277344,-49078330.993652344,-3915650.1293182373,-8008695.602416992,-8172348.0224609375,-7175364.017486572,-17805849.075317383,-29780178.07006836,-38422321.31958008,-31786121.368408203,-38051521.30126953,3742310.7624053955,-6917847.633361816,-7705841.541290283,-7330465.793609619,-7603670.120239258,-22997014.99938965,-806375.5035400391,-14942889.213562012,-14418075.561523438,3024877.5482177734,31107614.517211914,-7133235.931396484,-7353820.80078125,2087549.6864318848,7512117.862701416,5810426.235198975,-9773914.337158203,-17796066.284179688,7619352.8175354,8231295.585632324,7322507.381439209,-3774727.3445129395,-27010694.50378418,-27068288.803100586,-4859332.56149292,-4664351.463317871,2022340.2976989746,8045568.466186523,7671557.426452637,7651183.128356934,606501.9965171814,12801243.782043457,-431251.25765800476,-3481108.4270477295,9725643.157958984,16668598.175048828,7804639.3394470215,7972098.827362061,7869968.891143799,12795993.80493164,19795036.31591797,3058260.679244995,2798927.068710327,13775270.462036133,7653408.527374268,13229414.939880371,-17504526.138305664,4189161.777496338
0.405,-59056587.21923828,-79779655.45654297,-66246490.478515625,-31662179.946899414,-41526195.52612305,722266.0779953003,-5291620.73135376,-5368208.408355713,-4552615.165710449,-12782967.567443848,-27550775.5279541,-32819984.436035156,-26627485.275268555,-30888162.61291504,6787951.469421387,-4167584.8960876465,-5056875.705718994,-4628876.686096191,-5418748.85559082,-20145915.985107422,3042381.0482025146,-9573740.95916748,-10638422.966003418,5610460.28137207,32209987.64038086,-4635700.702667236,-4910704.135894775,3370663.642883301,10837034.225463867,9926799.774169922,-5353837.490081787,-12400123.596191406,7053580.284118652,7779888.62991333,7759392.261505127,-4191776.2756347656,-27357715.606689453,-24939754.486083984,-2710542.2019958496,-590231.9550514221,6248865.127563477,7466158.866882324,7035661.220550537,7229980.46875,1605790.615081787,13709902.7633667,860027.0748138428,-1194744.8253631592,10849429.1305542,17390298.84338379,7123635.768890381,7510827.541351318,7333679.676055908,13834002.494812012,21257852.55432129,3455879.4498443604,3250112.771987915,14711583.137512207,7149532.794952393,14166891.098022461,-16980485.916137695,5247312.068939209
0.41,-64430870.056152344,-87512901.30615234,-74453231.81152344,-33506309.509277344,-44428829.193115234,340719.69985961914,-4433237.075805664,-4410769.939422607,-3642447.9484558105,-11076383.590698242,-25923126.220703125,-35696575.16479492,-29759298.32458496,-34087146.7590332,6642888.069152832,-3218972.4445343018,-4160246.3722229004,-3586887.836456299,-3471406.4598083496,-17895635.6048584,3215572.1187591553,-8886150.360107422,-10569430.351257324,5621393.68057251,31187442.779541016,-3765635.9672546387,-4037002.0866394043,4547770.5001831055,13275094.032287598,7122306.823730469,-4831369.400024414,-11934365.272521973,7034544.467926025,7852259.159088135,7851610.18371582,-4127943.992614746,-27501882.553100586,-19476257.32421875,-2771266.6988372803,139285.92205047607,7331925.868988037,7437839.508056641,7085076.332092285,7331156.7306518555,2361799.478530884,15488760.948181152,-772358.0002784729,-1876752.6149749756,10045598.030090332,15786787.033081055,7137779.712677002,7547204.971313477,7266217.7085876465,15694581.031799316,22542997.360229492,3072415.351867676,2916638.135910034,16617620.468139648,7176306.247711182,16187692.642211914,-15317423.820495605,6787538.528442383
0.415,-79021202.08740234,-106431213.37890625,-92739128.11279297,-40807064.056396484,-52449741.36352539,-3446693.181991577,-5687310.695648193,-5604445.934295654,-4784096.717834473,-12946225.1663208,-26008550.6439209,-42192810.05859375,-35333641.052246094,-41142879.486083984,4491947.174072266,-4492735.385894775,-5320701.122283936,-4712952.613830566,-3438057.8994750977,-17778150.55847168,581800.2223968506,-11295745.849609375,-11261126.518249512,3871325.0160217285,29870187.759399414,-4853934.764862061,-5054014.682769775,4100501.06048584,13840579.03289795,1221879.243850708,-6501863.956451416,-14526045.799255371,7928998.4703063965,8662826.538085938,7547911.643981934,-4531520.843505859,-27498273.849487305,-17335792.541503906,-4511418.342590332,-923764.8844718933,6453928.9474487305,8243994.71282959,8043684.005737305,8258757.591247559,2993754.1484832764,16313224.792480469,-3517531.8717956543,-4473432.0640563965,8858365.058898926,15031697.273254395,8183647.155761719,8440236.09161377,8017886.161804199,16510513.305664062,22662000.65612793,3666887.2833251953,3579096.0788726807,17528388.97705078,7957825.660705566,17235237.12158203,-13718469.619750977,8192276.0009765625
0.42,-84700439.453125,-112961257.93457031,-98060089.11132812,-43600028.99169922,-53460151.67236328,-5008111.476898193,-6604560.375213623,-6482806.205749512,-5732712.745666504,-13846228.59954834,-25182464.599609375,-41883529.66308594,-33117813.110351562,-39461124.420166016,3572979.45022583,-5557037.353515625,-6165262.222290039,-5742198.944091797,-4180374.1455078125,-18172086.715698242,305061.2509250641,-9695102.69165039,-7122666.358947754,2232987.642288208,29132799.14855957,-5716971.874237061,-5876453.399658203,2615586.042404175,13839405.059814453,645238.5187149048,-4905673.027038574,-13232254.028320312,8181634.902954102,8707810.401916504,5930455.207824707,-5966132.640838623,-27164964.67590332,-19555156.707763672,-4458451.271057129,1053593.7547683716,8154113.76953125,8237607.955932617,8211544.990539551,8430524.826049805,2782564.640045166,15378126.14440918,-4358599.662780762,-5138395.7862854,10115466.117858887,17963237.762451172,8446621.894836426,8531652.450561523,8142927.169799805,15524001.121520996,22978950.50048828,6228066.444396973,6264415.740966797,16578390.121459961,7975672.721862793,16324214.935302734,-12960766.792297363,9510541.915893555
0.425,-77142684.93652344,-101498161.31591797,-85837150.57373047,-39933624.267578125,-46270072.93701172,-2689772.367477417,-6293005.466461182,-6181456.565856934,-5583610.057830811,-12437802.3147583,-23205623.626708984,-34748641.96777344,-24361902.236938477,-28981002.807617188,4840411.186218262,-5319038.391113281,-5817591.667175293,-5616472.7210998535,-4944241.046905518,-18203521.728515625,2864345.3121185303,-3420799.0169525146,498590.73758125305,2022955.8944702148,29028295.516967773,-5470849.514007568,-5699197.292327881,1552005.8870315552,13761620.52154541,6226980.209350586,-77589.31815624237,-7485144.138336182,7437421.798706055,7864835.262298584,4043541.431427002,-6750574.588775635,-26380790.71044922,-22053274.154663086,-1878440.7377243042,5694679.737091064,12491377.830505371,7253795.623779297,7288793.563842773,7586016.1781311035,2318746.328353882,14476428.985595703,-2718197.822570801,-2454389.810562134,13419016.83807373,22220211.029052734,7497889.518737793,7523843.765258789,7451510.429382324,14618559.837341309,24691032.40966797,8981717.109680176,9122755.05065918,15631232.261657715,7128528.118133545,15296077.728271484,-12371350.288391113,10982560.157775879
0.43,-66814804.07714844,-85644447.32666016,-70064987.18261719,-36048290.25268555,-39756950.37841797,-410609.8413467407,-6410186.767578125,-6352205.753326416,-5759841.442108154,-11442183.494567871,-22667808.532714844,-29597826.00402832,-18817701.33972168,-20539152.145385742,6027493.000030518,-5312928.676605225,-5941175.46081543,-5728309.154510498,-6132754.802703857,-18439531.326293945,4005193.2334899902,1201234.221458435,4939470.291137695,2615169.048309326,28909219.74182129,-5554334.64050293,-5883340.358734131,1285452.2466659546,13013526.916503906,11502078.05633545,2646543.502807617,-3620627.1648406982,6731168.270111084,7278630.73348999,3871751.308441162,-5734396.457672119,-25601621.627807617,-21920158.38623047,291275.0840187073,7868163.585662842,15062527.656555176,6618345.260620117,6501660.346984863,6918375.9689331055,2684000.4920959473,14738380.432128906,-609558.10546875,966559.8273277283,15525102.615356445,23554319.381713867,6636016.368865967,6699267.387390137,6975366.115570068,14966209.411621094,26300130.84411621,9380140.30456543,9465653.419494629,15881318.092346191,6598753.452301025,15429611.206054688,-11575839.99633789,11713546.752929688
0.435,-64106300.354003906,-79566497.80273438,-64146278.381347656,-36524944.30541992,-39597126.00708008,-2001170.3968048096,-8215477.94342041,-8133550.643920898,-7414628.028869629,-12137667.655944824,-23746145.248413086,-30617733.001708984,-20134883.880615234,-19922172.54638672,4764133.930206299,-6958136.558532715,-7825470.447540283,-7338712.215423584,-7211903.5720825195,-18162630.081176758,2702252.3880004883,1425996.4227676392,4168322.0863342285,2058129.7874450684,27180183.41064453,-7193422.317504883,-7510566.711425781,1227524.757385254,12344653.129577637,12868120.193481445,1649525.8808135986,-4472628.116607666,6211997.032165527,6945847.511291504,4455812.454223633,-4918840.408325195,-25311647.415161133,-19838567.73376465,711982.7270507812,6489801.88369751,14593922.61505127,6431682.586669922,6100692.272186279,6598176.4793396,3148110.866546631,14844341.278076172,754105.5679321289,2923293.352127075,15440169.334411621,22778665.54260254,6218246.4599609375,6338905.334472656,6634483.337402344,15203070.640563965,26296173.095703125,8108516.693115234,7983542.919158936,16018606.185913086,6359230.041503906,15487813.949584961,-10941686.630249023,10888802.528381348
0.44,-72997108.45947266,-89753303.52783203,-73770683.28857422,-41443504.333496094,-45146312.71362305,-7141376.01852417,-11096109.390258789,-10869567.87109375,-10122203.826904297,-13640659.33227539,-24198211.669921875,-34930923.46191406,-24000219.345092773,-23775878.90625,1237749.9341964722,-9862357.139587402,-10844473.838806152,-10062407.493591309,-7374823.093414307,-16282922.744750977,2187177.1812438965,799680.6502342224,2495267.391204834,-420821.78592681885,22971622.467041016,-10002107.620239258,-10192284.58404541,982481.3604354858,13348685.264587402,12243617.057800293,1042447.6861953735,-6081452.369689941,5365018.844604492,6164925.098419189,2712746.1433410645,-6479537.487030029,-25024160.385131836,-17164474.487304688,1609854.1021347046,6354051.58996582,14601544.380187988,5827038.288116455,5480607.986450195,5947997.093200684,2508813.1427764893,14492458.34350586,2499831.438064575,4747033.596038818,15689693.450927734,24579599.380493164,5570380.687713623,5774956.226348877,5744790.077209473,14954491.61529541,26841154.098510742,8876163.482666016,8590945.24383545,15771243.09539795,5617072.105407715,15189257.621765137,-9416392.32635498,10413358.688354492
0.445,-90614356.9946289,-113131248.4741211,-96518310.546875,-49061138.15307617,-54155323.02856445,-12428927.421569824,-13699313.163757324,-13423140.525817871,-12753252.029418945,-16085039.138793945,-24228359.22241211,-40051532.74536133,-27450635.91003418,-28043954.849243164,-2153969.2878723145,-12643182.754516602,-13559678.077697754,-12695540.428161621,-7867606.639862061,-14596560.47821045,3159916.1624908447,1339077.5918960571,2722256.4220428467,-3040679.693222046,18646820.068359375,-12740060.806274414,-12853667.259216309,624697.2680091858,15310103.416442871,11129627.227783203,2822484.7316741943,-5500502.109527588,5122592.449188232,5862621.307373047,-999271.3928222656,-8634010.314941406,-23724782.943725586,-14259349.822998047,4206180.572509766,9705430.98449707,16544521.33178711,5561986.923217773,5394175.052642822,5741999.626159668,2161711.2159729004,16181089.401245117,5474027.633666992,8232525.825500488,17551097.869873047,29250354.766845703,5364044.666290283,5702221.870422363,5369773.864746094,16677570.343017578,30848356.246948242,12941748.61907959,12715753.555297852,17637741.088867188,5247306.346893311,17015617.37060547,-5236281.871795654,13142354.011535645
0.45,-103449020.38574219,-131097656.25,-115214408.87451172,-54329849.24316406,-61065940.856933594,-14076292.037963867,-14558480.262756348,-14556653.022766113,-13827450.7522583,-19002449.03564453,-25694042.205810547,-44121543.884277344,-29920202.255249023,-30259782.791137695,-3006227.731704712,-13632299.423217773,-14441519.737243652,-13718470.573425293,-10129822.731018066,-15738174.438476562,2905662.0597839355,1216132.8792572021,3240385.2939605713,-3511169.43359375,18318225.860595703,-13768561.363220215,-13973479.270935059,409284.8598957062,15532908.43963623,9438957.214355469,3714571.714401245,-4570675.849914551,6896875.381469727,7516780.376434326,-2035612.8215789795,-7793950.55770874,-21524438.858032227,-12097029.685974121,6199339.389801025,12201701.164245605,17235216.14074707,7222388.26751709,7148011.207580566,7398396.4920043945,4585036.754608154,20638065.338134766,7883159.160614014,11961961.74621582,18667757.034301758,31264259.338378906,7037876.129150391,7438796.043395996,7154217.720031738,21083082.19909668,36142143.24951172,16430149.07836914,16413461.685180664,22193536.75842285,6820504.665374756,21593921.661376953,-149765.34247398376,17765874.8626709
0.455,-93809616.08886719,-118962280.2734375,-105075256.34765625,-49248004.91333008,-55930892.94433594,-10148951.530456543,-12211567.878723145,-12657095.909118652,-11687784.194946289,-18099895.477294922,-26427724.838256836,-41463199.615478516,-27245733.2611084,-25867649.07836914,-826936.2449645996,-11303007.125854492,-12058512.687683105,-11542344.093322754,-11944111.824035645,-17894968.032836914,2011523.2467651367,1191028.356552124,3581582.0693969727,-1950457.4537277222,22621507.64465332,-11454555.51147461,-11836794.85321045,767165.0052070618,13613667.488098145,9770957.946777344,1975671.0529327393,-4068910.1219177246,9507287.979125977,9924151.420593262,1779121.0412979126,-4198805.809020996,-19890771.865844727,-12219305.038452148,5941472.053527832,10310948.371887207,15328639.030456543,9788106.918334961,9604658.126831055,9844981.19354248,8831177.711486816,23882551.193237305,7499154.090881348,13401419.639587402,17458095.55053711,28151819.229125977,9606745.719909668,9845483.779907227,9898715.97290039,24196315.76538086,37430561.06567383,15793617.248535156,15944484.71069336,25291072.845458984,9299331.665039062,24809661.865234375,1135905.385017395,19435707.092285156
0.46,-63015407.56225586,-78060035.7055664,-65527626.037597656,-33275169.372558594,-36704586.029052734,-2835121.1547851562,-7106112.480163574,-7743203.639984131,-6630496.978759766,-10222445.487976074,-21790124.893188477,-28877996.44470215,-15851785.659790039,-13294740.676879883,2495626.449584961,-6218036.651611328,-6912443.161010742,-6535573.0056762695,-9590022.087097168,-16423419.952392578,4816865.921020508,5026197.910308838,6173781.871795654,-534749.9251365662,27009716.033935547,-6303093.910217285,-6783414.840698242,1956222.414970398,12463875.770568848,15187154.769897461,1172313.0941390991,-1189439.7735595703,10086401.93939209,10220335.006713867,6073502.063751221,-1890246.033668518,-19793884.27734375,-13915528.297424316,5516220.0927734375,7307912.349700928,14827694.8928833,10296549.797058105,10033212.661743164,10294631.958007812,10862218.856811523,22791645.050048828,5302741.050720215,13100359.916687012,16428123.474121094,25312839.50805664,10197859.764099121,10159548.75946045,10512239.456176758,22979417.80090332,34532642.36450195,13674607.276916504,13872309.684753418,23937925.338745117,9850199.699401855,23561740.87524414,-1977146.6255187988,17114772.79663086
0.465,-38706153.869628906,-45503063.2019043,-32509540.557861328,-19544734.954833984,-18682468.41430664,2059717.1783447266,-2931855.6785583496,-3338482.141494751,-2343494.653701782,-915988.9221191406,-13326379.776000977,-15455502.5100708,-2839366.674423218,-1751108.2887649536,4259198.188781738,-2116119.861602783,-2686785.2210998535,-2368139.9822235107,-4265556.335449219,-11558620.45288086,10917378.425598145,11139821.05255127,10452642.440795898,-466542.18435287476,27010253.90625,-2125686.8839263916,-2569067.0013427734,3280595.064163208,13724534.98840332,22021745.681762695,3621935.8444213867,3880833.625793457,8416396.141052246,8358246.803283691,5701906.204223633,-2856961.0118865967,-20497726.440429688,-14297887.802124023,6758718.013763428,7437351.703643799,18291790.008544922,8426431.655883789,8315193.176269531,8560312.271118164,9076913.833618164,20439075.469970703,4546095.848083496,13725146.293640137,17914180.755615234,27763202.667236328,8419766.426086426,8330348.014831543,8702813.148498535,20650518.4173584,33238765.716552734,15071743.965148926,15248190.879821777,21569074.630737305,8239742.279052734,21127750.396728516,-3960235.834121704,15702390.670776367
0.47,-43359935.76049805,-51561820.98388672,-37532505.03540039,-20862014.770507812,-18800157.54699707,712099.9693870544,-3318212.2707366943,-3385962.963104248,-2568214.6549224854,288850.21805763245,-9314913.749694824,-14705262.184143066,-700750.1721382141,-2766027.6889801025,3505641.9372558594,-2522461.414337158,-2992321.729660034,-2701931.953430176,-1851750.9698867798,-9359980.583190918,13172584.533691406,11930649.757385254,11301695.823669434,-970700.0851631165,23459768.295288086,-2537904.0241241455,-2874794.2447662354,3404258.2511901855,15007570.266723633,22435512.54272461,5440181.732177734,5254817.962646484,7036070.823669434,7048197.269439697,1744724.3928909302,-4686741.828918457,-20995977.4017334,-12752818.10760498,7252929.6875,8435394.287109375,21134635.92529297,6855304.24118042,6964220.5238342285,7192927.837371826,6243765.354156494,20741508.48388672,5965041.637420654,15356904.983520508,19140899.658203125,31365068.435668945,6820405.48324585,7029767.5132751465,7160352.70690918,21147760.39123535,35786769.86694336,18499500.274658203,18624402.99987793,22183479.30908203,6949846.7445373535,21536525.72631836,-2055709.1236114502,17607891.082763672
0.475,-62785762.786865234,-77480468.75,-63709110.260009766,-31558698.654174805,-31894765.853881836,-3786314.4874572754,-6979561.805725098,-6967288.017272949,-6157913.2080078125,-6674582.481384277,-13342677.116394043,-25299074.172973633,-9577370.643615723,-13084211.349487305,1839709.5203399658,-6098970.413208008,-6596229.553222656,-6328323.841094971,-4665481.5673828125,-12835980.415344238,8191552.16217041,5385164.737701416,6751067.638397217,-1401432.5141906738,20504350.662231445,-6200489.9978637695,-6425009.727478027,2035283.3271026611,13847630.500793457,16168279.647827148,2684740.3049468994,-198764.8755311966,6413583.278656006,6685497.760772705,-911560.7738494873,-5004659.175872803,-21740480.422973633,-12544374.465942383,3997531.8908691406,5474494.934082031,17784364.700317383,6241345.8824157715,6359630.584716797,6641486.167907715,4868506.908416748,20591287.61291504,6281157.01675415,14906798.362731934,15774752.616882324,28181152.34375,6098994.731903076,6647545.81451416,6460580.348968506,21144035.33935547,36188129.42504883,16594856.262207031,16634233.474731445,22260526.657104492,6342541.694641113,21505813.598632812,-2379658.4606170654,17108123.779296875
0.48,-65968711.853027344,-82021873.4741211,-69760147.09472656,-34799064.63623047,-37173305.51147461,-5324883.937835693,-9062417.030334473,-9197110.176086426,-8295475.959777832,-11351204.872131348,-18382431.030273438,-31460752.487182617,-15787597.65625,-17754159.927368164,1138699.8891830444,-8106439.590454102,-8710577.011108398,-8440820.693969727,-7922517.776489258,-17147478.103637695,2518589.735031128,-265956.4018249512,2029318.3326721191,-2420222.759246826,19803594.5892334,-8294804.573059082,-8421298.98071289,525424.6592521667,11845890.045166016,12061830.520629883,-1809092.7600860596,-6847616.672515869,4021808.624267578,4515936.851501465,-944873.034954071,-4809401.512145996,-23634840.01159668,-15760996.81854248,-1041400.4325866699,-39589.911699295044,10673555.374145508,4018132.6866149902,3957445.1446533203,4334569.454193115,3953134.775161743,14520432.472229004,3021037.3401641846,10968909.26361084,9329648.971557617,18648609.161376953,3834352.2548675537,4415818.214416504,4027687.0727539062,14926669.120788574,29571331.024169922,7390804.767608643,7356981.27746582,15955085.754394531,3849494.457244873,15345578.19366455,-10604770.66040039,9074895.858764648
0.485,-51407043.45703125,-62883491.51611328,-51747604.37011719,-27506549.835205078,-28933956.146240234,-3424010.5152130127,-7904288.291931152,-8118488.311767578,-7192559.719085693,-7890143.394470215,-16972211.837768555,-25922416.68701172,-11849838.256835938,-12351101.875305176,1097225.546836853,-6980452.537536621,-7627160.549163818,-7321793.079376221,-7114077.091217041,-16886592.864990234,3152918.1003570557,1427951.693534851,2183790.922164917,-4195442.676544189,19364801.40686035,-7178434.8487854,-7255198.001861572,99669.89606618881,11983580.589294434,14821990.966796875,-2773324.966430664,-7702618.12210083,-231799.22997951508,345516.2048339844,-1300511.4793777466,-5675869.941711426,-25846471.786499023,-19195095.06225586,-2948833.465576172,-1613435.3876113892,7645012.378692627,-93913.92767429352,-277436.64383888245,152534.03782844543,2053945.779800415,5930568.695068359,-1020468.9502716064,6637216.091156006,6491803.169250488,12043064.11743164,-245665.49062728882,133454.87415790558,-258769.4525718689,5966713.905334473,21356939.3157959,-535560.0714683533,-556723.7138748169,6893222.808837891,-499932.05070495605,6537219.047546387,-20341823.57788086,-358380.7945251465
0.49,-48709392.54760742,-58581531.5246582,-47189125.061035156,-24753412.2467041,-24410009.384155273,-3875289.6785736084,-7248095.0355529785,-7376945.972442627,-6459543.704986572,-3506134.7484588623,-12190979.957580566,-20408035.278320312,-6998673.439025879,-9321736.335754395,47694.70915198326,-6380318.641662598,-6966767.311096191,-6623997.211456299,-4807377.338409424,-13812132.835388184,7071847.438812256,5498900.413513184,5218927.383422852,-5159049.510955811,17616262.435913086,-6506199.836730957,-6622422.695159912,280254.3342113495,13570313.453674316,17937736.51123047,-536147.4752426147,-3739651.4415740967,-1831733.4651947021,-1276367.5451278687,-3343344.211578369,-6601920.604705811,-26270568.84765625,-18457065.58227539,-475720.70360183716,3029188.632965088,11506903.648376465,-1671173.2149124146,-1846777.7967453003,-1421319.4847106934,544339.2395973206,5110207.080841064,-681971.6095924377,5796186.923980713,10314463.61541748,14329664.23034668,-1830894.112586975,-1560353.7559509277,-1837867.8560256958,4915354.251861572,20590997.69592285,1417423.7251281738,1464866.3997650146,5915271.759033203,-2051233.5300445557,5657286.643981934,-19704347.610473633,-88608.08610916138
0.495,-72107627.86865234,-87217529.296875,-74693367.00439453,-36296993.255615234,-36164749.14550781,-10075747.4899292,-10417639.73236084,-10498608.589172363,-9490857.124328613,-6992439.746856689,-12448893.547058105,-26982658.38623047,-11720542.907714844,-17687431.33544922,-2568434.715270996,-9502975.463867188,-10026759.147644043,-9684612.274169922,-6138411.045074463,-13165007.591247559,6415772.438049316,4071604.7286987305,6459356.307983398,-4355260.372161865,15535271.644592285,-9553822.51739502,-9763674.73602295,-113910.973072052,13178299.903869629,14401911.735534668,293274.6410369873,-1051194.9062347412,1701310.7538223267,2116764.545440674,-4894821.643829346,-6161958.21762085,-24430768.966674805,-14546840.66772461,2790410.041809082,8809699.058532715,16911069.869995117,1782227.0393371582,1602399.3492126465,2008281.946182251,1115374.8035430908,14061872.482299805,4532834.529876709,8049325.942993164,15742930.41229248,20804414.749145508,1581264.4958496094,1927030.086517334,1706749.9160766602,14003492.35534668,26609746.9329834,9731911.659240723,9774686.813354492,15135503.768920898,1602957.844734192,14765091.896057129,-8882716.178894043,9533621.788024902
0.5,-98071647.64404297,-117684074.40185547,-104175735.47363281,-51664649.963378906,-52426605.224609375,-18235052.10876465,-15351944.923400879,-15584420.204162598,-14424120.903015137,-15360391.616821289,-18712959.28955078,-39634384.15527344,-21618686.67602539,-28938108.444213867,-6139288.425445557,-14335076.332092285,-14868149.757385254,-14563774.108886719,-10475679.397583008,-15454164.505004883,633951.4851570129,-1275866.2700653076,5511963.844299316,-4060785.7704162598,14021768.569946289,-14390093.803405762,-14635220.527648926,-1095979.6905517578,9990599.632263184,7802261.3525390625,-1814448.9526748657,-2203890.085220337,5179664.611816406,5324218.75,-4797941.207885742,-5635917.663574219,-22421810.150146484,-12572817.8024292,3606083.1546783447,10136752.128601074,17597330.09338379,5092446.327209473,4854848.384857178,5221803.665161133,2176909.4467163086,21311363.220214844,9085094.451904297,9332973.48022461,15788683.891296387,22759874.34387207,4964888.095855713,5350526.809692383,5024161.815643311,21570617.67578125,29676151.275634766,12821595.191955566,12731915.473937988,22617706.298828125,5065086.841583252,22107690.811157227,-1937837.4814987183,14951905.250549316
