time,Fp1,Fpz,Fp2,AF3,AF4,F7,F5,F3,F1,Fz,F2,F4,F6,F8,FT7,FC5,FC3,FC1,FCz,FC2,FC4,FC6,FT8,T7,C5,C3,C1,Cz,C2,C4,C6,T8,TP7,CP5,CP3,CP1,CPz,CP2,CP4,CP6,TP8,P7,P5,P3,P1,Pz,P2,P4,P6,P8,PO7,PO5,PO3,POz,PO4,PO6,PO8,CB1,O1,Oz,O2,CB2
0.0,7837880.611419678,12003501.892089844,14746754.64630127,743191.7786598206,2754132.9860687256,-672427.4158477783,64435.72789430618,60584.70904827118,57656.53774142265,872861.2065315247,886938.6315345764,641579.806804657,954709.5894813538,2420107.60307312,-259694.30804252625,55890.35898447037,46413.75318169594,77463.99939060211,84092.19980239868,639824.2115974426,831717.2527313232,1783987.045288086,1483287.2152328491,-1152967.8106307983,-1385113.5969161987,38131.073117256165,47218.360006809235,26518.991217017174,321756.66093826294,736168.384552002,812053.2035827637,1267499.327659607,-1358525.276184082,-1323356.9860458374,-529104.5904159546,-381214.6782875061,-1044729.3519973755,-708107.590675354,-164411.7385149002,-691789.5078659058,76119.43036317825,-1368991.9710159302,-1365191.4596557617,-1366152.8825759888,-963431.8351745605,-1263127.5653839111,-794945.0612068176,-44845.67046165466,-403838.51528167725,-159668.59459877014,-1387658.4768295288,-1354511.022567749,-1405408.501625061,-1257296.5621948242,-1199013.590812683,-488641.79849624634,-463353.9319038391,-1267096.1618423462,-1412146.0914611816,-1288172.4834442139,-2129988.431930542,-1630653.2621383667
0.005,-22578620.91064453,873937.18957901,-15983592.03338623,-19874788.284301758,-19398059.844970703,-20257186.889648438,-2548763.2751464844,-3120778.5606384277,-3545175.313949585,-9326497.077941895,-8880624.771118164,-8691216.468811035,-9550171.852111816,-13388738.632202148,3152090.549468994,-2940597.2957611084,-3497544.527053833,-3038601.3984680176,-3812216.281890869,-3752780.1990509033,-4493018.15032959,-6521502.494812012,-15112236.022949219,-14464971.542358398,-3829019.546508789,-3458110.3324890137,-3216554.4033050537,626745.2836036682,-4276517.391204834,-4740212.917327881,-14950049.40032959,11818722.72491455,-16096422.19543457,-15112325.668334961,-3242613.3155822754,2615016.222000122,-5218480.110168457,-4213460.922241211,-8757154.46472168,-19793792.724609375,1201972.1269607544,-16164216.995239258,-16463603.973388672,-15859324.45526123,-10087634.086608887,-17274291.9921875,-13457791.328430176,-8255554.19921875,-14239142.417907715,-13138084.411621094,-16711774.826049805,-15695466.041564941,-16826013.565063477,-17166086.196899414,-18557298.66027832,-17375202.178955078,-16807638.16833496,-17129924.774169922,-16513463.973999023,-18042104.721069336,-18312950.134277344,-14131351.470947266
0.01,-25180898.666381836,5124029.636383057,-23959934.23461914,-22185155.868530273,-20899591.44592285,-22198879.24194336,263076.7524242401,-628907.9189300537,-1175473.4516143799,-7475912.570953369,-7982284.069061279,-7357485.294342041,-9040428.161621094,-18692068.099975586,10426202.774047852,-365787.2676849365,-1029330.0151824951,-285035.640001297,-1495644.8078155518,-2595923.662185669,-4377315.044403076,-7102482.795715332,-18378969.192504883,-18109697.341918945,-2698665.6188964844,-1100817.7995681763,-885749.5784759521,2230027.437210083,-5939176.559448242,-7556363.105773926,-19095674.514770508,18766107.5592041,-21646762.84790039,-20402978.897094727,-4681133.74710083,2723999.261856079,-6417950.630187988,-6697990.417480469,-12737618.446350098,-25774360.65673828,5189335.823059082,-21804866.790771484,-22169519.424438477,-21461807.250976562,-14098920.822143555,-22337261.199951172,-17044477.462768555,-11865569.114685059,-18631196.975708008,-14594209.671020508,-22569166.18347168,-21178514.48059082,-22617130.279541016,-22299903.869628906,-24429231.643676758,-21330682.7545166,-20561157.2265625,-22258974.075317383,-22225997.924804688,-23446920.39489746,-22338905.334472656,-16846494.674682617
0.015,-6461610.317230225,21046277.99987793,-12060069.08416748,-11215377.807617188,-7810682.773590088,-11255269.050598145,5561042.785644531,4620183.944702148,4279274.463653564,1313032.627105713,-696912.2886657715,-624021.4705467224,-3235180.377960205,-15540511.131286621,17461378.09753418,4871598.243713379,4417593.955993652,5241657.257080078,3492396.354675293,1125834.9418640137,-1360492.1102523804,-3838871.955871582,-12511532.7835083,-12671558.380126953,972724.1396903992,4194978.713989258,4229752.063751221,3454791.54586792,-5017335.891723633,-8115175.247192383,-14365352.630615234,19487514.49584961,-18193866.729736328,-17229549.407958984,-4275074.481964111,530696.451663971,-5331863.880157471,-7570924.758911133,-12055734.634399414,-21283794.403076172,8807251.930236816,-18439533.233642578,-18697965.621948242,-18241298.67553711,-12396544.456481934,-18161190.032958984,-13378096.580505371,-11345330.238342285,-15185913.0859375,-8726490.97442627,-19137910.842895508,-17892572.4029541,-19044815.063476562,-18254402.16064453,-20788288.116455078,-16219478.607177734,-15513514.518737793,-18292125.701904297,-18764987.94555664,-19242494.583129883,-16953615.188598633,-12348863.60168457
0.02,1585085.2727890015,27637935.638427734,-5994070.529937744,-7446422.100067139,-4039970.3979492188,-6001785.755157471,6400559.902191162,5513099.193572998,5455590.724945068,2693420.41015625,29149.03312921524,-2029674.5300292969,-5598391.056060791,-15039309.50164795,17685974.12109375,5728423.595428467,5389165.40145874,6139757.6332092285,3353088.617324829,165851.81653499603,-2436894.416809082,-5965081.214904785,-12054805.755615234,-6943295.478820801,3510021.924972534,5182567.119598389,5162352.085113525,2438302.755355835,-4535946.369171143,-9387501.71661377,-12575954.43725586,13967065.811157227,-13027063.369750977,-12224303.245544434,-2549599.8859405518,-1098971.6053009033,-5037938.117980957,-7724103.4507751465,-11259931.564331055,-19408704.75769043,6178725.242614746,-13277404.78515625,-13503173.828125,-13145874.977111816,-8808133.125305176,-14160275.45928955,-11283107.75756836,-11005262.37487793,-13116925.239562988,-7813440.799713135,-13904057.502746582,-12777523.040771484,-13796851.15814209,-14222110.748291016,-17828615.188598633,-14554430.00793457,-13862457.275390625,-14388564.109802246,-13594591.14074707,-15128798.484802246,-13251720.428466797,-9824204.444885254
0.025,-14174072.265625,14371376.991271973,-21005418.77746582,-16662471.771240234,-16640964.50805664,-12102518.081665039,2983377.9335021973,2110304.832458496,2151297.092437744,-4933934.211730957,-7654135.227203369,-11491899.490356445,-14945865.631103516,-21922723.7701416,13003209.114074707,2276994.466781616,1884574.055671692,2537145.3762054443,-1323661.208152771,-5432754.993438721,-8029192.924499512,-12971150.398254395,-21168195.724487305,-7210862.159729004,3952553.0338287354,1814679.6226501465,1907278.4185409546,309339.0166759491,-6187008.857727051,-12560782.432556152,-17604997.634887695,5801074.028015137,-11736839.294433594,-10719274.520874023,-855031.1923027039,-1067234.3969345093,-6759884.834289551,-9005597.114562988,-14225698.471069336,-25678808.212280273,-2913423.538208008,-11889838.218688965,-12230593.68133545,-11667700.76751709,-7655073.642730713,-14955195.426940918,-14730971.336364746,-13638370.513916016,-17244604.110717773,-14579821.586608887,-12587318.420410156,-11309489.250183105,-12610390.663146973,-14841297.149658203,-20320547.103881836,-19649532.318115234,-18837282.180786133,-15071163.177490234,-12378638.26751709,-15839488.983154297,-15404876.708984375,-12331558.227539062
0.03,-26003889.083862305,3057115.5548095703,-37203758.239746094,-20026449.20349121,-23692571.64001465,-15865248.680114746,3334280.252456665,2438429.355621338,2384252.3097991943,-7270153.045654297,-10224699.974060059,-12508578.300476074,-15002945.899963379,-27584434.509277344,12337673.18725586,2503800.392150879,2150578.022003174,2781435.012817383,-1660139.2030715942,-6964600.563049316,-9758368.492126465,-14280366.897583008,-29046524.047851562,-11309178.352355957,4622962.951660156,2106535.6731414795,2296035.5281829834,308500.37932395935,-8074783.3251953125,-14382580.757141113,-20942541.122436523,452715.78431129456,-14199883.460998535,-12901669.5022583,-407355.09991645813,-1166673.183441162,-8519804.000854492,-11418262.481689453,-19086151.123046875,-32397644.04296875,-11407385.82611084,-14239782.333374023,-14686552.047729492,-13887737.274169922,-9911616.325378418,-18224720.001220703,-19425981.521606445,-17646686.553955078,-23477779.388427734,-20947753.90625,-15029196.739196777,-13584882.736206055,-15140813.827514648,-18014682.76977539,-24867177.963256836,-24834741.592407227,-23986368.17932129,-18188045.501708984,-14898678.77960205,-18981235.50415039,-19051624.298095703,-15992509.841918945
0.035,-6431608.6769104,20655454.635620117,-26089567.184448242,-4041593.551635742,-7701685.428619385,-7613384.246826172,10718898.77319336,9811422.348022461,9670108.795166016,3507173.0613708496,653222.6204872131,2457317.82913208,-397468.59669685364,-22698207.85522461,18302291.870117188,9773550.987243652,9606037.139892578,10292586.326599121,5597476.005554199,165425.94134807587,-2685594.081878662,-5749748.706817627,-26708051.681518555,-13379150.390625,6361298.561096191,9431256.294250488,9617793.083190918,2927912.950515747,-7492410.182952881,-11397715.56854248,-15682717.323303223,1245944.2615509033,-16666133.880615234,-15312433.242797852,-1306178.8082122803,-2856805.3245544434,-8426074.028015137,-12308755.874633789,-20375518.798828125,-31280447.006225586,-12069949.15008545,-16687366.485595703,-17099697.11303711,-16233167.64831543,-12455377.578735352,-20465873.71826172,-19932693.481445312,-19212923.049926758,-25323102.951049805,-20936990.73791504,-17428579.330444336,-16049367.904663086,-17451717.376708984,-20337903.97644043,-26606086.73095703,-25024353.02734375,-24372297.286987305,-20413906.09741211,-17297136.306762695,-21074333.19091797,-19938793.182373047,-17323816.299438477
0.04,20167633.056640625,51187747.955322266,1291814.8040771484,11094329.833984375,11745422.36328125,-241138.7264728546,16060552.597045898,15136873.245239258,15027610.778808594,13620779.991149902,11927491.188049316,15322010.040283203,10983689.308166504,-11584226.608276367,21730049.13330078,15156065.940856934,15038700.103759766,15790340.423583984,11328413.009643555,7730549.335479736,5302568.435668945,2685137.2718811035,-18626640.31982422,-12021858.215332031,6235353.469848633,14779664.993286133,14961404.800415039,4341481.685638428,-4916794.776916504,-5733471.870422363,-7032672.882080078,7434602.737426758,-15367930.41229248,-14124845.504760742,-2695101.499557495,-4846284.38949585,-7623040.676116943,-9852771.759033203,-16117731.094360352,-24369783.401489258,-4235007.762908936,-15486746.788024902,-15772637.367248535,-14924666.404724121,-11361280.44128418,-19217067.71850586,-15837535.858154297,-16163602.828979492,-20865890.502929688,-15801404.95300293,-16073488.235473633,-14867472.648620605,-15896794.319152832,-19226446.1517334,-23016351.6998291,-19971633.911132812,-19581155.77697754,-19236881.256103516,-15826694.48852539,-19793909.072875977,-16813268.661499023,-14934491.157531738
0.045,1900678.3962249756,47349243.1640625,2572973.4897613525,-5522963.523864746,2103200.4356384277,-13591091.15600586,8994779.586791992,8017128.944396973,7957147.598266602,5549400.806427002,5634711.265563965,6168879.508972168,4195359.230041504,-5135722.637176514,13393235.206604004,8320374.488830566,7973453.521728516,8765356.063842773,6309703.826904297,5066451.549530029,3771078.8249969482,2468133.4495544434,-12322595.596313477,-12115536.6897583,1626556.7541122437,7788909.912109375,8044940.948486328,1514925.1222610474,-3178361.654281616,-2641321.6590881348,-3028696.5370178223,16705423.355102539,-10557521.82006836,-9433669.090270996,-4077467.918395996,-5316258.430480957,-8526945.114135742,-6059209.34677124,-10081360.816955566,-18568866.729736328,6913240.432739258,-10814085.006713867,-10996157.6461792,-10164332.389831543,-6940308.570861816,-13593967.43774414,-10861119.270324707,-10007430.076599121,-13120826.721191406,-7926378.25012207,-11305376.052856445,-10138221.740722656,-10980762.481689453,-13684238.43383789,-14770423.889160156,-10590146.0647583,-10253098.487854004,-13618937.492370605,-10873943.328857422,-14275166.511535645,-9885005.950927734,-8143732.070922852
0.05,-61347095.48950195,2286990.8809661865,-30718185.424804688,-46730617.52319336,-29043500.900268555,-45484466.552734375,-6376357.555389404,-7397581.577301025,-7482831.001281738,-14580880.165100098,-12129371.643066406,-12670259.475708008,-4503986.835479736,-850317.7165985107,-3164210.319519043,-6780354.4998168945,-7366563.79699707,-6519596.576690674,-4470670.223236084,-4619897.842407227,-3150060.8921051025,2299983.263015747,-3896125.316619873,-18670251.846313477,-5407181.262969971,-7481205.940246582,-7080360.889434814,-2922658.4434509277,-2917700.5290985107,-2178409.8148345947,-508505.58280944824,28506570.81604004,-8300934.791564941,-7268793.58291626,-6089775.562286377,-5165480.136871338,-11063540.4586792,-4324365.139007568,-6122489.452362061,-14640489.57824707,16280544.28100586,-8639297.485351562,-8795020.10345459,-8025832.176208496,-4572426.319122314,-7532158.851623535,-8890100.479125977,-4774299.621582031,-6356770.038604736,1904605.746269226,-9177446.365356445,-7913735.389709473,-8846016.883850098,-7659027.099609375,-7494035.243988037,-495410.88938713074,41812.002658843994,-7476094.2459106445,-8616992.950439453,-8305732.727050781,-2761765.480041504,163199.42474365234
0.055,-105033195.49560547,-28193077.087402344,-51028324.127197266,-69352218.62792969,-37201107.025146484,-71905029.296875,-15200686.45477295,-16181135.177612305,-16245510.10131836,-22761566.162109375,-16147644.04296875,-9394650.45928955,12290075.302124023,16178831.100463867,-16163406.372070312,-15488543.510437012,-16027866.36352539,-15069637.298583984,-7811789.989471436,-7541122.4365234375,-1060375.690460205,16413797.378540039,15627375.602722168,-29855552.673339844,-10309514.045715332,-16239009.857177734,-15620718.002319336,-3871560.81199646,-1863375.5445480347,1072540.7600402832,9837626.457214355,42990764.61791992,-14170562.744140625,-13186006.546020508,-9244880.676269531,-6640475.749969482,-12533727.645874023,-4901984.691619873,-3537729.501724243,-8170895.576477051,23422174.45373535,-14473404.884338379,-14693257.331848145,-14035574.913024902,-8071557.04498291,-7448669.43359375,-10701982.498168945,-3096738.576889038,-2671532.154083252,11082335.472106934,-15127718.925476074,-13809388.160705566,-14880309.104919434,-7544881.820678711,-7678042.411804199,3400815.725326538,4170425.8918762207,-7304916.3818359375,-14556231.498718262,-8180796.6232299805,-1046322.4649429321,3872286.796569824
0.06,-86605560.30273438,-2321246.862411499,-22604724.884033203,-53356719.970703125,-5969401.836395264,-77258270.26367188,-11856995.582580566,-12761789.321899414,-12602459.907531738,-11074886.322021484,824750.3638267517,19177801.13220215,48300197.60131836,47834190.368652344,-20562021.255493164,-12216355.323791504,-12526520.729064941,-11442696.571350098,-1168615.9372329712,489792.91319847107,12195764.541625977,40146656.03637695,42067024.23095703,-37659950.256347656,-11616518.020629883,-12882843.017578125,-11993574.142456055,-988940.8349990845,625608.9806556702,8370843.887329102,26464878.08227539,57241809.8449707,-23854564.666748047,-22821311.950683594,-12206344.604492188,-9201616.287231445,-11125020.027160645,-4890690.326690674,43940.82352519035,821345.2696800232,31241952.896118164,-23994777.67944336,-24360509.872436523,-23742950.439453125,-13148555.755615234,-11969148.635864258,-12515562.057495117,-2931612.968444824,-484048.992395401,16081653.594970703,-24710386.276245117,-23436075.21057129,-24497478.485107422,-11859669.68536377,-12170428.276062012,170120.10514736176,974195.9571838379,-11716697.692871094,-24128890.991210938,-12549475.66986084,-3157015.800476074,2544942.3789978027
0.065,-47333309.173583984,41748199.462890625,18979558.94470215,-31611495.971679688,23279253.005981445,-71613533.02001953,-7141699.314117432,-8101219.177246094,-7622221.46987915,77537.84954547882,14379603.385925293,37644298.5534668,64815353.39355469,71825363.15917969,-21752189.63623047,-7621247.7684021,-7842720.031738281,-6708325.8628845215,3602997.7798461914,7132501.602172852,20566038.131713867,51783607.482910156,57791748.046875,-36551372.52807617,-11789048.194885254,-8163439.750671387,-7120173.931121826,739229.6195030212,1666247.4870681763,12899466.514587402,35960342.40722656,65637397.76611328,-26109689.712524414,-24968734.741210938,-12596154.21295166,-9579364.776611328,-8156831.741333008,-2591859.3406677246,3846224.546432495,6169038.29574585,40433292.388916016,-26033052.444458008,-26539573.669433594,-25843841.552734375,-11829592.70477295,-10737053.871154785,-9182853.698730469,197490.78154563904,3443116.6648864746,17731081.008911133,-26695899.963378906,-25448501.586914062,-26378557.205200195,-10283270.835876465,-8793382.64465332,-281679.30245399475,361133.78405570984,-10292245.864868164,-25962352.752685547,-11172995.567321777,884218.7523841858,4445772.171020508
0.07,-48220550.537109375,43258853.912353516,17971145.629882812,-39250015.25878906,11567178.726196289,-71337089.53857422,-10829371.452331543,-12032201.766967773,-11423094.749450684,-7650425.910949707,4590060.710906982,23438610.076904297,45941612.243652344,69173614.50195312,-24271163.940429688,-11358834.266662598,-11710518.836975098,-10612735.748291016,-1706088.1853103638,2153173.9234924316,13289978.02734375,42714096.06933594,53673072.814941406,-30445781.707763672,-12546860.694885254,-11828645.706176758,-10924972.534179688,-1717329.2636871338,-110561.45280599594,9654681.205749512,31943965.911865234,65447349.548339844,-18651008.60595703,-17444160.46142578,-10073005.676269531,-6752323.150634766,-6497647.762298584,144177.6603460312,5039933.204650879,4333363.056182861,46160388.9465332,-18451992.03491211,-18966144.561767578,-18185941.696166992,-4169284.8205566406,-754165.1725769043,-1598034.381866455,6373975.2769470215,8757538.795471191,19227399.826049805,-19002361.297607422,-17678684.23461914,-18532861.709594727,-90510.64401865005,5005641.937255859,8178447.723388672,8673383.712768555,-137437.23928928375,-18072322.845458984,-1189057.469367981,13030822.75390625,12797698.974609375
0.075,-73674026.48925781,20172809.600830078,-8900610.92376709,-57307937.62207031,-14534205.436706543,-74104309.08203125,-15772751.808166504,-17218175.888061523,-16736618.041992188,-22070669.174194336,-9990403.175354004,4203963.279724121,27019636.154174805,54855686.18774414,-24632232.666015625,-16305965.423583984,-16799589.157104492,-15710391.0446167,-8586709.976196289,-5958577.632904053,3213910.1028442383,31955322.265625,43049209.59472656,-28327117.919921875,-12478179.931640625,-16789999.00817871,-16188268.661499023,-5158116.817474365,-329769.3729400635,4186116.2185668945,25277315.139770508,60795024.87182617,-13882383.346557617,-12637372.016906738,-7645494.9378967285,-4304750.442504883,-7851984.977722168,422626.91259384155,3196128.6067962646,-568762.0639801025,43004257.20214844,-13766162.872314453,-14145950.317382812,-13370908.737182617,-292864.590883255,3962223.529815674,1486322.283744812,9172672.271728516,9809556.96105957,18958108.90197754,-14279065.132141113,-12838050.842285156,-13806030.2734375,4500265.121459961,12196761.131286621,14091753.959655762,14616867.065429688,4521759.033203125,-13398315.4296875,3323988.437652588,17424917.221069336,15670455.932617188
0.08,-50898540.49682617,55445018.76831055,16854061.126708984,-38060226.44042969,4553364.7537231445,-65380966.18652344,-8376113.8916015625,-9814858.436584473,-9451292.037963867,-16949401.85546875,5388972.282409668,21480945.587158203,49362842.55981445,63611137.39013672,-19109071.731567383,-8937890.05279541,-9442728.042602539,-8194564.8193359375,-3657961.60697937,-1262659.4305038452,10369677.543640137,41769466.400146484,46529506.68334961,-33453788.75732422,-10710972.785949707,-9512316.703796387,-8991579.055786133,-4976562.5,6352471.351623535,5724050.045013428,29462022.78137207,58988731.384277344,-22833166.122436523,-21493762.969970703,-9015562.057495117,-5998721.599578857,-11559401.512145996,-2042263.7462615967,903621.0775375366,-2765179.15725708,33052288.055419922,-22970085.14404297,-23202833.17565918,-22493747.71118164,-7601407.527923584,-10174931.526184082,-6391750.812530518,3426753.7593841553,2301915.407180786,12063844.680786133,-23599422.454833984,-22122823.71520996,-23308389.66369629,-9952727.317810059,-3229426.145553589,2100749.4926452637,2759507.417678833,-9901781.08215332,-23101356.506347656,-11098078.727722168,-546290.397644043,543605.3276062012
0.085,37801044.46411133,174057250.9765625,122305397.0336914,21615077.97241211,74450576.78222656,-44859584.80834961,9241538.047790527,8051242.828369141,8530339.241027832,9315291.404724121,50880744.93408203,70102706.90917969,102449569.70214844,103576423.64501953,-12782249.450683594,8639330.863952637,8179814.338684082,9744773.864746094,11327742.576599121,16027845.38269043,33001884.46044922,67609367.37060547,66468444.82421875,-40277214.05029297,-10164125.442504883,7941901.683807373,8752522.468566895,-1707702.1598815918,17920175.552368164,14309145.9274292,42421459.19799805,63017780.30395508,-38983795.166015625,-37571361.54174805,-14650973.320007324,-10628317.832946777,-15284914.97039795,-4736841.678619385,282704.8897743225,-1887110.5909347534,25507896.423339844,-39410766.6015625,-39560707.092285156,-38928253.173828125,-20167037.963867188,-34150634.765625,-19048675.537109375,-6592449.188232422,-9210841.178894043,557982.8023910522,-40196105.95703125,-38821556.091308594,-40053306.579589844,-34141284.94262695,-30625555.03845215,-21915817.260742188,-21224061.965942383,-34133075.71411133,-40102470.39794922,-35199512.48168945,-29838026.04675293,-24576749.801635742
0.09,117167846.6796875,289483093.26171875,229588912.9638672,68439567.56591797,132598587.03613281,-31463102.340698242,19285276.412963867,18303936.004638672,18984397.888183594,29712348.93798828,86840332.03125,102616355.8959961,136653228.75976562,141185165.40527344,-13978366.85180664,18683153.15246582,18241922.37854004,20074726.104736328,20822561.264038086,28650047.302246094,48802398.681640625,84502563.4765625,84426887.51220703,-42667541.50390625,-14033474.922180176,17892560.958862305,19050136.56616211,285665.48228263855,25489053.72619629,21129503.25012207,50561199.18823242,68916816.71142578,-46322883.60595703,-45040287.017822266,-21019067.764282227,-13467170.715332031,-16756296.157836914,-5339010.715484619,1012870.6693649292,-1096949.9349594116,26225353.240966797,-46967559.814453125,-47035404.205322266,-46479530.334472656,-25828691.482543945,-45060688.01879883,-23565795.8984375,-11207236.289978027,-14764818.19152832,-5530150.890350342,-47725852.966308594,-46547183.990478516,-47507781.982421875,-45089515.686035156,-42620048.52294922,-34473541.259765625,-33894294.73876953,-45093219.75708008,-47698551.177978516,-45996326.4465332,-43507663.72680664,-37845985.412597656
0.095,109580924.98779297,300748931.8847656,242280914.30664062,58828224.182128906,125705299.3774414,-39488842.01049805,11195137.977600098,10161896.705627441,10827560.424804688,24043167.114257812,82521934.50927734,90339950.56152344,125454612.7319336,140430496.2158203,-22152769.088745117,10615087.509155273,10208655.35736084,12035379.409790039,15939981.460571289,25004276.275634766,43919303.89404297,78643112.18261719,83833572.38769531,-41019989.013671875,-20260093.688964844,9800508.499145508,10980090.141296387,-876075.4466056824,23288070.678710938,20701606.75048828,47113788.60473633,71005302.42919922,-39677352.90527344,-38675815.58227539,-23768079.75769043,-12091595.649719238,-15896821.022033691,-4172222.137451172,1752090.4541015625,-1092778.6827087402,31488784.790039062,-40400032.04345703,-40367965.69824219,-39839294.43359375,-21182395.935058594,-35330837.24975586,-16561178.207397461,-7147820.472717285,-10318905.8303833,-11139.802634716034,-40916984.55810547,-39912536.62109375,-40532630.920410156,-35355312.34741211,-30136751.174926758,-24673521.041870117,-24159667.96875,-35312313.079833984,-40650402.0690918,-36104000.091552734,-32455188.751220703,-30842443.466186523
0.1,27515314.10217285,210750183.10546875,158013488.76953125,9029436.111450195,70163032.53173828,-60114566.802978516,-5340902.805328369,-6588232.517242432,-6157796.859741211,2940388.2026672363,50810390.47241211,54069530.48706055,90442947.38769531,105907211.30371094,-27981525.421142578,-5928562.164306641,-6257582.187652588,-4710659.027099609,4837928.771972656,12671947.479248047,28244184.494018555,60834995.26977539,68687049.86572266,-38603969.57397461,-22895069.122314453,-6717798.233032227,-5811705.589294434,-2660282.1350097656,15138126.373291016,16845067.977905273,38706249.23706055,68821815.49072266,-28125234.603881836,-27246109.008789062,-21522378.92150879,-8579594.612121582,-14918354.988098145,-3259080.8868408203,2150852.2033691406,467447.3702907562,35254154.205322266,-28720136.642456055,-28707542.419433594,-28088485.717773438,-13777981.758117676,-20071708.67919922,-7829847.812652588,-412469.92349624634,-1648757.9345703125,11931092.262268066,-29044628.143310547,-28075305.938720703,-28699077.606201172,-20091587.06665039,-12311040.878295898,-6803501.129150391,-6146386.14654541,-20036275.86364746,-28583292.00744629,-20820922.8515625,-14807807.922363281,-16751209.259033203
0.105,-49276832.580566406,114128784.1796875,63382999.420166016,-32616611.48071289,21709783.55407715,-72800933.83789062,-14325968.742370605,-15680617.332458496,-15396692.276000977,-9829076.766967773,25449865.341186523,29713489.532470703,64925384.521484375,73985153.19824219,-25697542.190551758,-14925010.681152344,-15228172.302246094,-13993738.174438477,45352.9991209507,5609875.202178955,18795404.4342041,48753215.78979492,56197353.36303711,-35053115.84472656,-19365537.643432617,-15688444.137573242,-15001462.936401367,-2285662.4126434326,8984654.426574707,15613573.07434082,34343444.82421875,66947204.58984375,-20364004.135131836,-19299329.75769043,-16697397.232055664,-5968822.956085205,-15236570.358276367,-3279048.9196777344,3005762.5770568848,4305010.3187561035,37838039.39819336,-20632793.426513672,-20830343.24645996,-20060609.817504883,-10381254.196166992,-14026171.684265137,-6000741.958618164,3237671.6136932373,3889380.45501709,20758544.921875,-21049354.553222656,-19959863.662719727,-20985252.380371094,-13969453.811645508,-7956976.413726807,1398235.3210449219,2292464.7331237793,-13969499.588012695,-20635923.385620117,-14846421.241760254,-8762838.363647461,-9671868.324279785
0.11,-65988906.86035156,85084640.50292969,30677455.90209961,-41691856.384277344,9629088.401794434,-69012069.70214844,-12501708.030700684,-13765667.915344238,-13355382.919311523,-6918671.607971191,19562593.460083008,26845058.44116211,57091903.68652344,67608703.61328125,-19477035.522460938,-13048668.86138916,-13427567.481994629,-12329717.636108398,2828773.4985351562,6261773.109436035,18866096.49658203,47066215.51513672,55428375.244140625,-28510009.765625,-13645082.473754883,-13802626.609802246,-13077618.598937988,-57676.129043102264,7340182.781219482,17312789.916992188,34885318.756103516,67859901.42822266,-16530710.220336914,-15203804.016113281,-12939120.292663574,-4741406.440734863,-15042647.361755371,-2613074.541091919,4834124.0882873535,7325089.931488037,41959835.052490234,-16467765.808105469,-16865051.26953125,-16034681.32019043,-9538270.950317383,-14719652.17590332,-7810926.914215088,4861432.5523376465,5059021.949768066,22293245.315551758,-17121612.548828125,-15884855.270385742,-17294456.481933594,-14566679.000854492,-12393402.099609375,-135470.59893608093,838702.0230293274,-14611429.214477539,-16859321.59423828,-15596910.47668457,-10830582.618713379,-8560040.473937988
0.115,-35289348.60229492,112245101.92871094,52498237.60986328,-29499679.565429688,21063476.5625,-57686912.536621094,-8237749.099731445,-9371340.75164795,-8757756.233215332,906354.7849655151,21120252.60925293,32822971.34399414,57319263.45825195,75691024.78027344,-15939719.200134277,-8703741.073608398,-9122114.181518555,-8032396.31652832,5563483.715057373,7191642.761230469,20492668.15185547,49341545.10498047,59582572.93701172,-21764518.73779297,-11033449.172973633,-9438501.358032227,-8541353.225708008,2143220.6630706787,6269634.246826172,18254798.889160156,35670532.2265625,68045448.30322266,-14892864.227294922,-13519804.954528809,-11870971.6796875,-3709929.4662475586,-11808476.448059082,70948.25804233551,6781577.587127686,6217616.558074951,44324195.861816406,-14754561.424255371,-15089794.158935547,-14303786.277770996,-7188961.505889893,-13398935.317993164,-5927699.565887451,7153044.2237854,4619298.458099365,18154302.5970459,-15438117.027282715,-14188209.533691406,-15575832.36694336,-13289612.770080566,-10990789.413452148,-1485811.1143112183,-651257.2765350342,-13340332.03125,-15239192.962646484,-14359562.873840332,-8296577.453613281,-6458447.9331970215
0.12,-2795583.2481384277,138669296.26464844,75632476.80664062,-16059650.421142578,32740951.538085938,-50738529.205322266,-7503167.629241943,-8612387.657165527,-8020159.721374512,4108607.769012451,18523557.662963867,38182167.053222656,60260208.12988281,77427268.9819336,-15696620.94116211,-7973152.637481689,-8252266.883850098,-7219244.956970215,4266679.763793945,4620387.077331543,19285509.10949707,50675395.96557617,58978477.478027344,-19877063.751220703,-12037470.817565918,-8663488.388061523,-7673540.5921936035,3371660.7093811035,2652573.585510254,16959142.684936523,34581523.89526367,63918445.5871582,-16161787.033081055,-14971106.52923584,-12039694.786071777,-2581557.035446167,-6818977.832794189,3327137.7086639404,7371568.202972412,1936339.6167755127,40034881.591796875,-16245006.561279297,-16320201.873779297,-15541400.909423828,-3577819.82421875,-9904259.68170166,-970184.326171875,8619835.85357666,4263482.570648193,12355424.880981445,-16665132.522583008,-15551470.756530762,-16594806.671142578,-9933795.928955078,-2852303.7433624268,383338.5109901428,1035878.3006668091,-10012512.20703125,-16458328.247070312,-11002879.14276123,-244840.41333198547,-3291688.6806488037
0.125,2108154.296875,132383926.39160156,68179573.05908203,-11754116.05834961,34134880.06591797,-50585369.11010742,-8923005.104064941,-10062161.445617676,-9730580.32989502,3091159.5821380615,12735620.498657227,40904014.587402344,64505798.33984375,70096237.18261719,-15204406.73828125,-9493474.960327148,-9562011.71875,-8655924.797058105,1648498.773574829,1775192.8567886353,17528644.561767578,51117130.279541016,54305118.560791016,-21811147.689819336,-13029771.80480957,-10129593.849182129,-9222133.63647461,3493736.982345581,-1596297.5025177002,15178039.55078125,33659179.6875,58853248.596191406,-18061372.756958008,-17104415.893554688,-10827353.477478027,-1998171.329498291,-4570697.784423828,4359235.763549805,6477585.792541504,-928725.4810333252,33288852.69165039,-18408382.415771484,-18339694.97680664,-17494489.669799805,-1113679.6474456787,-8252603.530883789,886232.4953079224,7334404.945373535,4637284.278869629,10285058.02154541,-18564006.805419922,-17582565.307617188,-18351152.420043945,-8245697.975158691,1636266.9467926025,2338741.0640716553,2919141.0541534424,-8352614.402770996,-18386507.034301758,-9359976.768493652,4970360.279083252,-1572648.1676101685
0.13,-18984930.03845215,104809951.78222656,39417274.475097656,-19661153.79333496,24000022.888183594,-52498886.10839844,-10508411.407470703,-11635666.847229004,-11546808.242797852,109701.29072666168,6210994.720458984,35980258.94165039,62536262.51220703,63407703.3996582,-13342569.351196289,-11151467.323303223,-11183315.27709961,-10339201.927185059,-286372.45297431946,417362.0641231537,15897039.413452148,50125247.955322266,52211944.580078125,-20627738.95263672,-11658636.093139648,-11723172.187805176,-11076061.248779297,2198539.0186309814,-3520991.802215576,14080665.588378906,34287189.48364258,59004673.00415039,-14451027.870178223,-13647616.386413574,-7481171.131134033,-1899182.677268982,-7110456.943511963,2445705.1753997803,5698714.733123779,520497.9181289673,33679969.787597656,-14833058.35723877,-14874803.54309082,-14061160.08758545,515502.9892921448,-6611243.724822998,-1437013.7453079224,6177371.025085449,6793336.868286133,15591361.999511719,-14986914.63470459,-13997677.80303955,-14780287.742614746,-6314780.235290527,-451063.24553489685,4842221.736907959,5422086.715698242,-6338411.331176758,-14863548.278808594,-7452006.816864014,5286819.934844971,1506299.7341156006
0.135,-46061511.9934082,81056961.05957031,13121836.66229248,-36886528.01513672,5711413.860321045,-53158664.70336914,-13061290.740966797,-14201820.373535156,-14143702.507019043,-5314625.7400512695,-3431789.1597747803,19680377.960205078,48653633.11767578,59355247.497558594,-11964300.155639648,-13680376.052856445,-13884213.4475708,-13005916.595458984,-3079639.673233032,-2264637.231826782,11741551.399230957,45685634.61303711,52987712.86010742,-13965984.344482422,-9347396.850585938,-14143653.869628906,-13866583.824157715,-164834.663271904,-3803048.3722686768,12901205.062866211,34700767.517089844,63353443.14575195,-5116337.776184082,-4313400.745391846,-4174637.794494629,-1609088.5400772095,-11381545.066833496,-392408.90741348267,6265353.679656982,4000888.8244628906,41188682.556152344,-5301898.002624512,-5511875.152587891,-4928991.317749023,2762342.4530029297,-1809494.8530197144,-3065860.5098724365,8798373.222351074,10055854.797363281,24467422.485351562,-5636349.201202393,-4546070.575714111,-5500125.408172607,-1287861.8240356445,-2076974.868774414,10067741.394042969,10618623.733520508,-1155648.4699249268,-5505973.339080811,-2338096.857070923,5676458.835601807,8100924.491882324
0.14,-60573703.76586914,71297248.84033203,455557.9125881195,-52794254.302978516,-10675801.277160645,-53399909.97314453,-16225723.266601562,-17545902.252197266,-17353214.263916016,-11036789.894104004,-14887951.850891113,1475149.7507095337,32536407.470703125,52579929.35180664,-11880979.537963867,-16814102.172851562,-17176271.438598633,-16302957.534790039,-6608914.375305176,-6839365.005493164,6069241.523742676,39535217.28515625,50853538.513183594,-8463848.114013672,-8639311.790466309,-17128623.962402344,-17141412.73498535,-1737446.1889266968,-4819734.573364258,11597908.973693848,33308914.184570312,64672393.798828125,636318.4452056885,1638346.0760116577,-3697419.6434020996,-1347966.6709899902,-13458186.149597168,-2016642.0936584473,7586642.265319824,5177519.798278809,45122150.42114258,656735.4798316956,448416.2926673889,782456.636428833,4336273.193359375,2181511.163711548,-1683473.2294082642,13183529.8538208,11229804.992675781,28171199.798583984,198526.96359157562,1333791.8519973755,295192.7185058594,2571020.8415985107,-12766.68906211853,14604640.007019043,15091281.89086914,2714970.111846924,396117.6872253418,1644423.9616394043,7100167.751312256,12452547.073364258
0.145,-59113552.09350586,70336097.71728516,-1881015.3007507324,-57064243.31665039,-14184346.199035645,-54490974.42626953,-17158071.517944336,-18785675.048828125,-18431293.487548828,-11112038.612365723,-20000593.185424805,-3025451.183319092,30415708.541870117,45807384.4909668,-12029939.651489258,-17789360.04638672,-18148077.0111084,-17375720.977783203,-7215134.620666504,-8551152.229309082,4715703.964233398,37634902.95410156,45524421.69189453,-10187671.661376953,-9796338.081359863,-18010236.740112305,-18021842.95654297,-822062.4923706055,-6206091.88079834,12093311.309814453,32097305.297851562,61361080.169677734,-3915337.8009796143,-2631550.073623657,-6109022.617340088,-2079481.601715088,-13168925.285339355,-2066582.9181671143,8748981.475830078,3450195.789337158,40936260.22338867,-3867894.172668457,-3932240.4861450195,-3628944.6353912354,3141009.3307495117,83568.16321611404,-174725.4729270935,14795217.514038086,9148630.142211914,24613306.045532227,-4315756.797790527,-3237709.5222473145,-4185714.2448425293,164991.87052249908,1080150.842666626,13627198.219299316,14052363.395690918,114577.5243639946,-4057675.838470459,-740277.7075767517,5725481.5101623535,8947705.268859863
0.15,-52473709.10644531,71483444.21386719,-905975.6398200989,-51589885.71166992,-6341883.659362793,-55087665.55786133,-15266086.57836914,-17110328.674316406,-16604747.772216797,-4500947.47543335,-15687286.376953125,6681166.648864746,41796279.90722656,47731887.81738281,-11925280.570983887,-15930518.15032959,-16247360.229492188,-15541321.754455566,-3815064.6686553955,-5025261.402130127,9246882.438659668,41824600.21972656,43587940.21606445,-15333433.151245117,-10799251.556396484,-16210212.707519531,-15965302.467346191,1635852.8137207031,-5854701.519012451,15025338.172912598,33714694.97680664,60245067.59643555,-12527636.528015137,-11156857.49053955,-8375937.461853027,-3574904.9186706543,-12942032.814025879,-1406230.3304672241,9875329.971313477,2011771.9173431396,37454555.51147461,-12625857.35321045,-12583731.651306152,-12135642.051696777,662433.2666397095,-4205621.242523193,-523632.287979126,14106716.15600586,7309431.552886963,21814718.24645996,-13014898.300170898,-11989156.723022461,-12786412.239074707,-4187690.7348632812,-943150.2819061279,9965862.274169922,10323736.190795898,-4377713.680267334,-12718274.116516113,-5173988.342285156,2189594.268798828,2705742.359161377
0.155,-48962329.86450195,75030265.80810547,223004.71365451813,-46258167.2668457,-635012.5670433044,-51783451.080322266,-13600318.908691406,-15452711.10534668,-14782146.453857422,1427076.3397216797,-10726544.380187988,13489868.1640625,47152172.08862305,54343597.412109375,-11375714.302062988,-14183672.904968262,-14590103.149414062,-13840265.274047852,-1016931.6530227661,-1857545.4950332642,12387402.534484863,44488739.013671875,45384544.372558594,-15514080.047607422,-9845973.014831543,-14635219.57397461,-14198204.99420166,2751780.0331115723,-4443767.547607422,17038732.528686523,35786575.31738281,63686130.52368164,-14468542.098999023,-13311515.808105469,-7852438.926696777,-4217123.508453369,-13993275.64239502,-1209916.114807129,10389529.22821045,1744469.2850112915,41244113.92211914,-14733444.213867188,-14704941.749572754,-14178963.661193848,40830.41846752167,-3038532.7339172363,-1175181.6272735596,14824998.85559082,8195257.186889648,25205286.026000977,-15073158.264160156,-14010896.682739258,-14789003.372192383,-2775244.951248169,-2019032.0014953613,10025630.950927734,10313902.854919434,-2811356.544494629,-14771432.876586914,-3825782.537460327,1563292.7417755127,2298854.8278808594
0.16,-43312885.28442383,83813415.52734375,1545231.2231063843,-43599597.9309082,-6092055.320739746,-41537048.33984375,-13425156.593322754,-15209119.79675293,-14435575.485229492,605216.383934021,-14105644.226074219,4514593.601226807,32034046.173095703,47270160.67504883,-7869293.212890625,-13900868.41583252,-14484969.139099121,-13732908.248901367,-2676146.984100342,-5509298.324584961,6935633.659362793,36052650.451660156,39271087.646484375,-9310381.889343262,-6950992.107391357,-14485363.960266113,-14183801.651000977,1168719.8877334595,-5140342.235565186,13965473.175048828,31839725.494384766,61896862.0300293,-9268915.176391602,-8366550.445556641,-5360021.591186523,-3527935.028076172,-15947970.390319824,-2759944.6773529053,7698722.839355469,-1496543.526649475,43681865.69213867,-9584444.046020508,-9633573.532104492,-9191957.473754883,460533.0228805542,1262486.9346618652,-1797876.477241516,15733516.693115234,7808178.901672363,27928657.53173828,-9887252.807617188,-8772585.86883545,-9752517.700195312,1722176.3134002686,-1396728.277206421,12177189.826965332,12477662.086486816,1990576.2672424316,-9725822.448730469,693826.4966011047,3124836.6832733154,5252727.508544922
0.165,-26855859.756469727,95675849.91455078,2493256.3304901123,-36546302.795410156,-17593240.73791504,-23861305.236816406,-11358078.956604004,-13176882.74383545,-12531962.394714355,-3106006.860733032,-22313894.271850586,-13476927.757263184,4670385.360717773,17868934.631347656,2249300.718307495,-11878192.901611328,-12589552.879333496,-12022447.58605957,-5847465.991973877,-13615345.001220703,-4119957.92388916,17244459.15222168,16348745.346069336,-2592971.086502075,-3126360.4164123535,-12481476.783752441,-12563190.460205078,-1287205.5768966675,-8382814.407348633,6434484.004974365,19613889.694213867,45650081.634521484,-5473392.009735107,-4567729.473114014,-3698306.7989349365,-3352283.239364624,-18881158.82873535,-6538767.337799072,253560.3940486908,-11142232.894897461,33072982.788085938,-5734859.943389893,-5850056.171417236,-5516402.721405029,-1988476.8724441528,-1472148.4184265137,-5268576.622009277,11073595.04699707,666152.6560783386,20699590.6829834,-6050455.093383789,-4980330.467224121,-6263468.7423706055,-1109233.8562011719,-5621626.853942871,7912104.12979126,8362888.336181641,-722917.5567626953,-6259947.776794434,-2065336.2274169922,-867993.8912391663,1205524.8022079468
0.17,-3606500.3871917725,104214057.92236328,1352583.2891464233,-22305780.4107666,-25097406.3873291,-2582094.669342041,-4898996.829986572,-6829906.463623047,-6588597.297668457,-2106181.6215515137,-25352752.685546875,-25221321.10595703,-15744047.164916992,-18215307.235717773,18021654.12902832,-5598137.378692627,-6401226.043701172,-6079413.414001465,-5200876.712799072,-17942651.748657227,-11409162.521362305,-589765.4891014099,-14735990.524291992,845075.7265090942,835509.7770690918,-6197901.725769043,-6622882.843017578,-1963061.9287490845,-10449229.24041748,-263841.33100509644,5417774.200439453,21125753.40270996,-7212921.142578125,-6115952.968597412,-3812600.1358032227,-5193614.959716797,-22990940.09399414,-10900869.369506836,-8876661.30065918,-23834438.32397461,12926712.036132812,-7460776.329040527,-7596185.207366943,-7269216.060638428,-7451075.553894043,-12974448.204040527,-12209132.194519043,258961.0517024994,-11249923.706054688,6419959.06829834,-7861259.937286377,-6903643.608093262,-8341283.798217773,-12810285.568237305,-17656742.095947266,-4720810.890197754,-4086566.44821167,-12592493.057250977,-8498100.280761719,-13707965.850830078,-12941048.622131348,-11405455.589294434
0.175,12611069.679260254,106577964.78271484,-1631636.9771957397,-9383750.915527344,-26252557.7545166,14321391.105651855,2277975.32081604,332369.1189289093,121796.16838693619,3555904.6268463135,-21505739.212036133,-26092868.80493164,-21673465.728759766,-39592002.868652344,31517755.50842285,1479392.0516967773,526777.9231071472,779630.9590339661,-964417.3383712769,-15730643.272399902,-11356020.9274292,-8428899.765014648,-36390537.26196289,2543238.401412964,3769454.9560546875,795468.1515693665,249285.08698940277,-421817.421913147,-8784864.42565918,-2523527.8606414795,-2851570.1293945312,3346015.9301757812,-10318105.697631836,-9147073.745727539,-4336648.941040039,-7602066.993713379,-26578338.623046875,-13041238.784790039,-14357686.042785645,-32449989.318847656,-2296710.968017578,-10690451.622009277,-10797084.80834961,-10427022.933959961,-10891572.952270508,-22300741.19567871,-17784551.6204834,-8836591.720581055,-19648788.452148438,-3291929.7218322754,-11160750.389099121,-10251030.921936035,-11549868.5836792,-22136838.912963867,-28799612.045288086,-16581912.994384766,-15897689.819335938,-22194717.407226562,-11931832.313537598,-23030742.645263672,-24015184.40246582,-21994916.915893555
0.18,16149959.564208984,106780059.81445312,-3242699.146270752,-6385383.605957031,-25455745.697021484,19593336.10534668,4347116.470336914,2555675.268173218,2160695.0759887695,7069873.809814453,-18172594.07043457,-23089262.008666992,-20943319.32067871,-43581127.16674805,34227344.51293945,3630046.1292266846,2548144.578933716,2918053.8654327393,2014911.413192749,-12417967.796325684,-9102493.286132812,-8506611.824035645,-42354526.51977539,3187914.8483276367,3407080.65032959,2819070.1007843018,2376301.050186157,1706472.1584320068,-5723349.571228027,-2024152.9941558838,-4615803.7185668945,-2061186.3136291504,-11510803.22265625,-10482591.62902832,-4688790.321350098,-7968373.775482178,-26838565.826416016,-11994694.709777832,-14362565.040588379,-34054950.71411133,-6155227.184295654,-12053178.787231445,-12120941.162109375,-11747954.368591309,-9121610.641479492,-20807458.877563477,-17327543.258666992,-9110594.749450684,-19905284.881591797,-3729128.122329712,-12484114.646911621,-11517195.701599121,-12490443.229675293,-20473934.173583984,-28164136.88659668,-18659790.0390625,-18060546.875,-20745996.475219727,-12967408.180236816,-21432708.740234375,-23917478.561401367,-22606021.881103516
0.185,15378251.075744629,109245704.6508789,-1533403.0389785767,-10348601.341247559,-25256820.678710938,13823213.577270508,1064224.123954773,-518980.56268692017,-765994.1911697388,5529103.755950928,-19517648.696899414,-21702230.45349121,-21863315.58227539,-42392688.7512207,26183454.513549805,458325.41584968567,-547936.3799095154,-69282.49448537827,1717571.1393356323,-12817033.767700195,-9508547.78289795,-8177443.504333496,-40954589.84375,168980.03220558167,-1433044.9104309082,-383428.4543991089,-557005.8822631836,3051282.6442718506,-4589157.581329346,-1806493.4015274048,-4958103.656768799,-1801927.089691162,-13019318.580627441,-12177178.382873535,-5965421.676635742,-6187696.933746338,-23400749.20654297,-9677008.628845215,-11584921.836853027,-31782806.396484375,-4805549.621582031,-13603339.195251465,-13702197.074890137,-13332336.42578125,-5287341.117858887,-12997644.424438477,-12523336.410522461,-2444698.5721588135,-15372089.385986328,-766257.5840950012,-13960488.319396973,-12927541.732788086,-13635139.465332031,-12601159.09576416,-16784605.026245117,-11886294.3649292,-11341894.149780273,-12964943.885803223,-14002948.760986328,-13651108.741760254,-13753733.63494873,-16957513.8092041
0.19,20124349.59411621,114026237.48779297,2159400.224685669,-11377923.011779785,-23713079.45251465,6802412.509918213,-2213101.863861084,-3683953.5236358643,-3704964.6377563477,3433375.835418701,-21192983.627319336,-20111562.728881836,-23342618.942260742,-41762023.92578125,16948276.51977539,-2841954.9465179443,-3602558.8512420654,-3124004.364013672,717533.2903862,-15076515.197753906,-10937767.028808594,-9234129.905700684,-39841068.267822266,-5910204.4105529785,-7653736.114501953,-3584583.044052124,-3437088.966369629,3431756.4964294434,-4724480.152130127,-1677822.232246399,-6162612.9150390625,-1416470.5276489258,-15792736.053466797,-15049657.821655273,-7980710.029602051,-4606249.3324279785,-19423374.17602539,-8475148.20098877,-8966551.780700684,-29678770.065307617,-4217373.371124268,-16276762.008666992,-16516561.508178711,-16064840.316772461,-3814957.1418762207,-8069329.261779785,-8965070.724487305,4031285.285949707,-11548371.315002441,318573.4748840332,-16688341.14074707,-15649753.57055664,-16315397.262573242,-7825759.410858154,-6245543.479919434,-3466057.300567627,-2856257.915496826,-8091345.78704834,-16489587.783813477,-8900992.393493652,-3406684.8754882812,-12016739.845275879
0.195,30273683.547973633,120221908.56933594,7595161.437988281,-5796710.968017578,-19043155.670166016,7953034.400939941,-2059085.8459472656,-3542304.515838623,-3511801.242828369,4693301.677703857,-18936594.009399414,-16219213.485717773,-21389055.252075195,-36900901.794433594,15638369.5602417,-2784809.112548828,-3404162.1685028076,-2966428.518295288,578854.501247406,-15636454.582214355,-10243531.227111816,-8388736.724853516,-37757640.83862305,-8674653.053283691,-9886207.580566406,-3413346.290588379,-3095925.807952881,2855267.286300659,-3379951.9538879395,-139669.68655586243,-6064445.018768311,725627.8395652771,-15880102.157592773,-15190704.345703125,-8314423.561096191,-4707565.3076171875,-18306783.67614746,-8892282.485961914,-7278614.521026611,-29161153.79333496,-3433242.3210144043,-16286380.767822266,-16699003.219604492,-16102933.883666992,-4304162.979125977,-7879274.845123291,-9346961.975097656,6270358.562469482,-10571143.15032959,789737.1053695679,-16868574.142456055,-15840175.62866211,-16659955.978393555,-7806467.533111572,-5017641.067504883,1209639.4300460815,1884078.5026550293,-7785951.614379883,-16693561.553955078,-8805180.549621582,-204199.58233833313,-9115349.769592285
0.2,39748748.779296875,129474777.22167969,17889101.028442383,325194.26941871643,-13057597.160339355,15572600.364685059,-956359.6844673157,-2483038.4254455566,-2540486.3357543945,6689594.745635986,-15885435.104370117,-13056936.264038086,-18371704.1015625,-27529060.36376953,20890888.214111328,-1682214.0216827393,-2392782.211303711,-1998342.514038086,-778785.1095199585,-15599025.72631836,-9143356.323242188,-5857803.3447265625,-33288719.177246094,-4608993.5302734375,-7070049.285888672,-2293157.5775146484,-2086270.5707550049,1211456.1796188354,-943233.2515716553,1263635.8737945557,-4368573.6656188965,4679731.369018555,-11883673.667907715,-11218496.322631836,-6049437.522888184,-5746912.002563477,-20134105.682373047,-10118718.147277832,-7005652.904510498,-30677598.95324707,-1951988.8162612915,-12330855.369567871,-12800464.630126953,-12139263.153076172,-3741994.3809509277,-9250131.607055664,-11917319.297790527,4689181.327819824,-12698928.833007812,1462693.0952072144,-12983401.29852295,-11958512.306213379,-12959313.39263916,-9143148.422241211,-11562716.484069824,-185186.04338169098,388084.20300483704,-8912631.034851074,-12935883.522033691,-10059320.449829102,-4607135.29586792,-7991692.066192627
0.205,46179756.16455078,142104156.49414062,32626197.814941406,180251.65796279907,-9841630.935668945,19758455.276489258,-2469857.931137085,-3949368.476867676,-4047479.1526794434,5271196.365356445,-17428337.09716797,-14342960.357666016,-20666643.142700195,-23028579.711914062,23610776.901245117,-3065302.610397339,-3882755.994796753,-3589838.981628418,-4523675.441741943,-18293985.36682129,-11409194.946289062,-6917967.796325684,-31899404.525756836,659217.357635498,-4301151.752471924,-3749306.2019348145,-3789119.9588775635,-709081.4709663391,-594174.3850708008,-657683.7301254272,-4839919.090270996,4427842.140197754,-9797988.891601562,-9046573.638916016,-4005853.1761169434,-6710761.547088623,-22105346.6796875,-11732164.38293457,-9323622.703552246,-34992965.69824219,-4034744.7395324707,-10296105.38482666,-10638113.975524902,-10077654.838562012,-2192083.3587646484,-12264616.966247559,-14380694.389343262,337572.99184799194,-18558229.446411133,-1807399.6305465698,-10790280.34210205,-9849999.42779541,-10877077.102661133,-11947112.083435059,-20086088.180541992,-8491405.487060547,-8157521.2478637695,-11916756.629943848,-10884205.81817627,-12900438.30871582,-13973157.88269043,-11813231.468200684
0.21,54158130.64575195,155257171.63085938,44240570.068359375,-3946932.792663574,-11615180.015563965,17346263.885498047,-5032980.918884277,-6335563.182830811,-6426557.540893555,2201367.6166534424,-22238718.032836914,-18422040.939331055,-29023298.263549805,-28591650.009155273,20158843.994140625,-5498717.308044434,-6200127.601623535,-6055594.444274902,-7410791.873931885,-22856033.325195312,-16084678.649902344,-13628159.523010254,-38085865.02075195,637017.1904563904,-5566709.518432617,-6271349.4300842285,-6415627.002716064,-1279118.299484253,-2823665.142059326,-5370808.124542236,-9168353.080749512,-2883107.1853637695,-14490459.442138672,-13564638.137817383,-4738178.253173828,-7673708.438873291,-22054759.979248047,-13745258.331298828,-13811014.175415039,-41096439.361572266,-11371089.935302734,-14915826.797485352,-15050329.208374023,-14659654.61730957,-2284153.2230377197,-18485715.866088867,-16264804.84008789,-5887290.954589844,-26807153.701782227,-10943717.002868652,-15181819.915771484,-14449066.162109375,-15309380.531311035,-17993223.190307617,-27171529.76989746,-20742658.615112305,-20572834.014892578,-18492238.998413086,-15451618.194580078,-19099840.16418457,-24642557.14416504,-21236280.44128418
0.215,74043693.54248047,172539138.7939453,51549098.96850586,-39675.69395899773,-13781044.960021973,18857284.545898438,-3061397.075653076,-4177331.9244384766,-4403551.10168457,4013518.3334350586,-22406585.693359375,-19300691.604614258,-35569099.42626953,-35834449.768066406,18509771.3470459,-3538873.9109039307,-3992685.317993164,-3925400.2571105957,-5421791.076660156,-24225137.71057129,-17802402.49633789,-20080783.84399414,-46499336.24267578,-1471949.2197036743,-7444319.725036621,-4361425.399780273,-4416282.176971436,57071.346789598465,-3727746.2482452393,-8154273.986816406,-13132306.098937988,-10488528.25164795,-21104427.337646484,-20105201.721191406,-6508358.478546143,-8794304.847717285,-20890682.220458984,-15755459.785461426,-17573556.900024414,-45544097.900390625,-18211269.37866211,-21391408.920288086,-21433431.62536621,-21091180.8013916,-4522525.787353516,-24564027.786254883,-17760526.657104492,-11303012.84790039,-32701873.779296875,-19847141.26586914,-21615837.09716797,-21063198.08959961,-21741731.643676758,-24075971.603393555,-31682300.567626953,-29364343.643188477,-29117670.0592041,-24901374.81689453,-22034027.099609375,-25306243.896484375,-31584640.502929688,-29317060.470581055
0.22,117934120.17822266,210034591.6748047,73109741.2109375,23857212.06665039,-4347982.406616211,35415802.001953125,6143906.116485596,5015359.401702881,4469163.89465332,14455824.851989746,-11651358.604431152,-11966428.756713867,-31120147.705078125,-33255805.96923828,27357906.341552734,5455000.877380371,5111811.16104126,5216872.215270996,1136075.6158828735,-19186763.763427734,-13382357.597351074,-18964509.963989258,-47996726.989746094,1605608.2248687744,-4329031.944274902,4636943.817138672,4634617.805480957,1814925.6706237793,27856.534346938133,-5913780.689239502,-12080970.764160156,-11132154.46472168,-22177240.3717041,-21289279.93774414,-6485714.435577393,-9847591.400146484,-21571979.522705078,-17230512.619018555,-18525657.653808594,-46280315.39916992,-19288610.458374023,-22424983.978271484,-22578168.869018555,-22095022.201538086,-7289323.806762695,-25977155.685424805,-19002220.153808594,-13044967.651367188,-33109477.996826172,-21921318.05419922,-22844066.619873047,-22259014.129638672,-22972866.05834961,-25642578.125,-33487327.575683594,-29705209.732055664,-29211240.768432617,-26237129.21142578,-23237777.709960938,-26831493.377685547,-32374992.37060547,-30413118.362426758
0.225,188233032.2265625,279397644.04296875,130797790.52734375,66642700.1953125,26269769.6685791,62177997.58911133,18686178.20739746,17284515.380859375,16464479.446411133,30453683.853149414,8610897.064208984,4325647.830963135,-13999300.003051758,-20593679.428100586,42460811.614990234,17620143.89038086,17190204.620361328,17340646.743774414,8353018.760681152,-9832957.26776123,-4995414.257049561,-10356016.159057617,-41921150.20751953,7595489.978790283,2224051.7139434814,16843708.038330078,16690565.10925293,2287253.3798217773,6717629.909515381,-1087077.1408081055,-7577776.4320373535,-7996632.099151611,-20068634.033203125,-19268894.19555664,-5893638.134002686,-11222122.192382812,-25783447.265625,-18382806.7779541,-18190223.693847656,-45747322.08251953,-18506870.26977539,-20398347.854614258,-20749351.501464844,-20078029.63256836,-10794732.093811035,-26016332.626342773,-21009643.5546875,-12302071.571350098,-31635408.401489258,-20395927.42919922,-21064476.013183594,-20290985.107421875,-21269535.064697266,-25876396.17919922,-35207798.00415039,-27633005.142211914,-26974412.91809082,-25978031.158447266,-21292041.778564453,-26877416.610717773,-32469032.287597656,-30628776.55029297
0.23,266132690.4296875,363740295.41015625,215509643.5546875,110838562.01171875,71424308.77685547,82110130.3100586,27982858.657836914,26280885.696411133,25428466.796875,45314300.537109375,30527576.446533203,25573329.92553711,8384815.216064453,-7116143.226623535,50665298.46191406,26524101.25732422,25984102.249145508,26106344.22302246,13278928.756713867,-917364.5973205566,3248433.1130981445,-1018962.7408981323,-36199733.73413086,6626033.782958984,4974523.067474365,25772935.86730957,25397285.46142578,1689249.5155334473,11570603.370666504,1605740.5471801758,-5192068.099975586,-9937637.329101562,-23837345.123291016,-22866809.844970703,-8012585.639953613,-13735317.23022461,-31691194.534301758,-19683389.66369629,-19414859.771728516,-47907169.342041016,-23949981.689453125,-24221023.559570312,-24671783.447265625,-23948940.27709961,-16749641.418457031,-32757225.036621094,-25130575.18005371,-13701845.169067383,-34792884.826660156,-24579309.463500977,-25004245.75805664,-24144027.709960938,-25372896.194458008,-32779212.951660156,-41250537.87231445,-33716663.3605957,-33161701.202392578,-32696479.79736328,-25187004.08935547,-33613346.099853516,-40557224.27368164,-40395366.66870117
0.235,315888427.734375,420367095.9472656,281596099.8535156,133926834.10644531,106589195.25146484,85180145.26367188,30633893.966674805,28910139.083862305,28157722.47314453,53462211.60888672,44716407.775878906,42726112.365722656,24199506.759643555,-140780.79164028168,46838977.8137207,28993156.43310547,28425209.045410156,28521020.889282227,15497673.034667969,4021952.6290893555,8622433.66241455,3140583.276748657,-36294380.18798828,-2413832.426071167,1405871.033668518,28198587.41760254,27757890.701293945,1373931.0503005981,12157257.080078125,641519.7849273682,-7254010.200500488,-18145284.65270996,-34052230.83496094,-32751972.198486328,-12224621.772766113,-16854509.353637695,-35555450.439453125,-20588502.883911133,-22090488.43383789,-52519378.662109375,-35251529.693603516,-34362045.28808594,-34786663.05541992,-34154922.48535156,-23656347.274780273,-45573612.213134766,-30319379.806518555,-18707126.61743164,-42592815.39916992,-35597293.853759766,-35112838.74511719,-34390586.853027344,-35656784.05761719,-45685794.830322266,-51049034.118652344,-48077987.67089844,-47793312.072753906,-45855335.2355957,-35529640.197753906,-46543361.66381836,-55701599.12109375,-57100845.33691406
0.24,309902496.3378906,416137054.4433594,287328125.0,124996688.84277344,107937194.82421875,76357879.63867188,27426031.1126709,25962949.752807617,25220491.409301758,52363014.221191406,45106674.19433594,44924942.01660156,24182312.01171875,-874756.3362121582,39309127.80761719,25928522.10998535,25335292.81616211,25520750.045776367,15171446.800231934,3798346.0426330566,9354602.813720703,1362760.1861953735,-39658794.40307617,-7863790.512084961,-3132145.1663970947,25045209.884643555,24724449.157714844,1500589.13230896,10213109.970092773,-1592571.3777542114,-10910707.473754883,-24214925.76599121,-39682479.85839844,-38244865.41748047,-14465142.250061035,-18641944.885253906,-35704235.0769043,-19845834.732055664,-23120088.577270508,-54730895.99609375,-41700004.57763672,-39877662.658691406,-40282444.00024414,-39738418.57910156,-26523992.53845215,-52605163.57421875,-32729080.200195312,-22326904.296875,-46901962.28027344,-42309036.25488281,-40537700.65307617,-40009536.74316406,-41181030.2734375,-52708259.58251953,-56261550.90332031,-56933013.916015625,-56766101.8371582,-53158145.904541016,-41249736.78588867,-53772300.720214844,-64695014.95361328,-64704437.255859375
0.245,252521789.55078125,358012695.3125,236537078.85742188,90762863.15917969,74343688.96484375,63737140.65551758,20127279.28161621,18903581.619262695,18088003.158569336,42496520.99609375,32159248.35205078,27895790.100097656,7260367.393493652,-8381513.595581055,36069538.11645508,18979360.580444336,18297872.54333496,18662815.09399414,11947884.559631348,-1073957.920074463,3988782.6442718506,-4296223.163604736,-41620597.83935547,-2371299.5052337646,-4168968.677520752,18045345.306396484,17875699.996948242,816386.2228393555,8505929.946899414,-2790930.5095672607,-13096302.032470703,-21773681.640625,-33125083.923339844,-31906997.680664062,-13485259.056091309,-18118122.100830078,-34080127.71606445,-17440145.49255371,-20912422.18017578,-51356410.98022461,-34735584.2590332,-33303344.7265625,-33758384.704589844,-33242374.420166016,-22915418.62487793,-45545833.587646484,-29791666.03088379,-19185249.32861328,-41484466.552734375,-34917724.609375,-33903980.25512695,-33396476.74560547,-34528343.200683594,-45559394.83642578,-49696193.69506836,-48608539.58129883,-48218929.290771484,-45958518.981933594,-34614532.470703125,-46802021.02661133,-57089691.162109375,-53741458.892822266
0.25,176715072.63183594,284575195.3125,171331939.69726562,47542530.05981445,28302213.668823242,47698085.78491211,10036014.556884766,8830073.356628418,8054245.948791504,27390645.98083496,12902563.095092773,-55326.89392566681,-18273750.30517578,-21110292.434692383,33709487.91503906,9236400.604248047,8470010.757446289,8958581.924438477,6239813.804626465,-8721478.462219238,-6619145.393371582,-12157220.840454102,-41916828.15551758,5106865.406036377,-4298048.496246338,8317492.485046387,8230513.572692871,-1291621.208190918,7618370.056152344,-3535290.7180786133,-14344365.119934082,-14520530.700683594,-20992063.522338867,-20133565.90270996,-12345946.311950684,-16429065.704345703,-33447196.96044922,-15195008.277893066,-17973579.40673828,-45531475.06713867,-19078704.833984375,-21246370.315551758,-21707262.03918457,-21281204.223632812,-16380090.713500977,-30925317.764282227,-23888278.96118164,-11276891.708374023,-30672613.1439209,-18562774.658203125,-21862825.393676758,-21190296.173095703,-22331769.943237305,-30852548.599243164,-35590660.095214844,-28983791.35131836,-28214450.83618164,-30979801.177978516,-22230339.05029297,-32044292.449951172,-38993515.01464844,-33940483.09326172
0.255,118266281.12792969,232081024.16992188,129563781.73828125,11005781.173706055,-4369514.942169189,27466495.513916016,-102560.29665470123,-1371603.1312942505,-1925348.5202789307,13214104.652404785,-2986633.777618408,-22855432.510375977,-39349060.05859375,-33822834.01489258,25930990.21911621,-634475.7080078125,-1426783.561706543,-970043.8976287842,252126.60431861877,-15941437.721252441,-17639585.494995117,-20225339.889526367,-42626659.39331055,2603693.0084228516,-7405748.36730957,-1553441.047668457,-1580783.486366272,-3687642.0974731445,6534742.35534668,-5472745.418548584,-16415784.83581543,-10295944.213867188,-14914256.09588623,-14234971.046447754,-13032944.679260254,-15183333.396911621,-34012332.916259766,-14550518.035888672,-17548980.712890625,-42815986.63330078,-7855465.888977051,-15213731.76574707,-15535527.229309082,-15338127.136230469,-12189690.589904785,-21754442.21496582,-20112298.9654541,-6083030.700683594,-24217733.38317871,-7955187.797546387,-15898962.97454834,-15055363.655090332,-16111097.33581543,-21658891.677856445,-25853347.778320312,-15037273.406982422,-14088525.772094727,-21631813.049316406,-15922607.421875,-22614267.349243164,-26103990.55480957,-21921802.520751953
0.26,91779052.734375,210758636.47460938,117552268.9819336,-9283164.024353027,-14592620.849609375,10532032.96661377,-5935593.128204346,-7143511.772155762,-7436941.146850586,5736412.525177002,-9366652.488708496,-30106817.2454834,-46995582.580566406,-39451522.82714844,16675275.802612305,-6251972.675323486,-7079617.977142334,-6753939.151763916,-3375978.946685791,-19497116.088867188,-23230091.094970703,-25073112.48779297,-43301498.41308594,-6326460.361480713,-11369414.329528809,-7261865.139007568,-7187913.89465332,-4942841.053009033,5221869.468688965,-8242685.317993164,-18662750.244140625,-11128413.200378418,-16681615.829467773,-15918516.159057617,-13681577.682495117,-14885949.13482666,-34104263.30566406,-14587292.671203613,-19029458.99963379,-43864871.978759766,-7700318.813323975,-16932075.50048828,-17081295.013427734,-17086927.41394043,-11775654.792785645,-21838314.056396484,-20462284.088134766,-7028863.430023193,-25020864.486694336,-9590512.2756958,-17650447.845458984,-16772012.710571289,-17652526.85546875,-21741762.161254883,-25746744.15588379,-14582109.451293945,-13765764.236450195,-21782407.760620117,-17655294.41833496,-22502689.361572266,-24895036.697387695,-21689029.693603516
0.265,87483764.6484375,208216613.76953125,120030113.22021484,-12737070.083618164,-11452667.236328125,6237942.218780518,-5554511.070251465,-6639640.331268311,-6763059.616088867,5952356.338500977,-7302627.086639404,-25226846.69494629,-42594722.747802734,-36586647.033691406,15639459.609985352,-5731234.550476074,-6666497.230529785,-6401808.261871338,-3890894.889831543,-18586294.174194336,-21919130.325317383,-24370071.411132812,-41637458.80126953,-7890249.729156494,-11305537.223815918,-6866218.090057373,-6679840.564727783,-5023285.388946533,5034571.170806885,-9888890.266418457,-18970544.815063477,-12555877.685546875,-18592340.46936035,-17630897.521972656,-12509414.672851562,-15380319.595336914,-33311180.114746094,-13475064.277648926,-19003459.930419922,-44071598.052978516,-12499132.15637207,-18763319.01550293,-18897205.352783203,-18860071.182250977,-12940824.508666992,-24158439.63623047,-22039344.787597656,-9670272.827148438,-26811471.939086914,-15255039.21508789,-19398786.544799805,-18606742.85888672,-19409673.6907959,-24018817.901611328,-28628028.869628906,-19267887.115478516,-18666219.71130371,-24149806.97631836,-19668920.516967773,-24742948.532104492,-27463159.561157227,-23910200.119018555
0.27,84699050.90332031,205756698.60839844,121359382.62939453,-9111653.327941895,-9629893.30291748,12069762.229919434,-2460974.931716919,-3551820.755004883,-3575676.441192627,8681757.926940918,-3363612.174987793,-20212779.998779297,-35924709.32006836,-32319423.67553711,23268747.329711914,-2634060.859680176,-3675293.9224243164,-3282169.3420410156,-3202191.5912628174,-16147850.036621094,-18261091.232299805,-20516345.977783203,-38004337.310791016,1132375.4787445068,-7288763.523101807,-3785385.1318359375,-3580625.057220459,-5064000.606536865,6569607.257843018,-10078429.222106934,-17439579.010009766,-10847632.40814209,-15518954.277038574,-14380481.719970703,-10725803.37524414,-16367620.468139648,-33210544.58618164,-11460532.188415527,-16613275.527954102,-40541332.24487305,-12777885.437011719,-15653544.425964355,-15925859.451293945,-15650934.219360352,-13567450.523376465,-22309925.079345703,-21402805.32836914,-8657239.91394043,-24177791.595458984,-14237181.663513184,-16130113.60168457,-15433273.315429688,-16346403.121948242,-22135934.829711914,-26477451.32446289,-18209144.592285156,-17673255.920410156,-22185708.99963379,-16641174.31640625,-22870016.09802246,-24763177.8717041,-20957910.537719727
0.275,71094993.5913086,193593750.0,115883430.48095703,-10854981.422424316,-16068313.598632812,15554349.899291992,-1908465.86227417,-3099790.334701538,-3056636.095046997,7515043.258666992,-3386484.146118164,-22740667.34313965,-35574195.861816406,-34149703.97949219,29456279.754638672,-2163125.514984131,-3199745.8934783936,-2566495.418548584,-3924388.1702423096,-16279644.012451172,-18012504.57763672,-18930606.842041016,-35957870.48339844,9233088.493347168,-4057528.495788574,-3165745.0199127197,-3102624.1779327393,-5905640.602111816,8522640.228271484,-10937092.781066895,-16719409.942626953,-7265167.713165283,-10258724.212646484,-8990457.534790039,-9767655.372619629,-17031408.309936523,-34758304.595947266,-10718544.960021973,-15016118.049621582,-35953090.66772461,-7410969.7341918945,-10390087.127685547,-10760609.62677002,-10335073.471069336,-13245458.602905273,-17432365.41748047,-18859233.856201172,-4923382.759094238,-19713302.612304688,-6495005.130767822,-10772788.047790527,-10080937.385559082,-11153666.496276855,-17336160.65979004,-20478788.375854492,-11569699.28741455,-10986913.681030273,-17186998.36730957,-11300144.19555664,-18021532.05871582,-17840913.772583008,-15095736.503601074
0.28,51512996.673583984,175814453.125,106705993.65234375,-20779487.60986328,-26837451.934814453,10209555.625915527,-4938547.611236572,-6113710.403442383,-6093457.6988220215,1231965.5418395996,-7732760.906219482,-30338094.71130371,-41436862.94555664,-41267951.96533203,27703327.178955078,-5223605.632781982,-6171562.671661377,-5416932.106018066,-6649652.95791626,-19751781.463623047,-22189657.21130371,-21726741.790771484,-37644416.80908203,7844778.537750244,-4080472.946166992,-6024183.27331543,-6203352.451324463,-7458510.875701904,9381371.49810791,-13792956.352233887,-18224470.138549805,-4812226.77230835,-7219968.318939209,-5883651.256561279,-8858243.942260742,-16699499.130249023,-36849864.9597168,-12056097.030639648,-16407817.840576172,-33763839.72167969,-2441426.2771606445,-7345467.090606689,-7660325.527191162,-7307592.868804932,-12524900.436401367,-13633862.495422363,-17129749.298095703,-2931604.8622131348,-18418834.686279297,419124.6032714844,-7770725.727081299,-6985177.516937256,-8109879.493713379,-13671712.875366211,-17346841.81213379,-6667002.6779174805,-6072893.142700195,-13425409.317016602,-8180109.024047852,-14342202.186584473,-13087596.893310547,-11508388.51928711
0.285,40645786.28540039,164611984.2529297,101916603.0883789,-29256574.630737305,-33089767.456054688,2820898.7712860107,-7751567.840576172,-8767565.727233887,-8902617.454528809,-5118639.4691467285,-11844885.82611084,-35526569.36645508,-46225173.95019531,-46445503.23486328,22838071.823120117,-7988362.789154053,-8882943.153381348,-8247014.999389648,-9157010.078430176,-22743032.455444336,-26484531.40258789,-24833646.774291992,-40758247.37548828,2499902.9636383057,-5121049.404144287,-8700133.323669434,-9053670.883178711,-8986180.305480957,9167156.219482422,-16782907.485961914,-20074119.567871094,-4003732.204437256,-6730828.762054443,-5438156.1279296875,-7379000.663757324,-16284425.735473633,-38048400.87890625,-13539457.321166992,-18547559.73815918,-33171905.517578125,-1374338.0308151245,-6867025.852203369,-7063335.89553833,-6835994.720458984,-12314953.804016113,-12250338.554382324,-17454111.099243164,-3787517.309188843,-19783393.85986328,2682538.2709503174,-7382001.3999938965,-6504258.155822754,-7591660.976409912,-12257815.36102295,-19293411.254882812,-6662609.100341797,-6087413.311004639,-12138625.144958496,-7738530.63583374,-13066741.943359375,-12562448.501586914,-10576252.937316895
0.29,46127925.872802734,167263381.9580078,107888031.00585938,-26926143.646240234,-30170497.89428711,2983119.7261810303,-6865793.228149414,-7794077.396392822,-8130702.018737793,-6144863.128662109,-11346988.677978516,-34437351.22680664,-44234897.61352539,-45288761.138916016,22492229.461669922,-7097655.773162842,-8008628.845214844,-7572216.987609863,-8873747.825622559,-21290094.37561035,-26633342.742919922,-23308591.842651367,-41316013.33618164,2569211.483001709,-4547942.638397217,-7864680.290222168,-8204370.498657227,-9615096.092224121,8687615.394592285,-17405141.830444336,-20059658.05053711,-3430229.1870117188,-6894167.900085449,-5740533.351898193,-6752072.811126709,-17320034.02709961,-38389328.00292969,-13321994.78149414,-18616031.646728516,-31879362.106323242,-1878533.4825515747,-7089303.493499756,-7231588.363647461,-6977281.093597412,-13264557.838439941,-12429944.038391113,-18981618.881225586,-5169151.782989502,-20011127.471923828,2442705.1544189453,-7614270.210266113,-6774313.449859619,-7832608.699798584,-12166946.411132812,-22760898.59008789,-9130486.488342285,-8500203.132629395,-12272884.368896484,-8031703.948974609,-13152692.794799805,-13764775.276184082,-9913330.078125
0.295,61328758.239746094,179224548.33984375,123073516.84570312,-16121990.203857422,-21232963.56201172,11314174.65209961,-2831822.395324707,-3851057.291030884,-4302976.608276367,-2000933.4087371826,-6269033.432006836,-29169437.408447266,-37197608.947753906,-40208427.42919922,27269966.12548828,-3176071.4054107666,-4082445.1446533203,-3688229.3224334717,-5964156.627655029,-16230934.143066406,-23095779.418945312,-17990175.247192383,-38451313.01879883,8236533.164978027,-2334585.428237915,-3992222.785949707,-4220107.078552246,-8872711.181640625,8146611.213684082,-16162185.668945312,-18856161.11755371,-2987113.9526367188,-6884245.3956604,-5842283.725738525,-7522783.7562561035,-19021183.013916016,-38506347.65625,-12163210.86883545,-17903367.99621582,-30937370.30029297,-1866510.6296539307,-7151327.133178711,-7300717.353820801,-6908788.681030273,-14602159.50012207,-13802530.288696289,-21043088.912963867,-6401465.892791748,-19154695.510864258,856585.5622291565,-7600649.356842041,-6939764.022827148,-8007588.3865356445,-13285533.905029297,-25193378.448486328,-12655669.212341309,-11936033.248901367,-13469079.01763916,-8086009.979248047,-14251681.327819824,-15558898.92578125,-9708607.67364502
0.3,74123580.93261719,189792633.05664062,138760269.16503906,-6587971.210479736,-13039571.762084961,20741216.6595459,1364671.5879440308,237456.21740818024,-210044.36910152435,2461283.9221954346,-518509.6263885498,-23887186.05041504,-31419668.197631836,-36212654.11376953,32552974.700927734,881416.4400100708,74541.55385494232,577055.5138587952,-3183267.831802368,-12119371.41418457,-19754156.1126709,-14486761.093139648,-35613704.681396484,13335170.74584961,513865.29207229614,178824.00751113892,-79184.35335159302,-7217279.91104126,7796150.207519531,-15571152.687072754,-18708173.751831055,-4443772.792816162,-6475423.812866211,-5416939.258575439,-7266792.774200439,-18515979.766845703,-38254653.93066406,-11836142.539978027,-19363344.192504883,-32794731.14013672,-3299701.21383667,-6763782.978057861,-6909379.005432129,-6442129.135131836,-14615227.699279785,-16114328.384399414,-23720600.128173828,-9058504.104614258,-20633043.28918457,-3993683.099746704,-7140199.661254883,-6653006.076812744,-7766399.86038208,-15655240.058898926,-27700977.325439453,-18069429.397583008,-17386114.1204834,-15690648.078918457,-7641782.283782959,-16403867.721557617,-18998151.779174805,-11975411.415100098
0.305,77951103.21044922,191703384.39941406,146197937.01171875,-3951043.3673858643,-9996808.052062988,24862245.559692383,3578710.0791931152,2466788.5303497314,2082510.4713439941,3374373.197555542,2034929.5139312744,-21119413.375854492,-30885208.129882812,-36451992.03491211,34970230.10253906,3045987.844467163,2375257.730484009,2924613.7142181396,-2520171.642303467,-11645477.294921875,-19122436.5234375,-16214330.673217773,-37323059.08203125,14919804.573059082,3171433.448791504,2575892.210006714,2037961.0061645508,-5845503.330230713,8858693.12286377,-16479410.171508789,-20341037.75024414,-9014842.987060547,-5439072.132110596,-4274127.960205078,-4429392.337799072,-15246145.248413086,-37498222.35107422,-12506493.56842041,-22446741.104125977,-36443637.84790039,-8210660.934448242,-5703499.794006348,-5826757.907867432,-5384346.008300781,-13370016.098022461,-18299606.323242188,-26392887.115478516,-12917637.825012207,-24938442.23022461,-11600890.159606934,-6062520.980834961,-5579445.838928223,-6801348.2093811035,-18120298.385620117,-30975366.592407227,-23863191.604614258,-23350831.985473633,-17975038.528442383,-6600113.868713379,-18721490.85998535,-23459527.96936035,-16391765.594482422
0.31,72220817.56591797,183597747.80273438,142068817.13867188,-7101521.015167236,-12903900.146484375,22283279.418945312,3565650.463104248,2485182.762145996,2168230.7720184326,1259626.6269683838,655835.211277008,-21662599.563598633,-34713352.20336914,-41951538.0859375,33891090.393066406,3066275.8350372314,2428383.1119537354,2900436.6397857666,-2959882.4977874756,-13165710.44921875,-20350727.081298828,-21115545.27282715,-44819084.16748047,14094877.243041992,4188690.185546875,2731365.203857422,1858630.5379867554,-5572324.275970459,11943308.83026123,-17676004.40979004,-23020231.246948242,-15427528.381347656,-4868556.976318359,-3620426.4163970947,-1910502.1953582764,-12794768.333435059,-37319675.44555664,-13340017.318725586,-24276210.78491211,-38836898.80371094,-14594184.875488281,-5115303.516387939,-5242571.830749512,-4837233.066558838,-13418313.980102539,-19654844.284057617,-27903285.98022461,-15646371.841430664,-28929677.963256836,-17220582.962036133,-5515560.150146484,-4845827.102661133,-6218634.605407715,-19594135.284423828,-33342815.399169922,-26414854.049682617,-25996875.762939453,-19453680.03845215,-6149683.475494385,-20284511.56616211,-26449842.45300293,-20160453.79638672
0.315,60712398.529052734,170068222.04589844,131464279.17480469,-12389876.365661621,-19128707.885742188,16426832.19909668,2607897.996902466,1440428.614616394,1180783.2717895508,-426206.111907959,-1821659.803390503,-24236736.297607422,-38794307.708740234,-50460796.35620117,30474054.33654785,2153847.9328155518,1370139.9564743042,1838672.8763580322,-2126254.5585632324,-13651493.072509766,-21011562.34741211,-24804479.598999023,-53633262.634277344,11620466.232299805,2587601.900100708,1732143.6405181885,768877.3274421692,-5938856.12487793,15162393.569946289,-18271116.256713867,-25937597.274780273,-20335723.876953125,-6690290.927886963,-5433063.03024292,-3223042.9649353027,-14197181.701660156,-38618301.39160156,-14292687.41607666,-24527467.727661133,-39704570.77026367,-18656465.530395508,-6926195.6214904785,-7088539.123535156,-6707401.275634766,-16156030.654907227,-20922126.77001953,-28367080.688476562,-16729146.957397461,-30980667.114257812,-17858736.038208008,-7438052.654266357,-6514101.505279541,-7974390.029907227,-20687112.80822754,-34094684.60083008,-25566749.572753906,-25010887.145996094,-20690658.569335938,-8116906.16607666,-21542015.075683594,-27459886.55090332,-21808540.34423828
0.32,52850551.60522461,161384582.51953125,126617103.57666016,-15511376.38092041,-22708690.643310547,13223527.908325195,2629814.386367798,1347766.0417556763,1135045.1707839966,738133.3708763123,-1643588.4237289429,-25147033.69140625,-38778560.638427734,-55111442.56591797,27771251.678466797,2218138.9331817627,1191523.9095687866,1860159.2779159546,312304.0497303009,-12329191.207885742,-19650005.340576172,-24869249.34387207,-56279953.00292969,8385951.995849609,382812.82782554626,1612887.2632980347,858550.1909255981,-5931515.693664551,15926027.297973633,-18128175.735473633,-27528406.143188477,-20600896.83532715,-10453277.587890625,-9222950.93536377,-6667825.698852539,-17372783.660888672,-40177810.66894531,-15359904.289245605,-24914543.15185547,-40543342.59033203,-18708631.51550293,-10644186.019897461,-10841468.811035156,-10512527.465820312,-19059186.935424805,-22980792.999267578,-28946866.989135742,-17771289.825439453,-32140693.66455078,-15853492.736816406,-11306271.55303955,-10220963.478088379,-11664633.750915527,-22603767.39501953,-34993782.04345703,-25117370.60546875,-24319406.509399414,-22670328.14025879,-11884861.946105957,-23465955.73425293,-28729988.09814453,-22833526.611328125
0.325,60833110.80932617,168685455.32226562,138754638.671875,-11394052.505493164,-17044513.702392578,16198432.922363281,4570537.567138672,3310349.464416504,3137526.750564575,4184848.7854003906,2482286.214828491,-20648937.225341797,-32669078.826904297,-49175067.90161133,28276065.826416016,4219570.159912109,3060410.499572754,3937767.98248291,2282212.018966675,-10364203.453063965,-16418886.184692383,-21664768.21899414,-49379379.27246094,6838166.236877441,744442.0456886292,3529227.9720306396,3048145.055770874,-5263498.783111572,14495639.80102539,-16442897.79663086,-25096544.26574707,-16226633.071899414,-13476825.714111328,-12257978.439331055,-7626927.375793457,-18134088.51623535,-39882965.087890625,-15161091.804504395,-24682931.900024414,-40121997.83325195,-15650973.320007324,-13605134.963989258,-13839785.5758667,-13550401.68762207,-19236139.29748535,-25786104.202270508,-29812349.319458008,-18632602.69165039,-32467079.162597656,-14801057.815551758,-14302206.993103027,-13274910.926818848,-14699233.055114746,-25602111.81640625,-37176959.99145508,-27018819.80895996,-26135562.896728516,-25604824.06616211,-14773912.42980957,-26347074.508666992,-31889812.469482422,-25499229.431152344
0.33,85258148.19335938,190988281.25,164504257.20214844,912545.6213951111,-2349725.0080108643,21989261.627197266,7068162.441253662,5918308.258056641,5786249.63760376,7544634.819030762,8168838.5009765625,-11752333.641052246,-23236637.115478516,-35631637.57324219,29650892.25769043,6765055.6564331055,5743497.848510742,6559723.377227783,2325533.390045166,-8620529.174804688,-12685648.918151855,-17424823.760986328,-38829662.32299805,6924767.971038818,2675312.280654907,6094168.186187744,5715944.766998291,-4509510.040283203,13593453.407287598,-12945407.86743164,-18628627.77709961,-11455583.572387695,-15326119.422912598,-14098898.887634277,-6136800.289154053,-16542139.053344727,-37878215.78979492,-12875784.873962402,-21751514.434814453,-36369392.39501953,-11799860.000610352,-15441701.889038086,-15742277.145385742,-15391559.600830078,-18563259.12475586,-28876794.815063477,-30186433.792114258,-17510187.14904785,-31020355.224609375,-15178520.202636719,-15924865.72265625,-15203577.995300293,-16659360.885620117,-29015201.568603516,-39148200.98876953,-28967668.533325195,-28234804.153442383,-29023973.46496582,-16507003.784179688,-29727626.80053711,-35729122.161865234,-29653553.009033203
0.335,108325531.00585938,210970169.0673828,184847396.85058594,13831698.417663574,11109964.370727539,24082359.313964844,7689656.2576293945,6557397.365570068,6464889.5263671875,8959607.124328613,11550820.350646973,-5047466.278076172,-17374521.255493164,-27053091.049194336,27002220.153808594,7356937.885284424,6670898.914337158,7187108.516693115,1446359.8728179932,-7308449.268341064,-10473241.806030273,-15256573.677062988,-34791881.5612793,4437669.75402832,1137747.883796692,6680360.794067383,6231719.017028809,-4206343.173980713,14245621.681213379,-10215550.422668457,-13519498.825073242,-10894438.743591309,-18422933.57849121,-17229097.366333008,-7265185.356140137,-16646232.604980469,-36551925.65917969,-10697486.877441406,-18031459.80834961,-31809255.599975586,-9640776.634216309,-18569375.99182129,-18954803.466796875,-18481199.264526367,-21527538.299560547,-31189321.517944336,-30238512.03918457,-15226535.79711914,-29298072.814941406,-15344799.995422363,-18737310.4095459,-18407451.629638672,-19805696.487426758,-31316095.35217285,-39053829.193115234,-28499658.584594727,-27986890.79284668,-31506345.748901367,-19593353.271484375,-32121902.465820312,-37336585.998535156,-31835376.739501953
0.34,108376029.96826172,209168472.29003906,182279373.1689453,16298349.380493164,11040230.751037598,21249326.705932617,5796406.269073486,4566904.067993164,4485934.257507324,7731074.333190918,10449832.916259766,-6808424.472808838,-20106521.606445312,-32204048.15673828,21439403.533935547,5351836.681365967,4915096.759796143,5197599.411010742,971767.6043510437,-7116365.432739258,-11323509.216308594,-16992538.452148438,-40435863.49487305,-1589408.7553024292,-4941093.921661377,4640124.320983887,4081780.9104919434,-4528129.100799561,14386568.069458008,-11355960.845947266,-15289631.843566895,-13823251.724243164,-22158792.49572754,-21114320.755004883,-12495765.686035156,-19834869.384765625,-37244499.20654297,-11518948.554992676,-18091089.248657227,-31104110.717773438,-9638671.875,-22290863.037109375,-22735685.348510742,-22212818.145751953,-27944059.371948242,-30439498.901367188,-30877107.620239258,-14976716.041564941,-29784463.88244629,-13945401.191711426,-22405685.424804688,-22253400.802612305,-23396377.563476562,-30147460.9375,-37143329.62036133,-26004529.95300293,-25601222.99194336,-30503181.45751953,-23381538.39111328,-31000276.565551758,-34740627.28881836,-28313322.067260742
0.345,81971427.91748047,183193099.97558594,158554473.87695312,4661525.726318359,-4616899.013519287,17995565.41442871,3064489.6030426025,1767006.516456604,1651528.000831604,3560122.7283477783,5447692.394256592,-16806427.001953125,-29193845.748901367,-46070201.8737793,20413549.423217773,2502453.565597534,2012451.8871307373,2324159.860610962,57307.59724974632,-8932222.366333008,-14958693.504333496,-21191152.572631836,-48632778.16772461,-4248040.676116943,-8875475.883483887,1856395.3638076782,1230177.402496338,-5608988.7619018555,12439829.82635498,-15030629.15802002,-22157108.306884766,-14981146.812438965,-21072111.129760742,-20255992.889404297,-15754171.371459961,-22315914.154052734,-38830204.010009766,-14469398.498535156,-21777185.440063477,-33382431.030273438,-9371162.414550781,-21125822.067260742,-21588111.877441406,-21096677.780151367,-32177158.35571289,-25585500.717163086,-31692424.774169922,-16935811.99645996,-31024328.231811523,-10656414.985656738,-21583675.384521484,-21257160.186767578,-22143489.837646484,-24904977.798461914,-35217235.56518555,-23201118.46923828,-22793104.17175293,-25194671.630859375,-22415548.32458496,-25669034.957885742,-29454565.048217773,-20432361.602783203
0.35,47095821.380615234,150219406.1279297,132009704.58984375,-13521753.311157227,-25033025.74157715,15387367.248535156,1028445.3630447388,-249640.12205600739,-400524.8248577118,-2807423.5916137695,-797597.8851318359,-28487880.70678711,-37316463.470458984,-56987964.63012695,25651552.200317383,423555.73177337646,-311049.84879493713,205559.93914604187,-2530732.8701019287,-11954907.417297363,-19113191.604614258,-24636665.34423828,-51697132.1105957,993727.8628349304,-5132784.366607666,-58201.32791996002,-667875.1707077026,-7182975.292205811,9992547.988891602,-16477272.033691406,-27333995.819091797,-12744822.50213623,-13593196.868896484,-12878767.013549805,-11946119.30847168,-20910074.23400879,-40053058.62426758,-15850472.450256348,-23926599.502563477,-33669231.41479492,-7645229.339599609,-13605653.762817383,-14065450.668334961,-13556846.618652344,-31420173.64501953,-20539602.279663086,-31551174.16381836,-18025871.27685547,-29721790.313720703,-7808420.181274414,-14474393.844604492,-13851268.768310547,-14777711.868286133,-19888549.8046875,-35394187.927246094,-22216180.8013916,-21784416.19873047,-19975502.014160156,-15205788.612365723,-20561624.52697754,-26941959.381103516,-15898192.405700684
0.355,27645925.521850586,133216476.44042969,121548683.1665039,-25607250.213623047,-35032600.40283203,8509200.096130371,-322226.9117832184,-1569160.9382629395,-1656405.0912857056,-7539059.638977051,-4116708.755493164,-33722915.64941406,-38886089.32495117,-59256732.94067383,27072126.388549805,-873692.9893493652,-1711423.9931106567,-987964.0936851501,-4806399.345397949,-13114485.740661621,-20691307.067871094,-25565143.585205078,-50148288.72680664,5680256.8435668945,596805.0956726074,-1295930.26638031,-1705300.5695343018,-7838676.929473877,9471639.633178711,-14029522.895812988,-28150964.736938477,-12603166.580200195,-8564933.776855469,-7664034.843444824,-6026350.498199463,-18177379.608154297,-41066650.390625,-14479167.938232422,-22622478.485107422,-32057861.328125,-8109472.274780273,-8630558.967590332,-9077259.063720703,-8492453.575134277,-30492723.46496582,-21606283.18786621,-31152774.810791016,-18094768.524169922,-27675745.010375977,-10626406.6696167,-9568985.939025879,-8873767.852783203,-10083220.481872559,-21301994.32373047,-39156913.75732422,-25849903.106689453,-25393232.345581055,-21316360.473632812,-10503726.959228516,-22004179.000854492,-31769216.537475586,-21150495.529174805
0.36,34284465.78979492,142592926.02539062,133005966.18652344,-24249834.060668945,-27915834.426879883,-3696374.6547698975,-1480092.167854309,-2708972.215652466,-2588278.5320281982,-6046777.725219727,-1305475.4734039307,-28726806.640625,-33826816.55883789,-54783184.05151367,16107494.354248047,-1924124.4792938232,-2562693.1190490723,-1710763.0968093872,-3286264.657974243,-10091984.748840332,-17996370.315551758,-24123743.057250977,-48374465.94238281,-1606979.6085357666,-2700372.4575042725,-2482870.34034729,-2477405.071258545,-6210798.740386963,10890819.549560547,-10843654.63256836,-27657833.099365234,-18303236.00769043,-15064410.209655762,-13862594.604492188,-7539484.977722168,-18725639.34326172,-41865337.37182617,-12824018.478393555,-21522174.835205078,-33262969.970703125,-13583549.499511719,-15187695.503234863,-15584889.41192627,-15042702.674865723,-34488162.994384766,-28246635.43701172,-31787658.69140625,-20224994.659423828,-29386362.075805664,-20029392.24243164,-15871721.267700195,-15349390.983581543,-16696926.11694336,-28227779.388427734,-44424625.396728516,-33252002.716064453,-32711303.7109375,-28337623.596191406,-17056314.46838379,-28982070.922851562,-39833671.56982422,-31127710.342407227
0.365,56297275.54321289,166659927.36816406,155600646.97265625,-13748351.097106934,-11822482.109069824,-12498496.055603027,-2444296.360015869,-3611794.4717407227,-3255129.337310791,414369.9109554291,5706301.689147949,-17652009.963989258,-25618858.337402344,-46672916.412353516,813817.3818588257,-2804316.997528076,-3151790.3804779053,-2286928.176879883,1032310.8434677124,-4879476.547241211,-12570132.2555542,-20297874.450683594,-45715801.23901367,-16086612.701416016,-15110223.770141602,-3482928.991317749,-3084122.896194458,-3364187.002182007,12563014.030456543,-8951736.450195312,-26842407.2265625,-23159440.994262695,-27309295.654296875,-26089099.884033203,-16738979.33959961,-22198484.420776367,-41241996.76513672,-12229626.655578613,-21790033.3404541,-35640441.89453125,-17989858.627319336,-27412820.81604004,-27705139.16015625,-27402467.727661133,-39845554.35180664,-30493450.164794922,-31470109.939575195,-23008325.576782227,-32034107.208251953,-26047666.549682617,-27879343.032836914,-27464334.48791504,-28621364.59350586,-30498632.431030273,-44310909.271240234,-35884239.196777344,-35232128.14331055,-30636648.178100586,-28903274.536132812,-31166612.62512207,-39489845.275878906,-31659645.080566406
0.37,68223403.93066406,178352981.5673828,167302291.8701172,-7711594.104766846,-4249188.423156738,-10390688.8961792,-3565101.146697998,-4656698.226928711,-4258392.810821533,3179279.327392578,9366736.41204834,-11046792.984008789,-19075502.395629883,-38560684.20410156,-2266669.0349578857,-3920487.642288208,-4205442.905426025,-3489058.73298645,1981293.9167022705,-2900486.469268799,-8964089.393615723,-14773598.670959473,-39055713.65356445,-20133480.072021484,-23219308.853149414,-4481033.3251953125,-4068537.2352600098,-2544011.5928649902,13635710.716247559,-6365919.589996338,-22574647.903442383,-17603654.861450195,-29153482.43713379,-28300825.119018555,-22801813.12561035,-23705757.14111328,-39053661.34643555,-10879442.21496582,-18977483.74938965,-30658510.208129883,-11685243.606567383,-29229558.94470215,-29397188.186645508,-29331172.943115234,-38515842.43774414,-20478305.81665039,-26528722.763061523,-19766624.450683594,-26787462.23449707,-16871377.94494629,-29705732.345581055,-29146366.119384766,-30068664.55078125,-20331739.42565918,-33681777.95410156,-25050405.502319336,-24410522.4609375,-20277151.107788086,-30200086.59362793,-20806480.407714844,-25162191.39099121,-15847685.813903809
0.375,53540630.34057617,161260070.80078125,153844863.89160156,-16188089.370727539,-15500601.768493652,-3549945.831298828,-5826191.425323486,-6941698.07434082,-6778427.1240234375,-4284181.594848633,3725462.9135131836,-16939640.045166016,-19359611.51123047,-37079898.834228516,8846640.586853027,-6234363.555908203,-6722057.819366455,-6254039.764404297,-3927755.355834961,-7347467.422485352,-11263271.33178711,-11927639.961242676,-32371654.510498047,-8722668.647766113,-17868988.037109375,-6559157.848358154,-6553380.012512207,-5268455.982208252,13847188.949584961,-2764869.451522827,-16056489.944458008,-4831165.313720703,-16077009.201049805,-15578657.150268555,-18265348.434448242,-21004657.745361328,-37520645.14160156,-8135779.38079834,-12326737.403869629,-18315635.681152344,3084134.340286255,-16200654.983520508,-16297040.939331055,-16250070.571899414,-29931791.305541992,-4438074.588775635,-18388051.986694336,-9990308.76159668,-13886811.256408691,2812234.401702881,-16753120.422363281,-15975833.892822266,-16938905.715942383,-4134344.1009521484,-18166349.411010742,-5937368.392944336,-5497540.473937988,-3814020.3952789307,-16884147.64404297,-4488068.580627441,-7368936.061859131,4970413.2080078125
0.38,25824413.299560547,131438934.32617188,127801834.10644531,-33344337.463378906,-35831253.05175781,-5206242.084503174,-9440168.380737305,-10655351.638793945,-10786278.72467041,-16829328.536987305,-7902791.500091553,-31270563.12561035,-28105262.756347656,-45787425.99487305,16707569.122314453,-9872975.34942627,-10546932.220458984,-10221086.502075195,-11935508.728027344,-15154851.913452148,-18728765.4876709,-17172262.19177246,-34742389.67895508,644834.9952697754,-7988045.692443848,-10139213.562011719,-10551450.729370117,-8920137.405395508,12035816.192626953,-3044307.9471588135,-15646945.95336914,-30225.545167922974,-3494774.81842041,-2943083.7631225586,-9642467.498779297,-17682209.014892578,-38174179.07714844,-7070172.7867126465,-9924360.275268555,-12780299.186706543,10686103.820800781,-3648093.9388275146,-3774886.6081237793,-3601150.5126953125,-22576330.184936523,3170794.725418091,-14084907.531738281,-4231006.622314453,-6867136.001586914,12339026.45111084,-4182818.88961792,-3341241.5981292725,-4482453.346252441,3520732.4028015137,-10786524.772644043,4003359.794616699,4218994.140625,3929355.8597564697,-4385092.258453369,3137564.4207000732,-2303794.3840026855,12482720.375061035
0.385,16214757.919311523,121954154.96826172,119074386.59667969,-42740283.96606445,-44480716.705322266,-17849985.122680664,-13092445.373535156,-14294143.676757812,-14454833.984375,-22796489.715576172,-15746666.90826416,-40646450.04272461,-39179290.771484375,-57035835.26611328,6826198.101043701,-13461576.461791992,-14070674.896240234,-13643424.987792969,-14822252.27355957,-20054830.55114746,-25650054.931640625,-28832294.464111328,-46474052.42919922,-8804209.70916748,-9310618.40057373,-13884246.826171875,-14317892.074584961,-9920007.705688477,7652072.429656982,-10082101.821899414,-25189130.783081055,-10518831.253051758,-7076488.018035889,-6229819.297790527,-8749337.196350098,-18021987.915039062,-39194274.90234375,-9720247.268676758,-17476062.774658203,-23502807.6171875,1711030.36403656,-7098272.323608398,-7333270.54977417,-7106012.82119751,-22648326.873779297,-2498953.342437744,-17139936.447143555,-10311929.702758789,-14399256.706237793,629204.4520378113,-7613800.048828125,-6801709.175109863,-7868982.791900635,-2253956.5563201904,-16445989.608764648,-3978026.866912842,-3797494.649887085,-1992489.0995025635,-7960781.574249268,-2726938.486099243,-11920884.132385254,2776435.136795044
0.39,33811656.9519043,140874053.95507812,138213027.95410156,-37273906.70776367,-34132358.55102539,-29778079.986572266,-15180009.841918945,-16196807.861328125,-16075160.98022461,-18288534.16442871,-14296925.54473877,-37015945.43457031,-42267745.97167969,-58561141.96777344,-12848814.010620117,-15432154.655456543,-15812831.87866211,-15168490.409851074,-12039391.51763916,-19098070.14465332,-26547784.80529785,-36589294.43359375,-55306221.00830078,-29400897.979736328,-22741127.014160156,-15976761.817932129,-16099170.684814453,-8360716.819763184,3481750.249862671,-17532203.674316406,-35211505.88989258,-24604721.069335938,-21999103.546142578,-21108030.319213867,-16962535.858154297,-21513137.817382812,-38317684.173583984,-12830967.903137207,-27382972.717285156,-38546558.38012695,-13182560.920715332,-21814855.575561523,-22157510.75744629,-21957040.786743164,-26975370.407104492,-11500556.945800781,-22210830.688476562,-20453433.990478516,-26092720.03173828,-17519357.681274414,-22427246.09375,-21559701.919555664,-22261566.162109375,-11431973.457336426,-25377964.01977539,-17892099.380493164,-17557786.94152832,-11389896.392822266,-22599752.42614746,-11957714.080810547,-22274751.663208008,-9983215.33203125
0.395,49694236.755371094,157230422.9736328,158559051.51367188,-28987020.49255371,-21202167.510986328,-30908807.7545166,-15386523.246765137,-16280078.887939453,-15858260.154724121,-11302008.628845215,-7795476.43661499,-27318416.595458984,-34722370.14770508,-50555015.563964844,-22398124.69482422,-15573517.799377441,-15815891.26586914,-15087046.62322998,-9136991.500854492,-14924023.628234863,-21720174.78942871,-32882644.653320312,-52086486.81640625,-39642349.24316406,-33260593.41430664,-16047613.143920898,-15926037.788391113,-7497161.865234375,3847846.746444702,-16577003.479003906,-34057720.18432617,-26803474.42626953,-30458417.892456055,-29890245.43762207,-24436891.555786133,-24415523.529052734,-37028808.59375,-12086569.786071777,-27832084.65576172,-38826866.149902344,-16934968.948364258,-30267290.115356445,-30649230.95703125,-30363658.905029297,-29625766.75415039,-13395519.256591797,-22672552.10876465,-21183958.053588867,-26148630.142211914,-20161794.662475586,-30969608.306884766,-30000387.19177246,-30461963.653564453,-13406686.782836914,-26314977.645874023,-20882249.83215332,-20380569.458007812,-13460287.094116211,-30844543.45703125,-13934913.635253906,-22840021.13342285,-12157359.12322998
0.4,34122421.26464844,141200363.1591797,149234024.04785156,-33132289.88647461,-25268760.681152344,-25295841.217041016,-14635011.672973633,-15701177.597045898,-15210804.93927002,-10342523.574829102,-4108935.832977295,-24531440.73486328,-26269432.067871094,-47202754.974365234,-15621496.200561523,-14888489.723205566,-15157910.346984863,-14541487.693786621,-9350087.16583252,-11833442.687988281,-16684591.293334961,-23206951.141357422,-43770084.381103516,-33415725.708007812,-30701047.897338867,-15213164.329528809,-15127836.227416992,-8953282.356262207,9071221.351623535,-8421433.448791504,-24354776.38244629,-18145723.342895508,-25898334.503173828,-25627792.358398438,-24075876.235961914,-24856601.71508789,-38529922.48535156,-8566581.726074219,-19572383.880615234,-24492227.55432129,-8435068.130493164,-25986381.53076172,-26323219.299316406,-25820453.643798828,-30145030.975341797,-10058786.392211914,-19769401.55029297,-12404006.004333496,-15355935.096740723,-6761022.090911865,-26578964.233398438,-25641185.760498047,-26304676.055908203,-9987292.289733887,-20852645.874023438,-12988989.83001709,-12385820.388793945,-9972618.103027344,-26491092.681884766,-10485015.869140625,-18857507.705688477,-6170958.042144775
0.405,-958250.105381012,106118812.56103516,118293342.59033203,-47674396.51489258,-43408332.82470703,-23700639.724731445,-14068754.196166992,-15495800.018310547,-15067114.83001709,-14396318.435668945,-5971199.512481689,-31330430.98449707,-27209541.32080078,-56174209.59472656,-5770399.570465088,-14488599.77722168,-14794563.293457031,-14331205.368041992,-10601340.293884277,-11492281.913757324,-16081933.975219727,-19365768.432617188,-42818996.42944336,-25290647.506713867,-22037218.09387207,-14750293.731689453,-14814612.38861084,-10848519.325256348,14101254.4631958,-3178766.7274475098,-19102203.369140625,-12062415.12298584,-18982728.958129883,-18674797.05810547,-19510753.631591797,-24002784.729003906,-42320022.58300781,-6981579.780578613,-14203283.309936523,-13726180.076599121,-978217.7805900574,-19369989.3951416,-19594917.29736328,-19023294.44885254,-31173528.67126465,-9580063.819885254,-19288190.841674805,-6304841.041564941,-7830215.4541015625,4462645.053863525,-19711404.80041504,-18932777.404785156,-20027280.807495117,-9394775.390625,-18437877.655029297,-7352511.405944824,-6630539.417266846,-9293829.917907715,-19988868.713378906,-9861127.853393555,-19841354.370117188,-3170579.671859741
0.41,-15521813.39263916,92018188.4765625,104398910.52246094,-56086589.81323242,-53793979.64477539,-27826177.5970459,-13886581.420898438,-15532590.866088867,-15062000.274658203,-16826667.78564453,-9640048.98071289,-37361396.78955078,-33854167.93823242,-65290779.11376953,-4818520.545959473,-14430325.508117676,-14684636.116027832,-14280236.24420166,-10721279.14428711,-12731438.636779785,-18888008.11767578,-23373216.62902832,-48212104.79736328,-26427385.330200195,-18450668.334960938,-14744455.337524414,-14851540.565490723,-11099378.58581543,14308806.419372559,-5734058.856964111,-22527297.973632812,-13563707.35168457,-19374792.098999023,-18847587.58544922,-17362405.77697754,-23227014.541625977,-44522510.52856445,-8601167.678833008,-16939401.626586914,-16263944.625854492,-1441114.5448684692,-19776330.947875977,-19849437.713623047,-19579782.485961914,-32374340.057373047,-13078740.119934082,-22175115.58532715,-8826144.218444824,-9242284.774780273,4034652.7099609375,-19978403.091430664,-19302890.77758789,-20602924.346923828,-12875236.511230469,-21830596.923828125,-9221608.16192627,-8343236.923217773,-12829659.461975098,-20501897.81188965,-13377303.123474121,-24348724.365234375,-6070032.119750977
0.415,5158768.653869629,111675178.52783203,125001281.73828125,-49178989.41040039,-44812728.88183594,-28008827.209472656,-12947599.411010742,-14528079.03289795,-13950845.718383789,-15292676.92565918,-10847966.194152832,-33996219.635009766,-33730979.919433594,-59429763.79394531,-6846658.229827881,-13439249.038696289,-13693831.443786621,-13284732.818603516,-10923494.338989258,-14097474.098205566,-20764722.82409668,-25886281.967163086,-48170345.306396484,-28585239.41040039,-18554866.790771484,-13890087.127685547,-13970059.394836426,-10435461.044311523,10864275.932312012,-10033482.551574707,-25738113.403320312,-14501505.851745605,-22255807.876586914,-21590427.39868164,-17539129.25720215,-22561498.641967773,-43887332.916259766,-10196413.99383545,-21238437.65258789,-22594932.556152344,-3034654.140472412,-22412252.42614746,-22355665.20690918,-22560205.459594727,-31896156.311035156,-14494950.294494629,-24360731.12487793,-13226819.99206543,-11462915.420532227,1094126.82056427,-22690071.10595703,-22012193.67980957,-23182535.17150879,-14291283.60748291,-25732776.641845703,-10948951.721191406,-10022176.742553711,-14385172.843933105,-23133932.11364746,-14909537.315368652,-24463190.07873535,-7426198.959350586
0.42,34522560.119628906,136822082.51953125,154492599.4873047,-34878002.16674805,-29495370.864868164,-16330038.070678711,-9851068.496704102,-11255196.571350098,-10766786.575317383,-13243443.489074707,-9788149.8336792,-26176557.540893555,-25043468.475341797,-44667549.13330078,1361068.4871673584,-10145327.5680542,-10604685.78338623,-10219143.867492676,-12428559.303283691,-15356710.433959961,-20332397.4609375,-22076906.204223633,-40964435.57739258,-18714885.711669922,-13005171.775817871,-10797266.960144043,-10960621.83380127,-10697846.412658691,8251840.591430664,-10044818.878173828,-23284318.923950195,-10762440.68145752,-18142892.837524414,-17387939.453125,-15537467.002868652,-21748409.271240234,-43386371.61254883,-9792937.278747559,-21824958.80126953,-22777105.3314209,-514037.8475189209,-18093574.52392578,-18032842.6361084,-18428039.55078125,-31052953.720092773,-11335796.356201172,-24299039.840698242,-13525080.680847168,-9299095.153808594,3848910.5701446533,-18503341.674804688,-17867406.845092773,-18888015.747070312,-11026049.613952637,-27375158.309936523,-7785062.313079834,-7012628.078460693,-11107507.705688477,-18824918.746948242,-11702962.875366211,-20195404.052734375,-2763542.413711548
0.425,45561828.61328125,141032501.22070312,161767410.2783203,-25211498.260498047,-26433467.864990234,2238014.6980285645,-5065119.743347168,-6395168.781280518,-6230381.965637207,-13403425.216674805,-9828336.715698242,-25239015.579223633,-21089426.040649414,-41908088.68408203,18775156.021118164,-5213033.199310303,-5948800.086975098,-5634142.3988342285,-13482353.210449219,-16877050.399780273,-20759523.391723633,-20165441.513061523,-39736988.06762695,-325992.9120540619,-1450313.925743103,-6039206.027984619,-6420417.308807373,-11675826.072692871,7913938.045501709,-9263835.906982422,-22592899.322509766,-11241051.67388916,-8483557.70111084,-7554135.322570801,-10821215.629577637,-20866056.442260742,-44562477.111816406,-9162058.83026123,-22807569.50378418,-21844127.655029297,-319462.388753891,-8473473.54888916,-8583750.72479248,-8689939.498901367,-32171794.891357422,-8289728.164672852,-24454040.52734375,-13379049.301147461,-9021821.022033691,5361124.515533447,-8895022.39227295,-8402616.500854492,-9512091.636657715,-7857643.127441406,-29259174.346923828,-5997491.836547852,-5447341.9189453125,-7714497.5662231445,-9318571.090698242,-8403211.59362793,-19090101.24206543,2170778.751373291
0.43,44160030.364990234,133568603.515625,151433090.20996094,-22322195.053100586,-34778041.83959961,13796378.135681152,-1451293.8261032104,-2813327.7893066406,-2879888.2961273193,-14063608.169555664,-12095966.339111328,-32486518.85986328,-29859907.150268555,-55452903.747558594,28936645.5078125,-1646736.0258102417,-2429622.8885650635,-2183706.760406494,-12174710.273742676,-18196275.71105957,-23954673.767089844,-27459985.733032227,-50436386.10839844,9782703.399658203,5237976.551055908,-2484708.309173584,-3017293.4532165527,-11515472.412109375,7465173.244476318,-13557697.296142578,-29851413.72680664,-21867414.474487305,-3537486.5531921387,-2463429.9278259277,-7772205.352783203,-19833490.3717041,-44363437.65258789,-9576703.071594238,-27989671.70715332,-27561740.87524414,-8267019.271850586,-3731432.4378967285,-4072017.6696777344,-3706867.6948547363,-33547080.993652344,-9326065.063476562,-25386697.76916504,-16694574.356079102,-15183121.681213379,-2634772.0623016357,-4054508.2092285156,-3641280.8895111084,-4941112.995147705,-8938134.19342041,-31481042.861938477,-10650650.978088379,-10200980.186462402,-8645340.919494629,-4668530.464172363,-9285777.09197998,-22824878.692626953,508453.905582428
0.435,48509513.85498047,137699691.77246094,151826446.53320312,-21887723.922729492,-37129760.7421875,8934971.809387207,-1607878.565788269,-2975813.627243042,-2894167.184829712,-12095194.816589355,-12669907.569885254,-35898605.34667969,-37881832.122802734,-62054679.87060547,20798294.067382812,-1945232.3913574219,-2485594.7494506836,-2249536.7527008057,-9553113.93737793,-17378393.173217773,-25508228.302001953,-34695484.16137695,-56410778.0456543,3330047.130584717,320856.9884300232,-2653033.971786499,-3056033.8497161865,-9648840.90423584,5951820.850372314,-19554079.055786133,-35615875.244140625,-30319005.966186523,-7722341.060638428,-6725186.824798584,-9141160.011291504,-18760942.459106445,-40248600.006103516,-8958262.44354248,-31524919.509887695,-33386409.759521484,-15762194.633483887,-8068945.88470459,-8478895.18737793,-7924335.956573486,-31891548.15673828,-12179837.226867676,-24456455.23071289,-18569215.774536133,-20161834.716796875,-12579383.850097656,-8301562.309265137,-7775134.563446045,-9077926.635742188,-11940152.168273926,-30438100.814819336,-15581073.760986328,-15118330.001831055,-11840132.713317871,-8946400.64239502,-12307161.331176758,-24424026.489257812,-5199228.286743164
0.44,52806236.267089844,150975006.10351562,170972412.109375,-24744487.762451172,-25360092.163085938,-9837089.538574219,-5286956.787109375,-6569387.912750244,-6097386.360168457,-7676261.425018311,-7463473.320007324,-25970615.38696289,-26265779.495239258,-40452564.23950195,2366860.6281280518,-5631953.716278076,-5928566.455841064,-5605644.702911377,-7865002.155303955,-12882607.460021973,-19512252.807617188,-25889427.185058594,-37834991.455078125,-10280375.480651855,-9601183.891296387,-6257616.5199279785,-6254117.012023926,-7709092.140197754,6129406.452178955,-18282629.013061523,-26015188.217163086,-19386274.337768555,-14318231.582641602,-13503756.523132324,-12632687.56866455,-18597076.416015625,-35252624.51171875,-5459941.864013672,-25929740.90576172,-26541065.216064453,-9009641.647338867,-14661245.346069336,-14884544.372558594,-14552838.325500488,-28604835.510253906,-12693690.299987793,-21502595.901489258,-13091593.742370605,-15229107.856750488,-9884918.212890625,-14870530.128479004,-14163607.597351074,-15273491.859436035,-12458347.32055664,-26927886.962890625,-12901403.427124023,-12454380.03540039,-12705712.31842041,-15423113.822937012,-13097232.818603516,-20409244.537353516,-6446816.921234131
0.445,34826377.868652344,148147628.7841797,185105606.07910156,-36737445.83129883,-13023900.985717773,-32566539.764404297,-10276205.062866211,-11423536.30065918,-10715416.90826416,-4975283.145904541,355720.1623916626,-9976389.88494873,765487.6708984375,-2351849.07913208,-10430704.116821289,-10433926.582336426,-10739566.802978516,-10250745.77331543,-7701131.343841553,-6690670.013427734,-8198516.845703125,-2560204.029083252,-1529216.0511016846,-17444715.49987793,-14078228.950500488,-11101707.458496094,-10665455.81817627,-7421315.1931762695,9698087.692260742,-9054631.233215332,-4526492.595672607,7569423.675537109,-15088159.561157227,-14277112.96081543,-14395932.1975708,-19837198.25744629,-34211997.985839844,-1165637.493133545,-14609900.47454834,-8770211.219787598,10806003.57055664,-15349893.569946289,-15292876.243591309,-15288925.170898438,-27930683.135986328,-10299363.136291504,-20341638.565063477,-4251635.551452637,-4715371.131896973,5579613.68560791,-15572988.510131836,-14834026.336669922,-15803974.151611328,-9907556.533813477,-26973783.493041992,-5726044.654846191,-5347382.545471191,-10211419.105529785,-16102241.516113281,-10751326.560974121,-16654376.983642578,-280477.4045944214
0.45,-5579578.876495361,119799667.35839844,173317047.11914062,-57160278.3203125,-17433389.66369629,-50315464.01977539,-14930545.806884766,-15940176.963806152,-15344947.814941406,-7950601.577758789,1953517.7946090698,-4214814.66293335,17747228.622436523,19777397.15576172,-12580291.748046875,-14889091.491699219,-15338121.41418457,-14710906.982421875,-8572877.883911133,-3841063.0226135254,-1677861.9289398193,14399383.544921875,23294858.932495117,-15647238.731384277,-11649394.035339355,-15560432.434082031,-14942557.334899902,-8702213.287353516,13381444.931030273,-1672705.5311203003,9833794.593811035,27603992.462158203,-9750029.563903809,-8803792.953491211,-13192377.090454102,-20939205.169677734,-36875602.72216797,495786.3390445709,-8208075.523376465,3839405.059814453,26822986.602783203,-9999114.036560059,-9827510.833740234,-9895308.494567871,-29272806.16760254,-6688108.444213867,-22491088.8671875,-789051.5923500061,129966.3782119751,18618448.25744629,-10232180.59539795,-9635374.069213867,-10627225.875854492,-6263274.192810059,-31197832.107543945,-2952828.4072875977,-2566819.906234741,-6239345.550537109,-10804780.006408691,-6990176.677703857,-18023471.83227539,7713388.442993164
0.455,-38921394.34814453,87963905.33447266,146706192.01660156,-74478790.28320312,-36240554.80957031,-59131477.35595703,-18450555.8013916,-19330657.958984375,-19031883.239746094,-15259746.551513672,-5750717.1630859375,-13175282.47833252,11051123.61907959,12990386.962890625,-11483097.076416016,-18384195.32775879,-18810260.772705078,-18186033.248901367,-10316466.331481934,-6698929.309844971,-5456213.474273682,11390917.778015137,20741268.157958984,-12054746.627807617,-8664379.119873047,-18894828.79638672,-18369045.25756836,-10164214.134216309,13112331.39038086,-2902774.0955352783,7293637.752532959,26849971.771240234,-4203163.146972656,-3331423.9978790283,-10559445.38116455,-20029380.798339844,-38752281.188964844,-510330.55782318115,-10120242.11883545,2506219.3870544434,27501287.46032715,-4557243.824005127,-4516104.221343994,-4388094.425201416,-27627851.486206055,-2531594.0380096436,-24091646.194458008,-3209306.240081787,-2515955.924987793,19388790.130615234,-4800229.549407959,-4347501.754760742,-5365992.546081543,-2319607.4962615967,-31402994.15588379,-5330827.236175537,-4787537.097930908,-1965290.6656265259,-5324479.579925537,-2767797.7085113525,-19779157.638549805,11531256.675720215
0.46,-41083438.873291016,79412178.03955078,134089904.78515625,-77187301.63574219,-49331794.73876953,-59356861.11450195,-19647340.774536133,-20426462.173461914,-20326276.779174805,-20087789.53552246,-13923777.58026123,-23291984.55810547,-3018288.8507843018,-2043511.8675231934,-13372278.213500977,-19707250.595092773,-19890035.62927246,-19380077.362060547,-12001399.993896484,-10750872.611999512,-12295715.33203125,197328.25458049774,6651973.724365234,-12147528.648376465,-9333142.280578613,-20033424.377441406,-19615793.228149414,-10629776.954650879,10489326.477050781,-7291278.839111328,-646762.6690864563,16677186.965942383,-3300587.6541137695,-2782451.629638672,-8917017.936706543,-18082448.959350586,-37872337.341308594,-1124507.6656341553,-12998134.61303711,-3603807.9261779785,19825761.795043945,-3769615.888595581,-3942932.12890625,-3653086.9007110596,-22677850.7232666,1102535.367012024,-21971837.997436523,-4035825.729370117,-4132124.423980713,14495393.753051758,-4062203.884124756,-3605024.814605713,-4561327.4574279785,1148987.889289856,-23345691.680908203,-5902428.150177002,-5143130.779266357,1513507.0085525513,-4444354.53414917,801749.1698265076,-15948254.585266113,10817394.256591797
0.465,-19080282.21130371,97016502.3803711,148361007.6904297,-65810539.24560547,-42412662.506103516,-54304382.32421875,-17704860.68725586,-18442708.96911621,-18314640.045166016,-16772714.614868164,-11696269.989013672,-19976005.55419922,-1153611.660003662,-172177.64258384705,-16263099.670410156,-17880977.630615234,-17852527.618408203,-17400815.963745117,-11349017.143249512,-9187268.257141113,-11058881.759643555,1133108.8542938232,5227982.521057129,-15083526.611328125,-12176505.088806152,-18190460.205078125,-17675022.12524414,-9740859.031677246,10995600.700378418,-5463208.198547363,1309262.5141143799,15449359.893798828,-7640456.199645996,-7340599.060058594,-9938439.36920166,-18007320.404052734,-36556583.404541016,550115.1084899902,-10099848.747253418,-2190869.3313598633,17549156.188964844,-8082857.131958008,-8356637.954711914,-8168440.818786621,-20933572.76916504,629613.1610870361,-18870603.561401367,-105241.19436740875,21856.587380170822,14230837.82196045,-8484260.559082031,-7896037.1017456055,-8876626.968383789,831632.9121589661,-15939841.270446777,-2940943.0027008057,-2061243.7725067139,998421.0729598999,-8816588.401794434,344134.53936576843,-10943291.664123535,7471354.961395264
0.47,3819198.8468170166,122657051.08642578,175915679.93164062,-51672981.26220703,-22652900.69580078,-48906105.041503906,-14397375.106811523,-15136983.871459961,-14815357.208251953,-7989444.732666016,-571413.3381843567,-5697288.990020752,15751602.172851562,17282854.080200195,-16698823.928833008,-14578544.616699219,-14578642.845153809,-14025845.527648926,-7894050.121307373,-2007546.1864471436,-1514530.897140503,15335577.964782715,17995662.689208984,-18124189.376831055,-14695876.121520996,-14964565.27709961,-14260047.912597656,-7956725.120544434,15713459.014892578,2707988.739013672,11746070.861816406,23927486.419677734,-14628510.475158691,-14083624.839782715,-13124824.523925781,-20130144.119262695,-36489120.48339844,3387494.0872192383,-3778586.6260528564,5508281.707763672,23019987.106323242,-14883797.645568848,-15105163.57421875,-15190787.315368652,-25787508.010864258,-6273864.269256592,-19058956.146240234,3309394.121170044,4946680.545806885,17838834.762573242,-15402918.815612793,-14704249.382019043,-15939241.409301758,-5812158.107757568,-19513835.906982422,-2654867.172241211,-1832722.3062515259,-5776103.496551514,-15859333.992004395,-6446860.790252686,-14055616.37878418,1319768.6672210693
0.475,14830945.014953613,138254165.64941406,195059066.77246094,-45440109.25292969,-9087172.508239746,-46698558.80737305,-13237586.02142334,-13958918.571472168,-13421606.063842773,-2844400.16746521,6933912.754058838,4238055.70602417,26614416.122436523,29405630.111694336,-16105062.484741211,-13327390.670776367,-13521286.010742188,-12796800.61340332,-5204385.757446289,3003152.847290039,5487338.066101074,25353761.672973633,27010911.94152832,-20306112.28942871,-16517808.91418457,-13657477.378845215,-12976257.32421875,-6551711.559295654,19075822.830200195,8510332.107543945,17447010.040283203,28809936.5234375,-20003778.4576416,-19008895.874023438,-15615618.705749512,-21258474.349975586,-36199504.85229492,5269649.982452393,-425001.26361846924,9455459.594726562,27576911.92626953,-20052846.908569336,-20174585.342407227,-20438465.118408203,-31232532.501220703,-15465837.478637695,-21802764.892578125,1998965.5017852783,5502481.460571289,18054153.442382812,-20620241.165161133,-19949966.430664062,-21457990.646362305,-15074721.336364746,-29595046.997070312,-7208129.8828125,-6582096.099853516,-15051130.294799805,-21218885.42175293,-15684903.144836426,-24243989.944458008,-7028051.853179932
0.48,14977654.457092285,137326858.5205078,196254028.3203125,-48754463.19580078,-11739389.419555664,-47269287.109375,-15314611.434936523,-15981042.861938477,-15323177.337646484,-6387729.644775391,3540792.942047119,1265362.8587722778,20764993.66760254,25500461.57836914,-16983650.20751953,-15280032.15789795,-15630390.167236328,-14822427.749633789,-6879704.95223999,161884.69529151917,2748563.528060913,20961248.39782715,22818664.55078125,-21178148.26965332,-17448865.89050293,-15407562.255859375,-15017868.041992188,-6906272.411346436,16719631.19506836,6505620.002746582,13426696.77734375,25072538.375854492,-19993284.225463867,-18830911.63635254,-14858510.01739502,-19436323.165893555,-34684482.57446289,5246358.394622803,-1565495.7294464111,6753375.053405762,26439050.674438477,-19944866.180419922,-20033164.978027344,-20247512.817382812,-30197662.353515625,-19119646.072387695,-23139064.78881836,-480799.6451854706,4306830.883026123,14638417.24395752,-20503776.55029297,-19963121.41418457,-21438171.38671875,-19121742.248535156,-32140209.197998047,-9119658.470153809,-8668125.15258789,-19099576.950073242,-21088422.775268555,-19585908.889770508,-29589620.59020996,-12405250.549316406
0.485,8765990.257263184,125292388.91601562,186527053.8330078,-55143482.20825195,-22893093.10913086,-47576297.760009766,-17473455.42907715,-18108366.012573242,-17450126.64794922,-13130023.956298828,-3724292.993545532,-7296289.443969727,10616478.91998291,16226177.215576172,-17563224.79248047,-17344745.635986328,-17729272.842407227,-16973834.991455078,-10936728.477478027,-6329262.733459473,-4173264.503479004,11943460.464477539,15615037.91809082,-19776618.95751953,-16216714.859008789,-17351083.755493164,-17223487.854003906,-8860156.059265137,11922417.640686035,1117116.928100586,8189411.163330078,22079853.057861328,-14921582.221984863,-13915561.67602539,-11780887.603759766,-17046579.360961914,-33799423.21777344,3715134.620666504,-3498806.7150115967,4406969.5472717285,24694320.678710938,-14851985.931396484,-15007408.142089844,-15056157.112121582,-24935651.779174805,-14853443.145751953,-22288322.44873047,773141.1457061768,6097846.031188965,14585501.670837402,-15458765.029907227,-14986673.355102539,-16170578.002929688,-15089659.690856934,-23635063.17138672,-2920361.280441284,-2436576.8432617188,-15064971.923828125,-15919256.210327148,-15414594.650268555,-23789983.74938965,-9871804.237365723
0.49,2135901.45111084,115523979.18701172,180300796.50878906,-56757995.60546875,-27909143.447875977,-45692447.662353516,-16129457.473754883,-16802793.502807617,-16217439.651489258,-13799779.891967773,-3863963.3655548096,-9446279.525756836,11708813.667297363,15782642.364501953,-14568544.387817383,-15986796.379089355,-16339323.043823242,-15706229.209899902,-11648921.966552734,-7884956.836700439,-5422755.241394043,11954429.626464844,17434606.552124023,-16465755.462646484,-12556596.755981445,-16093532.56225586,-15951929.092407227,-10293053.62701416,10890112.87689209,-11103.452183306217,9720761.2991333,27109128.952026367,-9792899.131774902,-8878793.716430664,-9770225.524902344,-17190877.91442871,-34882961.27319336,1820480.1082611084,-3256324.052810669,7407905.578613281,27660259.246826172,-9668464.660644531,-9940518.379211426,-9902934.074401855,-23141002.655029297,-8514027.59552002,-21955293.655395508,4041231.632232666,9781315.803527832,20448972.702026367,-10422076.225280762,-9861288.070678711,-10876952.171325684,-8539266.586303711,-15581089.01977539,4925982.95211792,5647132.396697998,-8436548.233032227,-10843010.902404785,-8796198.844909668,-14833271.026611328,-2079708.3377838135
0.495,3029766.798019409,119141059.87548828,186015899.65820312,-51084289.55078125,-21863077.16369629,-42270114.89868164,-11984865.188598633,-12728891.372680664,-12257275.581359863,-7240726.470947266,3260035.276412964,-3483877.182006836,21744314.193725586,23617469.787597656,-8862143.516540527,-11908414.840698242,-12240262.031555176,-11736246.109008789,-7475772.380828857,-3076110.83984375,-102361.5449666977,19700273.513793945,25026926.040649414,-13472221.374511719,-8570555.686950684,-12210690.49835205,-11931483.268737793,-9497385.025024414,13902233.123779297,4087898.7312316895,15155913.352966309,34250488.28125,-8794282.913208008,-7717408.180236816,-10266676.902770996,-19059522.62878418,-35820285.79711914,741745.5911636353,-1474165.0819778442,11838170.051574707,32618019.104003906,-8570371.627807617,-8908066.749572754,-8935018.539428711,-26024480.81970215,-5886496.543884277,-22831892.013549805,4376318.93157959,11358366.012573242,26711177.825927734,-9435353.27911377,-8718809.127807617,-9874221.801757812,-5548476.696014404,-16650024.4140625,5503923.416137695,6405147.075653076,-5319700.241088867,-9980029.106140137,-5838685.512542725,-12414273.262023926,3594614.028930664
