time,Fp1,Fpz,Fp2,AF3,AF4,F7,F5,F3,F1,Fz,F2,F4,F6,F8,FT7,FC5,FC3,FC1,FCz,FC2,FC4,FC6,FT8,T7,C5,C3,C1,Cz,C2,C4,C6,T8,TP7,CP5,CP3,CP1,CPz,CP2,CP4,CP6,TP8,P7,P5,P3,P1,Pz,P2,P4,P6,P8,PO7,PO5,PO3,POz,PO4,PO6,PO8,CB1,O1,Oz,O2,CB2
0.0,1514481.4252853394,2072091.5794372559,2758139.8487091064,1278592.3480987549,1381497.5023269653,1505329.7281265259,1342887.6399993896,1449739.3369674683,1020685.1959228516,931314.3491744995,905772.3879814148,946741.3425445557,945932.7459335327,1917484.7602844238,1597829.6995162964,1233753.0851364136,1214362.5020980835,-862602.2934913635,939546.0486412048,1010486.8412017822,1024769.66381073,1924854.7554016113,1123106.0028076172,1613145.8282470703,1127872.8246688843,511284.7685813904,8350.583724677563,-265482.3660850525,1248678.44581604,1187817.4543380737,2656806.9458007812,931591.4511680603,-959889.4715309143,-217971.20571136475,2475646.2574005127,-221621.66237831116,-65333.59736204147,1540450.2153396606,2537534.236907959,3016381.9789886475,3890855.550765991,1715419.888496399,1781857.2521209717,1547443.7475204468,3124062.0613098145,3451394.79637146,4276631.3552856445,4112165.4510498047,3958208.5609436035,3008801.6986846924,1458362.5793457031,1431784.6298217773,1176281.6905975342,3074825.0484466553,2433924.436569214,2380530.1189422607,2283569.574356079,2256421.8044281006,2265487.6708984375,2434337.615966797,2221884.01222229,571952.760219574
0.005,-26049394.607543945,-25248285.2935791,-18467884.063720703,-25404569.625854492,-24020750.045776367,-14829669.952392578,-17159708.02307129,-15905205.726623535,-24755577.087402344,-22177101.135253906,-22980348.587036133,-22837879.180908203,-22979913.71154785,-18913820.266723633,-12544456.481933594,-19134489.059448242,-19106004.71496582,-19080087.661743164,-12486392.0211792,-12758810.997009277,-12780182.838439941,-12462185.859680176,-32163093.56689453,-12352466.583251953,-9852302.551269531,-16956884.384155273,-13295995.712280273,-7587624.073028564,-2432222.843170166,-3863172.2927093506,-5662963.8671875,-34846488.95263672,-29928415.298461914,-12826813.697814941,-12158360.481262207,-6918005.466461182,-1501458.8832855225,2276825.189590454,5833230.018615723,3421855.2112579346,2463800.4302978516,-24044584.274291992,-20931921.005249023,-10904368.40057373,-436578.51219177246,9868372.917175293,14210214.614868164,12332387.924194336,9419384.956359863,1904654.860496521,-17118116.37878418,-17584064.483642578,-10965169.906616211,8991662.02545166,11126092.910766602,10592428.207397461,4344887.733459473,-8889182.090759277,-8629031.18133545,1079626.0833740234,5514096.736907959,-2850053.548812866
0.01,-32919605.255126953,-31163101.196289062,-22514987.94555664,-33156696.319580078,-31475074.768066406,-19073570.251464844,-22215570.4498291,-20373950.958251953,-32617938.995361328,-28977439.880371094,-30228202.81982422,-29826593.39904785,-30050662.994384766,-23174289.70336914,-15664134.979248047,-25411046.981811523,-25824295.043945312,-27205305.099487305,-16203851.699829102,-16659292.221069336,-16535503.387451172,-14338091.850280762,-42488548.278808594,-15494762.420654297,-12463501.930236816,-23895612.716674805,-18437570.571899414,-11401452.06451416,-2077294.8265075684,-4132410.0494384766,-4468100.070953369,-46478160.8581543,-40432159.423828125,-17628988.26599121,-15393348.693847656,-9025100.708007812,-2178359.270095825,5949915.885925293,10362693.786621094,7935065.746307373,8111261.367797852,-29468576.431274414,-26006111.14501953,-14382364.273071289,2214400.291442871,16895311.35559082,23725303.649902344,21909688.94958496,30649456.024169922,6461689.9490356445,-19391567.23022461,-19955476.760864258,-11094631.19506836,16337955.474853516,19580572.1282959,18759113.311767578,10511415.481567383,-7063775.062561035,-6781113.147735596,5411095.61920166,12194615.364074707,-607572.7343559265
0.015,-23839187.622070312,-21731706.619262695,-14346374.51171875,-26314188.00354004,-24705434.799194336,-14124341.011047363,-16890745.162963867,-15102538.108825684,-26357957.83996582,-22722587.58544922,-24059942.2454834,-23418821.334838867,-23639116.287231445,-14895356.178283691,-10794962.882995605,-20509746.551513672,-21582731.246948242,-25561670.303344727,-12195972.442626953,-12695860.862731934,-12306603.43170166,-7325464.248657227,-33992908.4777832,-10733722.686767578,-9003102.30255127,-21450038.90991211,-16345323.56262207,-11419592.85736084,567719.5191383362,-1290037.989616394,2438041.2101745605,-37980850.21972656,-33778770.446777344,-15143068.313598633,-10180584.907531738,-7277981.758117676,-2051662.2066497803,9721312.522888184,13733560.562133789,13512782.096862793,16722724.914550781,-17985773.08654785,-16476032.257080078,-10257266.0446167,8012031.555175781,21362943.649291992,28764757.15637207,28868740.08178711,57582099.91455078,13843787.19329834,-7455844.402313232,-7839726.92489624,-1497778.058052063,22288654.327392578,25561128.616333008,24665048.599243164,18184494.018554688,4037243.366241455,4129897.117614746,12672095.29876709,19483831.40563965,5484189.987182617
0.02,-18770803.451538086,-18542747.497558594,-11608437.538146973,-22924900.05493164,-20789365.768432617,-11691337.585449219,-14060097.694396973,-12602283.477783203,-22870298.385620117,-18913452.1484375,-20185445.78552246,-19576524.73449707,-19737440.10925293,-10504021.644592285,-8928812.980651855,-17610073.08959961,-18910295.486450195,-22288761.138916016,-9727737.426757812,-10255434.036254883,-9719345.092773438,-4063914.7758483887,-27691436.767578125,-8851242.065429688,-7765463.352203369,-18625513.076782227,-14153146.743774414,-10257147.789001465,1083218.3361053467,-327472.35894203186,4604431.15234375,-31161741.256713867,-25810300.827026367,-11983967.781066895,-7789670.944213867,-5884593.486785889,-1646809.2203140259,9124803.54309082,13262635.231018066,14511207.580566406,18907588.958740234,-9010879.516601562,-9067309.379577637,-6811492.919921875,9435161.590576172,20221302.032470703,26431140.899658203,28858018.87512207,68305229.18701172,16656618.118286133,2809991.1212921143,2547308.4449768066,5691050.5294799805,23029935.836791992,26793523.78845215,25916353.225708008,21119863.510131836,10268544.19708252,10197569.847106934,15546031.951904297,21683113.09814453,8799553.871154785
0.025,-24346960.067749023,-27502412.796020508,-19431076.049804688,-28667116.165161133,-26236537.93334961,-15384050.369262695,-17873254.776000977,-16617546.081542969,-27949914.932250977,-23722225.189208984,-24963827.13317871,-24546033.85925293,-24668575.286865234,-15883834.838867188,-12979514.122009277,-21264228.82080078,-22220746.994018555,-22534488.677978516,-12495861.053466797,-13082126.61743164,-12623835.563659668,-8159362.79296875,-32170116.424560547,-12797037.124633789,-10976910.591125488,-19905988.693237305,-15438628.196716309,-10269193.649291992,-936101.5558242798,-2221225.2616882324,209776.8485546112,-35329471.588134766,-26274389.266967773,-12273654.93774414,-11718593.59741211,-6783193.588256836,-1413790.8220291138,5397515.773773193,10778771.40045166,11329715.728759766,13394425.392150879,-12240808.486938477,-11832617.75970459,-8189741.134643555,5498808.860778809,16051589.965820312,20861808.77685547,24627981.185913086,60269130.70678711,13075692.176818848,1422249.1979599,1068675.3988265991,4016790.8668518066,19597915.649414062,24330442.428588867,23457361.221313477,17828098.29711914,5860743.999481201,5839436.5310668945,12204999.923706055,18074180.603027344,6464115.142822266
0.03,-28578973.7701416,-34422119.140625,-26375352.85949707,-32507568.359375,-31923919.677734375,-17850296.020507812,-20490325.927734375,-19157222.747802734,-31749889.373779297,-29054458.618164062,-30352048.873901367,-29940816.87927246,-30097143.173217773,-21829130.172729492,-15501687.049865723,-23815687.17956543,-24447954.177856445,-24076568.603515625,-15795452.117919922,-16439735.412597656,-16099775.314331055,-11952715.873718262,-37567024.23095703,-15291005.13458252,-13092578.887939453,-21769397.735595703,-17252244.94934082,-11406702.041625977,-2015141.9639587402,-3525642.3950195312,-3217960.5960845947,-40721218.10913086,-30652662.27722168,-14231890.678405762,-15081081.39038086,-8076645.851135254,-1439028.7399291992,3947483.3011627197,10448411.94152832,9388539.31427002,7786075.115203857,-19632295.608520508,-17651996.612548828,-11093964.576721191,2370810.5087280273,14530284.881591797,19219198.22692871,23175491.333007812,51467399.59716797,8530956.268310547,-6725386.619567871,-7210612.2970581055,-1726411.1042022705,16966094.970703125,22008502.960205078,21093898.77319336,13432982.444763184,-1546121.2396621704,-1375161.5285873413,7952582.836151123,13936888.694763184,2109454.1549682617
0.035,-22340307.235717773,-29177345.275878906,-23440515.518188477,-26580493.927001953,-29804649.353027344,-13781784.057617188,-16161310.195922852,-14591560.363769531,-26854598.999023438,-27425045.013427734,-28840591.430664062,-28198671.340942383,-28425197.60131836,-20246841.430664062,-11456052.780151367,-19480974.197387695,-20504188.537597656,-23319442.749023438,-15342383.38470459,-16019580.841064453,-15601696.968078613,-9970781.326293945,-35304023.74267578,-11258855.819702148,-10245710.372924805,-20505273.818969727,-16362096.786499023,-12280939.102172852,-592897.891998291,-2299545.5265045166,-1223656.7735671997,-38537685.39428711,-30944101.333618164,-14464262.962341309,-12586306.57196045,-7666991.710662842,-1616469.6216583252,6563691.61605835,12903149.604797363,10977524.757385254,7483042.240142822,-20847656.25,-17946237.564086914,-11229852.676391602,4147348.403930664,17203962.326049805,22735818.86291504,26501977.920532227,53539196.0144043,7976755.142211914,-11456946.37298584,-11945657.730102539,-4118483.543395996,17809030.532836914,22350250.244140625,21366153.717041016,13030310.63079834,-3371993.30329895,-3086035.4900360107,7429745.674133301,13745260.238647461,492254.70423698425
0.04,-12619268.417358398,-19257127.76184082,-15643041.610717773,-17823675.15563965,-23614471.435546875,-7712224.960327148,-9742637.634277344,-8025489.807128906,-19362834.930419922,-21991897.583007812,-23532619.47631836,-22737482.07092285,-22978431.701660156,-14309485.43548584,-5491333.0078125,-13007491.111755371,-15242566.108703613,-21076292.037963867,-12909094.81048584,-13577613.830566406,-12930505.752563477,-5654105.186462402,-29573705.673217773,-5192337.989807129,-5560184.478759766,-17778419.494628906,-14161444.664001465,-12333735.466003418,1112063.2886886597,-517697.21508026123,2391632.556915283,-32862293.243408203,-26522382.736206055,-12294559.478759766,-7666665.077209473,-6052892.208099365,-1794282.9132080078,9536241.53137207,14924745.559692383,13108730.31616211,10116203.308105469,-16162977.21862793,-13539034.843444824,-8595564.842224121,8042443.27545166,20172695.15991211,25864883.422851562,29885730.743408203,59156414.03198242,10525224.685668945,-9418162.34588623,-9869444.847106934,-1692578.0773162842,19949190.139770508,24201158.52355957,23167325.973510742,15987888.33618164,-98903.67090702057,124939.83656167984,9415383.338928223,16295637.130737305,2356687.7841949463
0.045,-10235503.196716309,-15998011.589050293,-11892678.260803223,-16289999.008178711,-20531856.536865234,-6393305.778503418,-8503289.222717285,-6881632.8048706055,-18451332.092285156,-19421295.166015625,-21012538.90991211,-20339326.858520508,-20501489.639282227,-10642984.390258789,-4240411.281585693,-11693525.314331055,-15235130.310058594,-20226324.0814209,-11921247.482299805,-12509325.981140137,-11752456.665039062,-3876157.522201538,-27116104.125976562,-3781799.554824829,-3851912.7368927,-16869798.66027832,-13747816.08581543,-12089993.476867676,1141903.042793274,-281680.73296546936,3137170.0763702393,-30437297.821044922,-21789617.53845215,-9340966.22467041,-6240583.896636963,-5022237.777709961,-1795689.1059875488,9556379.318237305,14443593.978881836,13119106.29272461,11187435.150146484,-11851095.199584961,-10159243.5836792,-5895946.979522705,9166170.120239258,19672632.217407227,24008844.37561035,29137016.29638672,57873901.3671875,12279721.2600708,-4805145.740509033,-5335754.871368408,1834295.0344085693,19917795.181274414,24668607.711791992,23656705.856323242,17849584.579467773,2467408.6570739746,2551680.564880371,10031652.450561523,17330013.275146484,5037767.41027832
0.05,-14075482.368469238,-18595636.36779785,-12379782.676696777,-20694566.72668457,-20568527.221679688,-9085405.349731445,-11623228.073120117,-10220629.692077637,-22881610.870361328,-19945638.65661621,-21457809.448242188,-20986101.150512695,-21051918.029785156,-9701427.459716797,-6920026.3023376465,-14916838.645935059,-18820158.004760742,-20678514.48059082,-12084731.101989746,-12535040.855407715,-11903877.258300781,-3995107.650756836,-26920866.012573242,-6462085.247039795,-5180002.212524414,-17486528.396606445,-14993051.528930664,-11834962.844848633,551294.3267822266,-792747.1995353699,2043082.7140808105,-30222726.821899414,-19213933.94470215,-7337945.938110352,-8591726.303100586,-5185610.771179199,-1553768.515586853,7903659.343719482,12881819.725036621,12154485.702514648,10180757.522583008,-10623395.919799805,-9957159.996032715,-4920227.527618408,6672111.034393311,16433528.900146484,18988815.307617188,25852214.813232422,51658912.658691406,11647217.750549316,-2493019.3424224854,-3168002.8438568115,2871237.9932403564,17151378.631591797,22780776.977539062,21850044.25048828,16363502.502441406,1575976.2525558472,1569030.8809280396,8145660.400390625,15175097.465515137,5841454.982757568
0.055,-14409728.050231934,-17917978.286743164,-10967505.45501709,-21431070.32775879,-18888750.076293945,-9337636.947631836,-12105494.499206543,-10754386.901855469,-23637531.280517578,-18868160.247802734,-20209939.95666504,-19750436.782836914,-19814298.629760742,-8032667.16003418,-7216481.685638428,-15795739.17388916,-18915063.858032227,-19905838.012695312,-11007080.078125,-11345379.829406738,-10870455.741882324,-2907488.3460998535,-25210603.713989258,-6901202.67868042,-5701193.809509277,-16919078.826904297,-15003919.60144043,-11289069.175720215,1238777.6374816895,-192148.20861816406,2452214.479446411,-28464036.94152832,-18523000.717163086,-7135223.865509033,-9909398.078918457,-5519174.575805664,-1246857.6431274414,7919239.9978637695,12550585.746765137,12515073.776245117,9806535.720825195,-10700109.481811523,-10645319.938659668,-5283746.719360352,4349677.562713623,14463870.04852295,16640504.837036133,24901617.0501709,49270339.96582031,10736050.605773926,-3442760.229110718,-4151470.184326172,1034126.9969940186,14526168.823242188,20903816.22314453,20019563.674926758,14190409.660339355,-545104.98046875,-582159.698009491,6140746.116638184,12559104.919433594,4000912.666320801
0.06,-7091600.8949279785,-10021745.681762695,-5082315.444946289,-13748726.844787598,-13858755.111694336,-3837451.457977295,-6319163.799285889,-4766951.560974121,-16383253.09753418,-14130194.664001465,-15306671.142578125,-14694808.006286621,-14871609.687805176,-4947892.189025879,-1880724.549293518,-10583538.055419922,-12876837.730407715,-17187900.54321289,-8419975.280761719,-8741942.405700684,-8194088.935852051,-295001.0597705841,-22893230.438232422,-1556915.283203125,-2866174.6978759766,-14308412.551879883,-12427411.079406738,-10552757.263183594,3246189.594268799,1689747.929573059,4948173.999786377,-26198949.813842773,-19207059.860229492,-8103343.0099487305,-6650599.956512451,-4729501.247406006,-1134211.6594314575,10654395.10345459,14065073.96697998,14620883.94165039,12175983.428955078,-10123941.421508789,-9614494.323730469,-5158122.0626831055,6354564.189910889,16754447.937011719,20462432.861328125,28872753.143310547,53348106.384277344,12670648.574829102,-5143614.292144775,-5763702.869415283,-967145.8601951599,15564922.332763672,22363430.02319336,21444541.931152344,15634734.153747559,-438267.20118522644,-477921.5157032013,6782148.361206055,13350848.197937012,1168444.7526931763
0.065,2519951.343536377,478306.77032470703,2075629.9495697021,-2552987.3371124268,-8083037.376403809,4147774.6963500977,2236407.0415496826,3979340.5532836914,-6024006.8435668945,-8115709.30480957,-9202077.865600586,-8472351.07421875,-8783888.816833496,-2239698.4100341797,5993126.86920166,-2561848.8788604736,-5249104.4998168945,-14450885.772705078,-5958943.3670043945,-6367403.030395508,-5508775.71105957,2328897.9530334473,-22123571.395874023,6587102.890014648,2110621.690750122,-11403055.191040039,-9094861.98425293,-10216186.5234375,5500116.348266602,3843013.048171997,8085805.892944336,-25607690.811157227,-20128440.856933594,-8106921.195983887,-316813.49873542786,-2684066.0572052,-1243754.0292739868,14360516.548156738,16852041.244506836,17763193.130493164,17348939.895629883,-8093012.809753418,-6219917.297363281,-2993451.3568878174,12662523.26965332,22271532.05871582,28116979.598999023,35975978.85131836,59596179.9621582,18507253.646850586,-4208680.152893066,-4773312.091827393,330576.628446579,20928052.90222168,27805837.631225586,26870552.06298828,21851995.46813965,3327683.925628662,3323200.464248657,10633601.188659668,18514694.213867188,911083.2810401917
0.07,7561461.448669434,7222580.909729004,6630204.200744629,4058660.9840393066,-4193979.7401428223,8929294.58618164,7384399.4140625,9066265.106201172,-186747.75958061218,-3886111.02104187,-4961073.398590088,-4209919.9295043945,-4582530.975341797,-260038.16723823547,10907087.326049805,2225782.871246338,-1818637.6094818115,-13359920.501708984,-4360824.5849609375,-4929703.235626221,-3757600.0690460205,4646721.839904785,-20762596.130371094,11723386.764526367,5608535.289764404,-10233683.586120605,-7564747.8103637695,-10274456.977844238,7541847.229003906,5797206.878662109,11171895.027160645,-24333669.662475586,-19119421.005249023,-5989954.471588135,4115057.945251465,-830241.2629127502,-1350078.4635543823,16849771.49963379,20134248.733520508,21379562.377929688,23575237.274169922,-4701748.371124268,-2182693.0046081543,134064.13793563843,18273565.2923584,26603639.602661133,33633438.11035156,41990203.857421875,64089286.80419922,26039623.260498047,297377.6161670685,-313130.34892082214,5080340.86227417,27031423.568725586,34040107.72705078,33216426.849365234,29637561.798095703,9026723.861694336,9093799.591064453,15668357.849121094,25077909.469604492,5503190.994262695
0.075,6565417.289733887,7875550.270080566,7309016.704559326,2684406.9957733154,-3162672.0428466797,7844875.335693359,6210454.940795898,7733266.353607178,-1562620.5205917358,-2663578.510284424,-3745444.7746276855,-3001158.7142944336,-3363085.5083465576,1745727.5390625,10124383.926391602,1021712.3031616211,-3858737.4687194824,-13934230.80444336,-3275501.012802124,-3983785.390853882,-2747252.4642944336,7014500.141143799,-16229520.797729492,10790507.316589355,4840906.620025635,-11470559.120178223,-8414236.068725586,-9987975.120544434,9303771.018981934,7540709.495544434,14177131.652832031,-19619998.931884766,-16280344.009399414,-4102808.4754943848,3228240.2515411377,-916251.5997886658,-1246654.8681259155,17524581.909179688,22830419.540405273,24610324.85961914,28183414.459228516,-1771785.1400375366,-738797.3666191101,754699.9454498291,18257089.614868164,26474756.240844727,33757671.35620117,44082065.58227539,66180999.755859375,31498090.744018555,4996307.373046875,4331054.210662842,8529875.755310059,29100610.733032227,36982692.71850586,36310863.49487305,34740932.46459961,12683025.360107422,12792020.797729492,18742332.458496094,28845232.009887695,12009787.559509277
0.08,2927677.1545410156,4731219.76852417,4901293.754577637,-3081118.8220977783,-4880243.301391602,3314726.1142730713,1356252.908706665,2943163.1565093994,-6459114.551544189,-3910418.5104370117,-4931200.02746582,-4209610.939025879,-4556514.263153076,3008326.768875122,5812693.5958862305,-3410019.1593170166,-7979649.066925049,-15651489.2578125,-2917304.754257202,-3565986.8717193604,-2581346.5118408203,8742943.76373291,-11475736.618041992,6081854.820251465,884933.2332611084,-14117259.979248047,-10113754.272460938,-9181772.232055664,10259805.679321289,8632281.303405762,16431451.797485352,-14599552.154541016,-15278750.4196167,-5696603.298187256,-897167.9210662842,-2848484.992980957,-940207.3621749878,17560148.239135742,23850524.90234375,26190385.818481445,29463745.1171875,-1740671.992301941,-3331701.9939422607,-2609045.0286865234,13820095.06225586,23585416.793823242,31573720.932006836,43150089.263916016,66200187.68310547,32747699.737548828,5095376.491546631,4433650.016784668,5896348.95324707,26226377.487182617,35505092.62084961,34816280.364990234,35516864.77661133,11470140.45715332,11557695.388793945,18047040.939331055,27961521.14868164,13903392.791748047
0.085,1026656.2700271606,2332471.1322784424,1320197.582244873,-6328231.334686279,-7600871.0861206055,635605.9908866882,-1392505.0497055054,467325.1807689667,-8942971.229553223,-5680805.206298828,-6573700.428009033,-5909576.416015625,-6259461.402893066,1918704.0328979492,3155210.7334136963,-5640593.0519104,-9720760.345458984,-17580038.07067871,-3760591.983795166,-4078957.0808410645,-3479846.239089966,8770143.508911133,-11935426.712036133,3194019.317626953,-1674053.7881851196,-15850507.736206055,-10761708.25958252,-8643901.824951172,9904017.448425293,8487654.685974121,16788122.177124023,-15026641.845703125,-18208311.080932617,-9550457.954406738,-2873059.5111846924,-4459295.749664307,-613171.637058258,18175912.857055664,22943670.27282715,25375682.830810547,27676467.895507812,-4225322.246551514,-7091634.273529053,-6602340.221405029,10807282.447814941,22082075.119018555,31774835.58654785,41798187.255859375,63880096.435546875,30330837.24975586,52882.347255945206,-582765.6984329224,-1195102.334022522,22059982.299804688,31678586.959838867,30784444.80895996,32875942.23022461,6801680.088043213,6877026.557922363,14513912.200927734,23749551.77307129,8493461.608886719
0.09,2383353.4717559814,2801707.0293426514,-1694231.390953064,-4014576.4350891113,-8659975.051879883,2456283.8077545166,840757.2507858276,2842278.9573669434,-6853915.691375732,-6040622.711181641,-6887753.963470459,-6247952.461242676,-6559920.787811279,-1691802.740097046,4889958.85848999,-3560322.7615356445,-7710978.031158447,-17768363.95263672,-5223768.711090088,-5194119.930267334,-4814054.9659729,6648235.79788208,-18083295.822143555,5030712.127685547,-44936.612248420715,-14934556.007385254,-9899019.241333008,-8773774.147033691,8323874.473571777,7000315.6661987305,14123708.724975586,-21329181.671142578,-21449926.376342773,-10555778.503417969,-1197715.6400680542,-4191895.9617614746,-496633.76808166504,18404561.99645996,20375566.482543945,21910169.60144043,23179241.180419922,-6258388.996124268,-8245796.203613281,-7173576.831817627,11305086.135864258,22056070.32775879,32776885.986328125,39823192.59643555,58498722.076416016,25164993.286132812,-5470191.955566406,-6066092.967987061,-5985632.89642334,19660205.841064453,27471351.623535156,26437723.15979004,27638437.271118164,2511376.6193389893,2643105.5068969727,10367081.642150879,18351812.3626709,731245.4581260681
0.095,3686715.3644561768,2580087.184906006,-4646757.60269165,-910109.4603538513,-8115180.969238281,5186884.880065918,4138706.684112549,5975448.6083984375,-4278617.382049561,-5672621.250152588,-6689153.671264648,-5997527.122497559,-6170479.297637939,-6859191.89453125,7496649.265289307,-1165571.8088150024,-5197238.445281982,-15150094.985961914,-6450186.729431152,-6431978.225708008,-5991054.534912109,2195939.064025879,-25365045.54748535,7839173.793792725,2603599.3099212646,-12575223.922729492,-8953269.004821777,-8932800.29296875,5741815.090179443,4362267.017364502,7804550.1708984375,-28547901.153564453,-20379878.997802734,-6835721.969604492,-662582.3378562927,-3129262.2089385986,-713560.4619979858,15738533.020019531,16223123.550415039,15714895.248413086,15196389.198303223,-6899353.02734375,-7505767.345428467,-5158487.319946289,10851495.742797852,19159435.272216797,28140529.63256836,34296897.888183594,49832015.99121094,17253887.176513672,-7265398.025512695,-7749724.864959717,-4703967.094421387,17914463.04321289,23014503.479003906,22115375.518798828,20093235.01586914,39107.41209983826,216817.90053844452,6670892.715454102,12846601.486206055,-2843995.5711364746
0.1,108336.85845136642,-3262302.1602630615,-9588481.903076172,-3813990.1161193848,-9495388.984680176,3204755.7830810547,2372126.340866089,3921363.353729248,-6549232.006072998,-7459317.207336426,-8734213.829040527,-8054570.198059082,-8020057.678222656,-12754287.719726562,5315106.8687438965,-3432902.5745391846,-6433003.902435303,-12025880.813598633,-7822043.895721436,-8174088.478088379,-7609803.676605225,-3956275.224685669,-30207958.221435547,5709846.019744873,1103188.7531280518,-11865980.14831543,-9593052.864074707,-8739727.973937988,2404057.502746582,1005625.7247924805,-639261.7225646973,-32943187.713623047,-16426342.010498047,-2831886.053085327,-5126628.875732422,-3163218.4982299805,-1132350.3255844116,10026927.947998047,11252099.03717041,8287359.237670898,4694881.439208984,-8494849.20501709,-8628662.109375,-4478380.6800842285,6313395.5001831055,12144460.678100586,17185834.884643555,25395311.35559082,40032855.98754883,8101623.53515625,-6162261.962890625,-6489717.00668335,-574776.9474983215,14829009.056091309,18646608.352661133,18029312.133789062,12375800.132751465,-2320080.041885376,-2204249.620437622,3314469.575881958,8186826.705932617,-1987029.3140411377
0.105,-7425312.9959106445,-12327012.062072754,-15503045.082092285,-11454119.682312012,-14155553.817749023,-2776585.578918457,-3822128.2958984375,-2465830.5644989014,-12396568.298339844,-11627891.540527344,-12959808.349609375,-12490298.2711792,-12302526.473999023,-17639703.75061035,-908819.1986083984,-8727668.762207031,-10763795.852661133,-11895092.010498047,-9765009.880065918,-10395060.539245605,-9905973.434448242,-8801957.130432129,-32205459.594726562,-556422.5912094116,-3802297.1153259277,-13480026.245117188,-11350358.963012695,-8832414.627075195,-423709.83958244324,-1708384.1562271118,-6581239.223480225,-34494224.548339844,-15151711.463928223,-3107392.5495147705,-10568306.922912598,-4002828.1211853027,-1431056.9763183594,5415955.543518066,7963323.593139648,3643578.052520752,-2839469.6712493896,-11735198.020935059,-11702379.22668457,-5746483.325958252,2202345.132827759,6847167.96875,9096515.655517578,19197849.27368164,34145206.451416016,2497329.2350769043,-5241782.665252686,-5501198.291778564,1466857.4333190918,12204640.38848877,16642559.051513672,16154464.721679688,8924188.613891602,-4860556.602478027,-4836412.9066467285,1149745.5835342407,6421842.575073242,-1267404.7946929932
0.11,-10708567.61932373,-14716732.025146484,-16502302.169799805,-14370020.866394043,-17110383.987426758,-5127370.357513428,-6467598.438262939,-5184673.78616333,-14037748.336791992,-13255076.40838623,-14391037.940979004,-14150972.366333008,-13984731.674194336,-18131193.161010742,-3350759.267807007,-9911241.53137207,-12470868.110656738,-14569980.62133789,-10441959.381103516,-10917845.726013184,-10638802.528381348,-8187808.036804199,-31160699.84436035,-2933918.237686157,-5568516.254425049,-14451287.269592285,-11709067.344665527,-9486727.714538574,-398601.2935638428,-1612302.6609420776,-5321009.635925293,-33491622.924804688,-18005569.458007812,-6294848.918914795,-9620837.211608887,-3781648.1590270996,-1412511.2295150757,6521962.1658325195,9009568.214416504,5390804.767608643,-1129322.88646698,-12847801.208496094,-12133280.754089355,-5732230.663299561,4860559.463500977,9471152.305603027,12755034.446716309,21765363.693237305,36282287.59765625,4939094.543457031,-4580691.337585449,-4900879.859924316,1245784.878730774,14058961.868286133,19098533.630371094,18490180.96923828,12651106.834411621,-4170310.9741210938,-4098093.9865112305,2412020.444869995,9229334.831237793,-2193190.813064575
0.115,-4215185.165405273,-5433983.325958252,-8713209.15222168,-7630120.277404785,-13009005.546569824,259032.36865997314,-1248690.7243728638,79554.41623926163,-7383243.083953857,-8128517.150878906,-9124593.734741211,-8799441.33758545,-8839884.757995605,-12886335.372924805,2226684.093475342,-4406054.0199279785,-8465175.62866211,-16439746.856689453,-7454555.511474609,-7537864.685058594,-7348013.401031494,-1767608.2849502563,-26696464.53857422,2815700.054168701,-1263702.154159546,-12824533.462524414,-9440625.190734863,-9726730.346679688,3359690.4277801514,1995018.2437896729,2507270.336151123,-29524709.701538086,-20631750.106811523,-8238605.499267578,-1989330.4109573364,-2265318.1552886963,-1200867.772102356,12901326.179504395,13956949.234008789,12154792.785644531,9231748.580932617,-8822525.024414062,-7686870.574951172,-3238930.7022094727,13100750.923156738,18332584.381103516,25508996.963500977,31542692.184448242,44512802.12402344,13981140.13671875,-1980274.3196487427,-2359778.40423584,2119953.8707733154,20834413.528442383,24718704.223632812,23917558.670043945,21124891.28112793,2095676.1837005615,2352234.6019744873,7827606.678009033,15311912.536621094,-1574388.1464004517
0.12,5678515.911102295,6734771.251678467,2090973.6156463623,895413.9947891235,-5110476.016998291,6882372.3793029785,5184002.39944458,6732574.939727783,1044750.2136230469,39761.729538440704,-1115018.9638137817,-418685.9428882599,-716849.0290641785,-6518103.122711182,9174335.479736328,1033379.6739578247,-3553878.5457611084,-16021509.170532227,-2206199.6459960938,-2090441.4653778076,-1854908.9431762695,4879059.791564941,-21421989.44091797,9825827.598571777,3480446.5770721436,-11176855.087280273,-6842561.721801758,-8909489.631652832,8148268.699645996,6527773.380279541,10196389.198303223,-24691015.243530273,-19800752.639770508,-8313694.000244141,4571440.696716309,-1367798.3283996582,-1052962.8992080688,19081489.56298828,18866012.573242188,17989515.30456543,19582073.211669922,-2852064.847946167,-2488336.3246917725,-1213999.5098114014,19442720.413208008,25657455.444335938,36054386.138916016,40383834.83886719,51655998.22998047,22429840.087890625,1987276.4348983765,1645206.8090438843,4953763.008117676,27581985.473632812,29277862.548828125,28384359.35974121,28094093.322753906,10000531.196594238,10378117.561340332,14048896.789550781,20532070.15991211,1848704.6957015991
0.125,7294379.234313965,8637742.042541504,4874313.831329346,437455.02829551697,-2691753.625869751,5887156.009674072,3916301.727294922,5748688.697814941,1844899.4159698486,2802670.71723938,1384303.9274215698,2283731.22215271,1865235.3286743164,-5957154.750823975,8343642.234802246,-733834.5050811768,-4247718.811035156,-15674197.19696045,462829.47063446045,450226.69434547424,636009.8719596863,5690099.716186523,-20087020.874023438,8826950.073242188,2276650.1903533936,-12697394.371032715,-6949565.887451172,-7998620.510101318,9901578.903198242,8178964.614868164,11424591.064453125,-23372337.341308594,-17624774.932861328,-8667267.799377441,4291322.708129883,-2172003.5076141357,-1061846.4946746826,20333946.228027344,19960405.349731445,18436367.03491211,21607913.970947266,-791773.8556861877,-1513996.4818954468,-1855201.005935669,19329582.21435547,26171556.47277832,36779670.71533203,41867118.83544922,52167182.92236328,24294738.76953125,3486942.0528411865,3190676.689147949,6494638.442993164,28592191.696166992,29533555.98449707,28633487.701416016,29200407.028198242,12496176.719665527,12806550.979614258,15855992.317199707,21401926.040649414,4242076.396942139
0.13,-379980.98134994507,-28394.1812813282,-2934244.8711395264,-7115911.960601807,-8355637.550354004,-671412.8255844116,-2714137.077331543,-824616.8494224548,-4117525.100708008,-1743718.981742859,-3171898.603439331,-2521978.8551330566,-2839977.025985718,-11664568.901062012,1674183.6071014404,-6457606.792449951,-8839017.868041992,-16594463.348388672,-1373491.1680221558,-1633336.4248275757,-1611132.9793930054,1296845.79372406,-23548120.498657227,1925630.0926208496,-2462109.327316284,-15445700.645446777,-9018469.81048584,-7898437.023162842,7928668.975830078,6291477.203369141,6961312.770843506,-26576231.002807617,-16988250.732421875,-9064636.23046875,209458.1425189972,-3303413.152694702,-1146288.514137268,17281904.220581055,17354322.43347168,15026235.580444336,16109193.801879883,-3089655.3993225098,-3883173.2273101807,-3306164.7415161133,15131446.838378906,21434206.008911133,30205604.553222656,37017562.86621094,47223445.892333984,20654533.38623047,1205421.9245910645,851929.3069839478,4335263.252258301,23231609.344482422,26188585.28137207,25290830.612182617,25811140.060424805,8289521.217346191,8460350.99029541,11944914.817810059,18464538.57421875,2745255.2318573
0.135,-5398152.828216553,-5912368.297576904,-10785007.47680664,-9196015.357971191,-13528052.33001709,-1717595.8156585693,-3479763.0310058594,-1823357.343673706,-6303422.927856445,-5576963.901519775,-6764636.516571045,-6512845.993041992,-6616198.539733887,-15988295.555114746,390406.7575931549,-6290894.508361816,-8994227.409362793,-16097551.345825195,-3500033.8554382324,-3917193.651199341,-3870708.227157593,-1638818.621635437,-26510543.823242188,599428.8921356201,-2705857.515335083,-14430000.305175781,-9183018.684387207,-7723045.825958252,5850277.900695801,4287864.208221436,3504345.655441284,-29389308.92944336,-16891403.198242188,-7136453.151702881,-935644.0305709839,-3092755.079269409,-1218387.246131897,14384092.330932617,14641907.691955566,12859594.345092773,11510396.957397461,-4293529.987335205,-4693231.105804443,-3038524.866104126,11784327.507019043,16906126.022338867,24449829.1015625,32172203.063964844,42656349.182128906,17763734.817504883,-617956.9959640503,-1071677.327156067,1169929.1467666626,17052291.870117188,23119033.813476562,22258634.567260742,23104053.497314453,4390047.550201416,4539507.3890686035,7417497.158050537,15954070.091247559,734096.0502624512
0.14,742375.4930496216,38959.19770002365,-8132518.768310547,-502044.677734375,-10051846.504211426,7186975.955963135,5663819.789886475,7110540.866851807,707661.7479324341,-1634249.3295669556,-2673572.301864624,-2484904.2892456055,-2456656.2175750732,-12558792.114257812,9159094.81048584,2278762.3405456543,-1818669.1999435425,-12514330.863952637,-1450989.4847869873,-1890412.449836731,-1501926.6605377197,1206841.4688110352,-23958847.045898438,9541474.342346191,3725113.3918762207,-9107686.042785645,-6028523.921966553,-6482528.6865234375,6834018.230438232,5232319.8318481445,5652691.36428833,-26904426.57470703,-14602918.62487793,-3116822.4811553955,2711915.969848633,-1845882.773399353,-1217295.4082489014,14720994.94934082,14852835.655212402,14601366.04309082,13923542.976379395,-607175.0521659851,-1574169.2781448364,-1308678.5078048706,12124615.669250488,16972045.8984375,25063777.923583984,32437622.0703125,42814296.72241211,19994264.602661133,2662733.0780029297,2202448.844909668,2168506.860733032,16812103.271484375,23843296.05102539,23124912.26196289,24776046.752929688,7784331.321716309,8071332.931518555,8672710.418701172,17744653.701782227,3224878.3111572266
0.145,11011634.826660156,10624406.814575195,1699859.857559204,9052486.419677734,-1822637.2003555298,17066553.115844727,15299364.08996582,16765153.884887695,9168926.239013672,5859553.813934326,4723171.234130859,5194733.142852783,5172948.837280273,-4614955.902099609,19119239.807128906,10581505.77545166,5344107.151031494,-9384013.175964355,2563216.6862487793,2197524.309158325,2926988.6016845703,6650558.4716796875,-17706506.729125977,19689130.783081055,10383667.945861816,-4674485.683441162,-2924890.2797698975,-5463565.826416016,9443734.169006348,7796268.939971924,10841369.62890625,-20711915.969848633,-10383747.100830078,-112920.19486427307,7500379.56237793,-873482.5253486633,-1081907.1531295776,17163648.60534668,17321290.969848633,18135717.391967773,20661828.994750977,5421709.060668945,3434992.3133850098,741307.6162338257,16196283.340454102,21908348.083496094,30940538.40637207,37190551.7578125,46784259.79614258,25589017.868041992,9637593.269348145,9268521.308898926,8446578.979492188,23644302.368164062,28250690.460205078,27725906.372070312,29667245.864868164,16581438.064575195,17057106.018066406,15924970.626831055,23333665.84777832,9213621.139526367
0.15,13131014.823913574,13381056.785583496,6798153.877258301,8542950.630187988,940995.8124160767,17943687.438964844,15712955.474853516,17148506.16455078,9191302.299499512,7345961.570739746,6108925.819396973,6789021.4920043945,6607306.480407715,-280914.5152568817,20256484.985351562,10826461.791992188,5193154.335021973,-10799820.899963379,2823174.476623535,2536304.712295532,3283638.2389068604,9005476.951599121,-13581727.027893066,20877159.118652344,11583610.534667969,-4841099.262237549,-3181291.8186187744,-6527822.017669678,10162877.082824707,8547370.910644531,13584133.14819336,-16474565.505981445,-7324887.752532959,398409.0983867645,10131531.715393066,-496605.9625148773,-855488.0619049072,18704708.099365234,19047615.05126953,20027671.813964844,24889604.568481445,8857363.7008667,7257648.468017578,3240739.8223876953,21636026.38244629,27672002.7923584,36439987.18261719,41522373.19946289,50167537.689208984,29588264.46533203,14140892.98248291,13839830.39855957,14727915.76385498,31326642.990112305,32590587.615966797,32131675.720214844,33548889.16015625,22387531.280517578,22976583.48083496,22718753.814697266,28191551.208496094,12818904.876708984
0.155,7058321.952819824,8177887.916564941,3582485.6758117676,1462717.890739441,-3495546.579360962,12134490.966796875,9931286.811828613,10948532.104492188,3056839.2276763916,2154022.455215454,1036977.2911071777,1632385.1346969604,1310329.1988372803,-1513354.4206619263,14744164.46685791,6333313.465118408,726257.9798698425,-14804238.319396973,-734367.9070472717,-1071456.9091796875,-496907.68122673035,7986908.435821533,-13615209.579467773,15328773.498535156,9396602.630615234,-7147053.241729736,-5161335.468292236,-8537735.939025879,8920123.100280762,7336649.417877197,13064273.834228516,-16372741.69921875,-7623209.9533081055,-469979.31599617004,10868905.067443848,-311571.03180885315,-726109.2662811279,18697376.251220703,18802452.087402344,19837699.89013672,24672519.68383789,8242450.714111328,8217363.357543945,5413063.526153564,24663444.51904297,29565023.42224121,37718318.939208984,42164169.31152344,50236099.24316406,29792009.353637695,12466167.449951172,12138837.814331055,14600955.963134766,32792251.586914062,33237903.594970703,32599502.563476562,33871597.29003906,20700128.55529785,21254121.780395508,23497697.830200195,28499877.9296875,11103297.233581543
0.16,3646128.8928985596,5692765.712738037,370680.45139312744,-481430.2921295166,-6726568.222045898,9288158.416748047,7709920.883178711,8117577.55279541,1510289.6690368652,-426467.9253101349,-1354839.0865325928,-891592.8602218628,-1279484.1527938843,-2947318.0770874023,12074339.866638184,5393993.854522705,75195.41680812836,-15966925.621032715,-1851088.1662368774,-2382762.1936798096,-1842295.0506210327,8096108.436584473,-14880289.077758789,12645771.026611328,8832379.341125488,-7558946.60949707,-4926932.334899902,-8341358.184814453,9076226.234436035,7450682.163238525,13398055.076599121,-17726373.67248535,-10909426.68914795,-2402902.126312256,11413339.614868164,-478235.75139045715,-791539.192199707,19431489.944458008,18488431.930541992,19829463.958740234,24084222.7935791,5833098.411560059,6056148.529052734,4496469.020843506,23646921.157836914,27535280.227661133,37027435.302734375,41117256.16455078,48603054.04663086,28329721.450805664,7011572.83782959,6621625.4234313965,7751529.216766357,28240934.371948242,30457504.272460938,29498580.932617188,31861318.588256836,15533740.043640137,15916841.506958008,19604125.9765625,25020887.37487793,6799433.23135376
0.165,7497193.813323975,10169238.090515137,3009427.547454834,4812833.309173584,-3743994.4744110107,11989274.024963379,10841817.855834961,10971408.84399414,7487262.725830078,4549610.614776611,3594706.5353393555,4146824.359893799,3748565.435409546,-1601493.1201934814,14793195.724487305,8885570.526123047,4139641.284942627,-13497928.619384766,2232907.772064209,1565473.4373092651,2227336.883544922,10642305.374145508,-15472656.25,15376457.214355469,10061917.304992676,-6464177.131652832,-2399171.5908050537,-5669534.206390381,11588477.13470459,9908719.062805176,16179641.723632812,-18598436.35559082,-15063737.869262695,-6058217.525482178,12122599.601745605,-1310145.7357406616,-876030.5643081665,22067529.678344727,19657991.409301758,20830198.287963867,25492912.29248047,3796418.1900024414,2101299.047470093,18730.349838733673,21444713.592529297,26096500.396728516,38838294.982910156,41810287.47558594,48014030.45654297,27515779.495239258,2605565.071105957,2223600.149154663,505293.90573501587,24382606.506347656,27581905.364990234,26421068.19152832,29919231.414794922,12896035.194396973,13098594.665527344,16229013.442993164,21534252.166748047,3437547.6837158203
0.17,11039535.522460938,13495677.947998047,5850603.103637695,7850993.1564331055,-372249.39465522766,13939002.990722656,12368021.965026855,12693824.768066406,11885273.933410645,9673357.963562012,8502257.347106934,9239990.234375,8868845.93963623,-1371381.402015686,16690366.744995117,10421485.900878906,6035330.772399902,-12148367.881774902,5668727.874755859,5104603.290557861,5812807.559967041,11314891.815185547,-16899084.091186523,17259275.436401367,9624933.242797852,-6836121.559143066,-1423408.9851379395,-4160342.6933288574,12811756.134033203,11135632.514953613,17375926.971435547,-20201469.42138672,-17444433.212280273,-9539296.15020752,12251426.696777344,-2109377.62260437,-763317.1677589417,24109315.872192383,20669521.33178711,20824048.99597168,25656284.33227539,2495313.4059906006,-746787.7268791199,-3476387.5007629395,21823411.94152832,27935358.04748535,42664794.921875,43476966.857910156,48152290.34423828,26867368.698120117,1394233.3459854126,1135304.6894073486,-1165471.4345932007,25602756.50024414,26954175.94909668,25875162.12463379,28803543.090820312,13302522.659301758,13468855.857849121,15736137.390136719,20458621.978759766,1704316.7352676392
0.175,8069078.44543457,9206955.909729004,2373180.389404297,3381423.4733581543,-3219120.502471924,11460151.672363281,9004350.662231445,9657116.889953613,7536068.916320801,6275308.609008789,4988235.950469971,5720364.093780518,5410258.769989014,-5089627.742767334,14154220.581054688,7256970.8824157715,2343134.641647339,-14788206.100463867,2510506.3915252686,2155497.5509643555,2789183.6166381836,7653022.766113281,-19277942.657470703,14707741.737365723,6962234.973907471,-8755793.571472168,-3748747.1103668213,-6181304.454803467,10185201.644897461,8521788.597106934,14215466.499328613,-22485433.57849121,-16786745.071411133,-9431851.387023926,11480538.368225098,-1937217.4739837646,-537163.6748313904,22943845.748901367,19459531.784057617,18815177.91748047,22209716.796875,1645095.2291488647,-638193.3093070984,-2062263.7271881104,24109773.635864258,30205810.546875,43670154.5715332,42798496.24633789,47038925.17089844,25682788.848876953,2114270.6871032715,2015111.9232177734,2102554.0828704834,29063011.169433594,28038845.06225586,27208007.8125,28404552.459716797,13306793.212890625,13567107.200622559,16700563.430786133,21367290.496826172,1287765.2645111084
0.18,3827031.373977661,3347701.5495300293,-2956972.599029541,-1625262.2604370117,-8582489.967346191,8634460.44921875,5777246.952056885,6616100.311279297,-174647.10772037506,-2016510.4866027832,-3201406.478881836,-2651461.8396759033,-2891577.959060669,-8077222.82409668,11210577.964782715,3925342.559814453,-2002691.2689208984,-18485668.182373047,-3763870.4776763916,-4097294.807434082,-3484319.6868896484,4374301.433563232,-19131994.247436523,11809847.831726074,4888589.382171631,-9748627.662658691,-6481253.623962402,-9166129.112243652,7021948.81439209,5333220.0050354,11066967.010498047,-22129966.735839844,-15221073.150634766,-6798445.701599121,10037559.509277344,-1388363.7189865112,-456062.1976852417,20375747.680664062,17636560.440063477,17619966.506958008,19210231.78100586,859480.7386398315,409407.73487091064,1047141.3135528564,24246541.97692871,29237094.87915039,40656745.91064453,40172657.01293945,45335121.154785156,25657915.115356445,2585908.889770508,2522881.031036377,4775209.903717041,29861293.79272461,29218381.881713867,28525384.9029541,29191522.5982666,11666172.02758789,11938803.672790527,17954645.15686035,22871080.39855957,2436817.6460266113
0.185,5680605.411529541,4905942.916870117,-1458426.3563156128,271550.9533882141,-8017424.583435059,9105919.83795166,6619988.918304443,7561163.425445557,-1608403.5634994507,-4053023.338317871,-5129554.271697998,-4650018.215179443,-4848686.218261719,-4930293.560028076,11450929.641723633,4062565.803527832,-1956215.0239944458,-19389804.84008789,-4772456.169128418,-5314762.115478516,-4610491.2757873535,6894181.728363037,-14898762.702941895,12131263.732910156,4325065.135955811,-9468130.111694336,-6651860.237121582,-9230378.150939941,8066493.034362793,6407325.267791748,13543824.195861816,-17793842.315673828,-16551671.981811523,-7257254.123687744,8168897.62878418,-1994998.2166290283,-536960.5422019958,20551305.770874023,18546895.98083496,20070562.3626709,21345996.856689453,-634090.5427932739,-1149302.4826049805,-413741.7674064636,21090267.181396484,26330444.3359375,38541679.38232422,39744827.27050781,45706485.748291016,28115278.244018555,1737104.4158935547,1507483.1247329712,3493373.8708496094,27885557.174682617,29711452.48413086,28941270.82824707,30989778.518676758,10329602.241516113,10402137.756347656,20037544.25048828,24016622.54333496,4067066.6694641113
0.19,10278908.729553223,11102797.508239746,4909430.980682373,4896487.712860107,-1818111.538887024,9610986.709594727,7653170.108795166,8630177.49786377,3078467.845916748,2543613.4338378906,1376751.8997192383,2002264.0228271484,1818271.279335022,683115.541934967,11713068.008422852,4692771.434783936,149657.2643518448,-17809238.43383789,506091.23706817627,-236476.65977478027,543521.6426849365,12203262.329101562,-11299498.558044434,12407637.596130371,2921317.5773620605,-10096126.556396484,-5415636.06262207,-6623135.566711426,11891984.939575195,10416356.086730957,18801074.981689453,-14164120.6741333,-20848405.838012695,-12494044.303894043,5993224.143981934,-3777933.359146118,-556001.5439987183,23340208.053588867,21318233.489990234,23464128.494262695,25081312.17956543,-3265984.296798706,-5282931.804656982,-6146888.256072998,17794254.302978516,25022010.803222656,39955776.21459961,41751277.923583984,47179374.69482422,30031980.514526367,-48620.741814374924,-510755.12170791626,318772.5841999054,26284351.348876953,28929307.93762207,28048810.958862305,31424013.137817383,10060549.73602295,9901352.882385254,22355073.928833008,23670227.05078125,3532938.7187957764
0.195,8614911.079406738,11140231.132507324,5466155.529022217,3280550.479888916,868604.302406311,6098484.516143799,4227667.331695557,4957717.418670654,5217977.523803711,7959012.031555176,6606894.969940186,7356598.854064941,7198091.506958008,82807.62284994125,8088389.3966674805,2091897.2492218018,-638721.9429016113,-16197690.963745117,4239892.00592041,3446471.4527130127,4243947.982788086,12100275.993347168,-13512393.951416016,8681938.171386719,-165820.58370113373,-11869153.022766113,-5557227.13470459,-4931275.844573975,12280224.800109863,11054663.65814209,18249830.24597168,-16216039.657592773,-22933359.146118164,-16206762.313842773,3748687.982559204,-4871816.635131836,-456736.56463623047,23655841.827392578,20941066.74194336,21983100.89111328,22509738.92211914,-5744015.693664551,-8060882.568359375,-9089582.443237305,16485160.827636719,24743749.618530273,39775444.03076172,40357734.68017578,44801738.73901367,27145500.18310547,-1382436.8715286255,-1915787.4584197998,-988563.060760498,25632200.241088867,26179466.247558594,25344638.82446289,28493566.513061523,9216584.205627441,9080486.297607422,22617462.158203125,20959825.51574707,653676.7482757568
0.2,974835.216999054,2905426.7406463623,-2673866.5103912354,-3758033.514022827,-4246659.755706787,1563792.8247451782,-527844.9058532715,-368029.8924446106,1236521.9593048096,4641427.993774414,3265758.514404297,3910339.593887329,3792011.260986328,-7400034.427642822,3538698.673248291,-1250539.3028259277,-3538863.182067871,-14868120.193481445,1313778.4004211426,475923.7468242645,1340409.8749160767,5220992.565155029,-19035219.192504883,3969629.5261383057,-1970698.7142562866,-11947821.617126465,-6911440.849304199,-5696342.945098877,7354432.106018066,6257353.782653809,10273046.493530273,-21418111.80114746,-18811105.728149414,-12578113.555908203,1847433.5670471191,-4140181.064605713,-458276.80826187134,18876436.233520508,15747391.700744629,15215486.526489258,13707916.259765625,-5923590.183258057,-7171773.433685303,-5668807.029724121,15317070.960998535,21855245.59020996,32971530.91430664,32557693.481445312,37362308.502197266,20906455.993652344,-1110135.1976394653,-1519324.0642547607,74564.1142129898,23632011.41357422,22430963.51623535,21701692.581176758,24338670.73059082,7393231.391906738,7521038.53225708,20391880.03540039,17164852.142333984,-729580.9388160706
0.205,-2033195.2571868896,-2819241.762161255,-9108462.3336792,-6074476.718902588,-9843153.953552246,2325089.931488037,175406.00895881653,-120330.22940158844,-2268347.0249176025,-1943049.430847168,-3128231.7638397217,-2681791.5439605713,-2798662.9009246826,-12513249.397277832,4242164.134979248,-134965.15154838562,-3408398.151397705,-12665493.01147461,-3440146.2078094482,-4451532.363891602,-3466110.2294921875,-130569.86033916473,-20364425.659179688,4545328.617095947,53735.98262667656,-8917113.304138184,-6919327.735900879,-6684291.362762451,2880127.191543579,1737564.5637512207,3842606.544494629,-22505071.64001465,-11736595.153808594,-5136315.34576416,1059510.1118087769,-2715426.206588745,-644886.3744735718,13652080.535888672,11137689.590454102,10233734.130859375,8353240.013122559,-3299618.721008301,-4800134.658813477,-759254.6939849854,12806828.498840332,16750839.233398438,24356973.64807129,24938385.009765625,31394453.048706055,18005064.010620117,407216.340303421,122965.11232852936,1059038.758277893,20172210.693359375,20707986.83166504,19910867.69104004,23424489.974975586,6989253.520965576,7297875.40435791,18692775.72631836,15376721.382141113,2007920.503616333
0.21,5550809.860229492,2965753.3168792725,-4405276.775360107,1244828.5818099976,-7380834.102630615,8688650.131225586,6703742.027282715,6548484.802246094,1269619.8225021362,-1739892.1251296997,-2721161.365509033,-2294357.7766418457,-2494454.3838500977,-9013561.248779297,10519637.107849121,5324468.612670898,1089174.509048462,-10421421.05102539,-2797685.8615875244,-3971049.5471954346,-2985644.817352295,2657639.741897583,-15621872.901916504,10813219.07043457,4159670.352935791,-5474746.7041015625,-4863483.428955078,-5808750.629425049,4418466.567993164,3170535.087585449,6530701.160430908,-17832983.016967773,-8601026.53503418,-2204374.7901916504,2518016.576766968,-2098418.712615967,-729851.3054847717,14354061.126708984,12849579.811096191,12791440.963745117,12758021.354675293,375658.4823131561,-3583163.022994995,65003.01510095596,11844031.33392334,15190487.8616333,24073947.90649414,26421321.868896484,33586837.76855469,21701480.865478516,1795735.9552383423,1483571.7678070068,732438.4450912476,18893787.384033203,22991127.014160156,21986049.65209961,26772476.196289062,9713205.337524414,9923254.013061523,20390045.166015625,17203414.916992188,5752796.173095703
0.215,16533164.978027344,15399628.639221191,7067667.007446289,10962149.620056152,834155.6191444397,14450272.560119629,12493250.846862793,12990948.677062988,8747832.298278809,5347944.259643555,4404707.431793213,5006278.514862061,4674101.35269165,-2220300.9128570557,16349153.518676758,9754408.836364746,5402379.035949707,-10694010.734558105,2317591.905593872,1226937.6516342163,2006446.5999603271,9450065.612792969,-11223478.317260742,16781335.830688477,6762227.0584106445,-4813486.099243164,-2948652.982711792,-4299430.370330811,9750222.206115723,8436954.498291016,14319132.804870605,-13784848.2131958,-11113210.678100586,-5610377.311706543,6674031.734466553,-1973149.7764587402,-444128.3345222473,20721948.623657227,19103418.350219727,19719449.996948242,21506797.790527344,3288020.8492279053,-2450692.1768188477,-1477723.9561080933,16082931.518554688,20840019.22607422,34226478.576660156,36424480.43823242,41798946.380615234,27586463.928222656,2636878.490447998,2202505.350112915,768909.5139503479,22522966.384887695,27608966.827392578,26577802.658081055,30827808.380126953,13856323.2421875,13893699.645996094,24683265.686035156,21025979.99572754,5804428.1005859375
0.22,20373508.45336914,22458019.256591797,13618167.877197266,13443378.448486328,4902300.3578186035,15172760.963439941,12941834.449768066,14050393.104553223,11766308.784484863,9679787.635803223,8634882.926940918,9374887.466430664,8969677.925109863,-904383.8977813721,17337858.200073242,9867297.172546387,5449481.964111328,-14124732.01751709,4553108.215332031,3773857.1166992188,4315635.204315186,11477202.415466309,-12595297.813415527,17983982.08618164,7013311.386108398,-6416620.254516602,-3094386.577606201,-4695353.984832764,12259685.516357422,10912967.681884766,17776189.80407715,-15523200.035095215,-14400694.847106934,-9325269.69909668,11884618.759155273,-1199152.7080535889,14366.164803504944,26369050.979614258,23075387.954711914,23383419.036865234,25725276.947021484,5275435.924530029,882591.962814331,-216284.31975841522,23884357.452392578,29856582.641601562,45833454.13208008,45433990.478515625,47825496.673583984,29998771.66748047,4008142.4713134766,3477266.0732269287,2924522.1614837646,29063667.29736328,31188486.099243164,30473247.528076172,32593460.083007812,16690679.550170898,16799020.767211914,28621023.178100586,24359823.22692871,3052800.178527832
0.225,16193531.036376953,19695245.74279785,11022580.14678955,8348395.347595215,507184.08823013306,12625297.546386719,10140686.988830566,11431949.615478516,7761273.384094238,5523652.076721191,4379002.571105957,5078551.769256592,4752020.359039307,-5301940.441131592,15007673.263549805,7678592.681884766,2474988.2221221924,-18054872.512817383,686693.7875747681,187617.2125339508,673834.9795341492,7016087.055206299,-16995094.299316406,15796551.704406738,6624798.774719238,-7492157.936096191,-4639659.404754639,-7081452.8465271,9731129.64630127,8342859.268188477,14578318.59588623,-20042695.999145508,-14381288.528442383,-8828204.154968262,14874165.534973145,-118254.84037399292,178469.0022468567,26756141.662597656,21747541.427612305,21442771.911621094,24510250.091552734,6772983.551025391,5051068.305969238,3744937.1814727783,29071458.81652832,35074668.884277344,49676429.748535156,46570278.16772461,47411743.1640625,28963167.190551758,6423221.111297607,5837877.7503967285,6064682.960510254,33899520.87402344,32263088.22631836,31932186.126708984,32850341.796875,17736755.37109375,18153467.178344727,30560188.29345703,26392786.026000977,2852293.2529449463
0.23,11436474.800109863,13462273.597717285,5124577.99911499,3246531.7249298096,-6311834.812164307,10506999.015808105,8207799.911499023,9361604.690551758,2567276.4778137207,-1599121.2129592896,-2743340.492248535,-2188293.695449829,-2303256.5116882324,-8568978.309631348,12799041.748046875,6239724.159240723,436317.65246391296,-19244678.497314453,-4388551.712036133,-4821736.812591553,-4227988.719940186,2162011.6233825684,-18636125.564575195,13579705.238342285,6393811.7027282715,-7092484.474182129,-5733129.978179932,-8915702.819824219,6124239.444732666,4678791.522979736,10464737.892150879,-21486051.559448242,-12789408.683776855,-6503799.4384765625,13651626.586914062,-216315.41848182678,-107930.13870716095,23474000.930786133,18471160.888671875,18221279.14428711,23036384.58251953,7182394.027709961,6069939.613342285,5247376.918792725,27809818.267822266,33612648.010253906,45528652.19116211,41917083.740234375,43376613.61694336,27869367.599487305,8265784.26361084,7656022.071838379,7274278.163909912,34372020.72143555,31574493.408203125,31332422.256469727,33128753.662109375,17953416.82434082,18603574.752807617,30607559.204101562,27199085.235595703,6947736.2632751465
0.235,11046773.910522461,11222674.369812012,2180496.6926574707,3444977.283477783,-7877008.438110352,9658160.209655762,7964033.126831055,8983747.482299805,2313176.8703460693,-3065967.798233032,-4093376.1596679688,-3699835.0620269775,-3601817.3694610596,-7550228.595733643,11628613.471984863,5753299.713134766,981629.0140151978,-17057079.315185547,-4839624.881744385,-5339746.952056885,-4674376.487731934,1521835.5655670166,-17164310.455322266,12316383.361816406,5465686.798095703,-6602238.178253174,-5605886.459350586,-8274009.704589844,5290819.6449279785,3783551.9313812256,9666151.04675293,-19664279.93774414,-13322947.50213623,-6438498.497009277,9833154.678344727,-1660311.9373321533,-538458.2281112671,20587606.43005371,17063411.712646484,17438159.942626953,23137413.024902344,5595577.716827393,3031040.906906128,2186068.296432495,22585393.90563965,28541162.490844727,39421318.05419922,37231655.12084961,39701404.5715332,27354488.372802734,7590447.902679443,7029166.221618652,5480518.817901611,31432771.682739258,29800561.904907227,29375354.766845703,32539760.58959961,17256093.978881836,17855607.986450195,29002550.12512207,26134794.235229492,10624029.159545898
0.24,13172959.327697754,13668877.601623535,2469905.138015747,7090707.778930664,-3937977.7908325195,9030681.610107422,7910344.123840332,8968679.428100586,6358093.26171875,1834442.377090454,983627.2597312927,1174801.5880584717,1364527.1062850952,-5710876.941680908,10787862.777709961,5141980.6480407715,2656131.0291290283,-13807655.334472656,-1167453.7658691406,-1669644.5941925049,-1085199.236869812,3378962.516784668,-16548999.786376953,11389567.375183105,3858868.5989379883,-6872924.8046875,-4817268.371582031,-6099098.682403564,6621847.152709961,5080132.484436035,10457144.737243652,-18827827.45361328,-15896394.729614258,-8275112.152099609,7346761.226654053,-2756626.1291503906,-773772.5377082825,19890037.536621094,17384117.126464844,18112806.32019043,22313213.348388672,2899995.5654144287,-94658.70261192322,-1278340.8164978027,19014175.415039062,24711799.62158203,36180679.32128906,35209228.515625,37308204.650878906,25713050.842285156,5079590.320587158,4624930.858612061,2882217.4072265625,28077394.485473633,27099739.07470703,26550170.8984375,29928529.739379883,15199233.055114746,15578609.466552734,26202531.814575195,22983520.5078125,9315321.922302246
0.245,14900400.161743164,17358558.654785156,3942080.497741699,9900076.866149902,392175.19760131836,8851697.92175293,7899631.977081299,9132904.052734375,9788998.6038208,6875804.424285889,6139801.979064941,6107635.021209717,6270280.838012695,-5352326.8699646,10696154.594421387,4928132.5340271,3833159.4467163086,-12370420.455932617,1964472.0554351807,1595113.0390167236,2039810.1806640625,4807075.023651123,-17427099.227905273,11217385.292053223,3434585.3328704834,-7024369.716644287,-4130750.1792907715,-4856838.703155518,7774269.580841064,6287752.628326416,10704193.115234375,-19785873.413085938,-17421596.52709961,-8936714.172363281,8663051.60522461,-2279441.3566589355,-818288.4454727173,20865339.279174805,17831245.42236328,18381929.397583008,20665170.669555664,1689859.5094680786,624895.3342437744,-697334.1703414917,20118341.44592285,24753734.588623047,36886875.15258789,35530464.17236328,36158016.204833984,23644620.895385742,3544101.4766693115,3130342.960357666,2292217.493057251,26922750.47302246,24457145.69091797,23991128.92150879,26913234.71069336,13082763.671875,13308046.340942383,23786201.47705078,19640163.42163086,4664844.989776611
0.25,16804931.640625,20764352.798461914,6773663.520812988,11061606.407165527,2518388.032913208,10354361.534118652,9260491.371154785,10682096.481323242,10410781.860351562,8283367.156982422,7511044.025421143,7392227.649688721,7502329.8263549805,-3391862.392425537,12410065.650939941,6428939.342498779,4649865.627288818,-13410198.211669922,2510051.488876343,2302803.5163879395,2716526.508331299,6506447.792053223,-16053665.161132812,12839472.770690918,5336508.750915527,-6223522.186279297,-3847476.4823913574,-5603874.683380127,8472822.189331055,7143419.7425842285,11935889.24407959,-18686079.025268555,-16577383.041381836,-7814233.303070068,12585698.127746582,-1103379.8456192017,-886754.8704147339,22682310.104370117,18599229.81262207,19028673.17199707,21871520.99609375,3217283.7257385254,4230303.764343262,2894405.1265716553,24173377.990722656,27967262.268066406,40215675.354003906,37435573.57788086,36914993.28613281,23852479.934692383,4152513.027191162,3681887.626647949,3740131.616592407,28315683.364868164,23275274.2767334,22911428.451538086,25855781.55517578,12844066.619873047,13061401.3671875,23210626.60217285,18434959.411621094,1489768.9819335938
0.255,20014064.78881836,24452404.022216797,11261686.325073242,12695906.639099121,4164272.7851867676,13177105.903625488,12023924.827575684,13518164.63470459,10490606.307983398,8349520.683288574,7470159.530639648,7489479.541778564,7570778.369903564,2170261.1446380615,15254296.30279541,9144167.90008545,5999414.920806885,-14839017.868041992,2452932.834625244,2308004.61769104,2822549.1046905518,9767032.623291016,-11478262.901306152,15642424.583435059,7855016.708374023,-5041319.847106934,-3809012.8898620605,-7010810.375213623,9560869.216918945,8379578.590393066,15257414.817810059,-14284955.978393555,-15331596.374511719,-7184128.761291504,15773977.279663086,-796152.9493331909,-1053661.823272705,24342479.705810547,20190530.77697754,20926630.0201416,26130744.93408203,5258046.627044678,6338857.173919678,5147359.848022461,27183713.912963867,31250377.655029297,43304840.087890625,39485683.44116211,38616607.666015625,25920581.817626953,4673397.541046143,4201333.999633789,4583674.430847168,30036483.764648438,23305952.072143555,22895933.151245117,26065031.051635742,13888772.010803223,14157580.375671387,23645826.33972168,18956399.91760254,996871.4714050293
0.26,22314899.444580078,27064353.942871094,14396694.18334961,15153482.437133789,6136540.88973999,14949353.218078613,13984392.166137695,15375483.512878418,12115145.683288574,9716327.667236328,8835299.491882324,9049578.666687012,9100735.664367676,6518870.3536987305,16786333.084106445,10752224.922180176,7677800.65536499,-14413136.48223877,3341246.3665008545,3136754.035949707,3729348.4210968018,12096439.361572266,-8722863.19732666,17220830.9173584,8169949.531555176,-4544509.410858154,-3629699.468612671,-7273392.677307129,10347208.023071289,9170544.624328613,17508878.707885742,-11425204.277038574,-16078779.220581055,-8580252.647399902,16146512.985229492,-1494117.3791885376,-1182311.2964630127,24519659.0423584,21161642.07458496,22119916.915893555,28066473.00720215,4381409.645080566,4572112.560272217,4260759.8304748535,26980031.967163086,31686740.87524414,43382263.18359375,39462039.947509766,38267749.78637695,25923450.469970703,2577569.007873535,2238006.830215454,3007176.160812378,29606260.299682617,22783119.201660156,22294359.20715332,24874399.185180664,13397016.525268555,13685136.795043945,22722682.95288086,18504093.170166016,99446.64686918259
0.265,20476520.538330078,25358997.344970703,12410141.944885254,15689851.760864258,5798162.460327148,13751358.032226562,12969042.778015137,14167585.372924805,13775033.950805664,10702736.854553223,9935484.886169434,10167837.142944336,10183486.938476562,3829728.603363037,15319549.560546875,9672416.687011719,8235645.294189453,-12726243.97277832,3780058.8607788086,3455453.395843506,3985736.131668091,10041443.824768066,-11988066.673278809,15799375.534057617,5779557.228088379,-5010042.667388916,-3162188.5299682617,-6356863.975524902,9471004.486083984,8167326.927185059,15421482.08618164,-14406803.131103516,-19024164.1998291,-11069151.878356934,14622269.630432129,-2079381.7043304443,-1134530.9019088745,23156097.412109375,20054517.74597168,20513307.571411133,24394433.975219727,404672.7120876312,1084692.2397613525,2420757.293701172,25141363.1439209,29554546.356201172,40975231.1706543,37153465.270996094,35047512.05444336,22328178.40576172,-1187430.6201934814,-1443396.6875076294,462393.25404167175,27371427.536010742,21186965.942382812,20744623.1842041,21994916.915893555,10511049.270629883,10782075.881958008,19912132.263183594,16113193.51196289,-3046799.659729004
0.27,15497339.248657227,19586490.631103516,6595871.448516846,12703302.383422852,1647460.5798721313,10499848.365783691,9588396.072387695,10680058.479309082,13071316.719055176,8808186.531066895,8058592.796325684,8165353.775024414,8170624.732971191,-3362341.88079834,12021189.68963623,7027911.186218262,6894228.935241699,-12616915.702819824,2346882.3432922363,1908350.5868911743,2343005.657196045,5295805.931091309,-17898069.381713867,12476265.907287598,3348336.696624756,-5853946.685791016,-2751336.5745544434,-5785305.500030518,7780169.0101623535,6345581.531524658,11566006.660461426,-20082201.00402832,-22266752.243041992,-12818593.02520752,13997714.99633789,-1809326.410293579,-911994.5764541626,22505216.598510742,18491830.825805664,18083826.065063477,19804918.28918457,-2572066.068649292,-17235.208302736282,2437782.5260162354,25269157.40966797,28540044.7845459,40442153.93066406,35973579.40673828,32747009.27734375,19220558.166503906,-2792474.7467041016,-3168833.2557678223,176216.4980173111,26672548.294067383,20633329.391479492,20257303.23791504,20489315.032958984,8587030.410766602,8869529.724121094,18087369.918823242,14648550.987243652,-5779341.220855713
0.275,12397469.520568848,15428287.506103516,2985201.120376587,9054063.79699707,-2788982.152938843,8324926.376342773,7018577.575683594,8145645.1416015625,10753234.86328125,5708759.307861328,4768509.864807129,4873914.2417907715,4846198.081970215,-6233361.721038818,10015533.447265625,5573410.0341796875,4953489.303588867,-15253398.895263672,459514.40930366516,-25721.365585923195,464513.3912563324,3628012.8955841064,-19338798.52294922,10477307.319641113,3729094.7437286377,-6280555.725097656,-2783505.439758301,-6429733.753204346,7779823.780059814,6282734.8709106445,11673138.618469238,-21435815.811157227,-23340314.865112305,-12788545.608520508,16014451.98059082,-912545.4425811768,-603044.3906784058,24585252.76184082,19475135.803222656,18931924.81994629,21169240.951538086,-647518.3963775635,2954703.8078308105,4743006.706237793,28911792.755126953,31423992.156982422,44664161.682128906,38924774.169921875,35106044.76928711,21294069.290161133,-14473.343268036842,-526376.1878013611,3362076.997756958,29819616.317749023,23114530.563354492,22613487.243652344,22709585.189819336,11285267.82989502,11679965.97290039,20271282.196044922,17262496.948242188,-4458028.793334961
0.28,14149497.032165527,17699453.353881836,5055378.9138793945,8852497.100830078,-2906337.4996185303,9343402.862548828,7671273.231506348,8844406.127929688,9742789.268493652,5196770.668029785,4067484.8556518555,4425191.879272461,4234269.618988037,-1437345.3855514526,11213667.869567871,6714989.66217041,4503231.048583984,-18223295.211791992,403380.6025981903,-3727.2186018526554,658045.8879470825,7027662.754058838,-14906954.765319824,11806497.573852539,6643319.129943848,-5866739.749908447,-3063783.1687927246,-7379790.306091309,9957972.526550293,8439941.40625,16432762.145996094,-16999464.03503418,-21282732.009887695,-11229083.061218262,19447540.283203125,85457.9210281372,-316894.5014476776,28063655.853271484,22873800.27770996,23279722.213745117,28016263.961791992,4885349.750518799,7568986.415863037,7541929.721832275,33577644.34814453,36248386.38305664,50518386.84082031,43924625.396728516,40215637.20703125,27399875.64086914,4918689.727783203,4527734.279632568,7572112.083435059,34654911.041259766,27190486.907958984,26415950.775146484,26967517.852783203,17142080.307006836,17741062.16430664,25247568.130493164,22536792.755126953,105407.08899497986
0.285,17806930.541992188,23800855.63659668,9310928.344726562,11752889.633178711,679070.4727172852,12042721.74835205,10205032.348632812,11305755.615234375,10871253.967285156,7522788.524627686,6455709.934234619,7135749.816894531,6703726.768493652,4423779.010772705,13953839.302062988,8715014.457702637,5741896.629333496,-18545255.661010742,1902645.8263397217,1679054.617881775,2392647.9816436768,10651020.050048828,-10563367.84362793,14652830.123901367,8831571.578979492,-5045881.271362305,-3098843.812942505,-7322707.653045654,11751296.043395996,10234095.573425293,20040685.653686523,-12683748.245239258,-18188575.744628906,-9743676.18560791,21231330.87158203,742255.2108764648,-180155.4411649704,29502033.233642578,25106855.392456055,26411355.97229004,32843444.82421875,8383497.23815918,9598324.7756958,8642787.93334961,35379833.22143555,38452285.76660156,52250282.287597656,45744098.66333008,42354118.34716797,31441471.099853516,7391761.302947998,7269258.975982666,9057090.759277344,36505672.454833984,28887193.67980957,27956190.10925293,28996164.321899414,20117122.650146484,20876070.022583008,27889141.082763672,25008529.663085938,2603822.2312927246
0.29,18679513.931274414,27310104.370117188,10691155.433654785,13626417.16003418,3441502.332687378,13051669.120788574,11201710.70098877,12171478.271484375,12335033.416748047,9585239.41040039,8729850.769042969,9556833.267211914,9061277.389526367,4543847.08404541,14908429.145812988,8912143.70727539,6925302.982330322,-16422412.872314453,2914659.7385406494,2840807.9147338867,3406445.5032348633,9896985.054016113,-11170467.376708984,15494085.311889648,8035018.9208984375,-4748221.874237061,-2772504.3296813965,-6318566.32232666,11190482.139587402,9700878.143310547,18398368.83544922,-13416493.41583252,-17693365.0970459,-10217460.632324219,20104726.791381836,707909.1668128967,-271237.96939849854,27912395.477294922,24049625.396728516,24887542.724609375,31093978.881835938,6423813.819885254,7488850.116729736,7383655.548095703,33716686.2487793,36801948.54736328,49081100.46386719,42849796.295166016,39382678.9855957,29772041.32080078,5326971.054077148,5269580.841064453,6843889.236450195,33882022.857666016,26476709.365844727,25609313.96484375,26700590.133666992,16822935.104370117,17543064.11743164,25121829.986572266,21730136.87133789,-504880.07068634033
0.295,17153722.763061523,27228605.270385742,10195205.688476562,13095986.366271973,3957077.741622925,11816646.575927734,10022518.157958984,10957816.123962402,13333694.458007812,10383741.37878418,9572214.126586914,10353719.711303711,10096517.562866211,1681744.4562911987,13660529.136657715,7591119.289398193,7201544.284820557,-14491395.950317383,3147277.355194092,3066441.535949707,3498620.2716827393,7375918.865203857,-13841317.176818848,14037724.494934082,6004032.135009766,-5142853.736877441,-2303992.986679077,-5530272.006988525,9824082.374572754,8336336.135864258,15134652.137756348,-16359455.108642578,-20244897.842407227,-12490374.565124512,18452514.6484375,81014.03713226318,-498675.49538612366,26132431.030273438,22056688.30871582,21437246.322631836,27091468.811035156,2270230.770111084,4352652.549743652,5427634.716033936,32015308.380126953,34932102.20336914,46322921.75292969,39638847.35107422,35574874.87792969,25738100.051879883,1637811.6607666016,1403675.1985549927,3977430.582046509,30710092.544555664,23144596.099853516,22371397.018432617,22879199.981689453,11572376.251220703,12070111.274719238,20519113.540649414,16790294.647216797,-5854209.899902344
0.3,18372791.290283203,28874946.59423828,12961383.819580078,13781465.530395508,5361399.6505737305,11794722.557067871,10061075.210571289,11094408.03527832,15351900.100708008,12268255.233764648,11282169.342041016,11976651.191711426,11999285.697937012,3457707.405090332,13720113.754272461,8075521.469116211,7944537.162780762,-14121170.997619629,4283672.332763672,4100214.0045166016,4602335.453033447,9016442.29888916,-12405951.499938965,14095504.760742188,6437082.290649414,-5130170.3453063965,-1741007.0896148682,-5611704.349517822,10391241.073608398,8818553.924560547,16407085.418701172,-15210960.388183594,-21662137.985229492,-13800047.874450684,19457687.377929688,-412660.0921154022,-652155.6973457336,26911308.28857422,22645027.16064453,21395698.54736328,28046691.89453125,2095036.7450714111,4616315.3648376465,5255935.192108154,33263790.130615234,36197723.388671875,48243946.07543945,40725696.5637207,36049903.869628906,25583513.259887695,1150423.0499267578,827022.9697227478,4094599.723815918,31617753.982543945,23439334.869384766,22616878.509521484,22437808.990478516,11694461.822509766,11968563.079833984,20590526.580810547,16869701.385498047,-6525619.5068359375
0.305,23972127.91442871,34030529.0222168,18629650.115966797,17660726.54724121,8511303.901672363,15153497.695922852,13369876.861572266,14527743.339538574,18310554.50439453,15462726.593017578,14369611.740112305,15003744.125366211,15008950.233459473,9946747.779846191,17169015.884399414,11568037.986755371,9904258.728027344,-14438166.618347168,6337946.891784668,6109298.7060546875,6782747.745513916,14446899.4140625,-6709540.367126465,17731779.098510742,9720332.145690918,-4004240.9896850586,-1210224.1516113281,-6183834.552764893,12528203.964233398,10867096.900939941,21578708.64868164,-9567374.229431152,-18686250.686645508,-12152870.178222656,22513507.843017578,-327349.2753505707,-657122.2543716431,29098834.991455078,25457908.630371094,25197832.107543945,33941028.5949707,6888189.315795898,8340557.098388672,7087145.3285217285,35884326.93481445,38929271.69799805,52330184.93652344,44655765.533447266,39908435.8215332,30191825.86669922,4787096.02355957,4609087.944030762,6865087.509155273,35771316.52832031,27125282.287597656,26195600.509643555,26111448.287963867,17755952.835083008,17928701.400756836,26028532.028198242,22210016.25061035,-1073698.5206604004
0.31,27414354.32434082,35883415.22216797,19372735.97717285,19812963.485717773,8391956.329345703,18064409.255981445,16069408.416748047,17303464.889526367,18381874.084472656,15488376.61743164,14517420.768737793,15076222.41973877,14820616.722106934,12320811.27166748,20065635.681152344,13900150.299072266,10693648.338317871,-14902386.665344238,6481272.6974487305,6260083.198547363,7023378.372192383,16369621.276855469,-3621742.2485351562,20664264.678955078,11661922.454833984,-3079035.2821350098,-1412826.8957138062,-6781834.125518799,13082407.95135498,11491088.8671875,23611200.3326416,-6199388.027191162,-14611616.134643555,-9553722.381591797,23523626.32751465,-275842.93484687805,-668214.9171829224,29438404.083251953,26798000.33569336,27544166.564941406,37012348.17504883,10639667.510986328,10618029.594421387,8240045.547485352,35891006.46972656,39047416.68701172,53017589.5690918,45782283.782958984,41266166.68701172,33256786.346435547,7993516.92199707,7922817.230224609,8268725.395202637,37812500.0,28895965.576171875,27961877.822875977,28447895.050048828,22007036.209106445,22142257.690429688,29925918.579101562,25465797.424316406,3618745.0885772705
0.315,21675296.783447266,28557453.155517578,10766850.471496582,14521522.521972656,1171435.9521865845,15017585.754394531,12836080.551147461,14134949.684143066,12863268.852233887,9339494.705200195,8507743.835449219,9011693.000793457,8597981.452941895,5358079.433441162,16928697.58605957,10478461.265563965,7692716.598510742,-16467695.236206055,3129832.0293426514,2818122.386932373,3615465.4026031494,10892846.10748291,-7759092.330932617,17311038.970947266,8932887.077331543,-4207933.42590332,-2890559.9117279053,-7404957.7713012695,10806617.736816406,9426617.622375488,19191896.438598633,-9940520.286560059,-15496200.561523438,-9738883.018493652,20506444.931030273,-1023660.7789993286,-809191.2269592285,27349777.221679688,24962617.874145508,24842763.900756836,32239250.18310547,8078642.845153809,7817059.04006958,6620701.789855957,32592453.002929688,36144046.783447266,49488922.119140625,41982906.341552734,37148796.08154297,29429807.662963867,6295005.321502686,6059422.969818115,5880377.769470215,35092494.96459961,25439336.7767334,24575092.315673828,24490114.212036133,18518636.70349121,18612737.65563965,26822725.296020508,21500858.306884766,1002609.372138977
0.32,10375993.728637695,17956130.981445312,615532.4578285217,5096055.507659912,-7930645.942687988,7617859.363555908,5505328.178405762,6888729.095458984,5754745.960235596,1696085.6914520264,798020.601272583,1402072.548866272,1033886.6710662842,-3896824.359893799,9557172.775268555,3594024.658203125,2842901.7066955566,-19286672.592163086,-674575.7460594177,-1163600.6832122803,-291382.73000717163,4114746.09375,-14423350.33416748,9803304.672241211,4234567.165374756,-6783277.0347595215,-4770824.432373047,-7932175.159454346,8552241.325378418,7307320.594787598,14097885.131835938,-16459163.665771484,-20847612.380981445,-12826047.897338867,16934888.83972168,-2096324.4438171387,-930773.675441742,25859270.095825195,22758365.631103516,20632368.087768555,25020124.435424805,2295853.614807129,2874281.644821167,3895384.7885131836,29839612.96081543,34119285.583496094,46673923.49243164,37804729.46166992,31916696.548461914,22412366.86706543,1490896.8210220337,995419.0254211426,2213603.2581329346,31272464.752197266,20467344.284057617,19620031.356811523,17444711.685180664,11692099.571228027,11829328.536987305,20564102.172851562,14962491.035461426,-5934460.163116455
0.325,5525715.8279418945,15865128.517150879,567606.508731842,1576292.634010315,-9437558.1741333,4294465.065002441,2410971.6415405273,3827584.981918335,4326007.843017578,376776.3078212738,-652325.0341415405,202363.83378505707,-168624.8481273651,-4528686.046600342,6510721.683502197,768521.1300849915,1374915.2421951294,-21154029.846191406,-546221.0774421692,-1051645.278930664,-173549.47328567505,4397436.618804932,-15135689.735412598,6912571.430206299,3339590.7878875732,-7934838.29498291,-5360270.977020264,-7809263.229370117,9397516.250610352,8099657.05871582,15256865.501403809,-17419530.868530273,-23146800.994873047,-14806814.193725586,17320812.225341797,-2354391.8132781982,-815214.2763137817,27173032.760620117,23405258.178710938,20684307.098388672,24421506.881713867,1120761.8713378906,1683632.6122283936,3269328.5942077637,30540189.743041992,35261833.19091797,47986194.6105957,38191467.28515625,31479852.6763916,20670593.26171875,-419236.6600036621,-986138.4034156799,1119929.1944503784,30825918.197631836,19655359.268188477,18800395.965576172,15267915.725708008,10388193.130493164,10736474.03717041,19002880.096435547,13860776.901245117,-8509126.663208008
0.33,11912248.611450195,23548574.447631836,9991991.996765137,7327323.913574219,-2297725.9159088135,9037931.442260742,7222059.726715088,8530097.007751465,9503219.604492188,5921851.15814209,4972041.130065918,5990259.170532227,5433951.377868652,3468109.8461151123,11577731.132507324,4586632.72857666,4767156.600952148,-20033143.997192383,3184192.895889282,2929855.5850982666,3574129.343032837,10515919.68536377,-9361065.864562988,12135587.692260742,7011656.284332275,-6458725.452423096,-4461184.024810791,-6883981.704711914,12014073.371887207,10635097.50366211,20235412.59765625,-12023461.34185791,-18508058.547973633,-13220746.040344238,20541124.34387207,-1884612.6794815063,-545828.4020423889,29057170.867919922,25539216.995239258,24140308.380126953,29981103.897094727,6043370.246887207,4770918.369293213,4643118.858337402,32043022.15576172,36477993.01147461,49977649.6887207,41010746.002197266,34460136.41357422,25038551.330566406,2220543.86138916,1735407.5908660889,2213426.5899658203,32325176.239013672,22089879.989624023,21349031.448364258,19040651.321411133,15075002.670288086,15645365.715026855,22526544.57092285,17724369.049072266,-4572829.246520996
0.335,19591173.17199707,28930732.72705078,15399682.04498291,13696749.687194824,3767329.692840576,14893246.6506958,12955194.473266602,14043843.269348145,13818068.504333496,10362086.296081543,9655191.421508789,10557847.023010254,9870162.010192871,8660941.123962402,17391796.112060547,8482209.205627441,8068169.593811035,-17039461.135864258,5551209.926605225,5517642.498016357,5817998.886108398,12912770.27130127,-6052491.664886475,17764587.40234375,9332497.596740723,-4761675.3578186035,-3900298.1185913086,-5940371.513366699,12178096.771240234,10858834.266662598,19897365.57006836,-8812855.72052002,-13045108.795166016,-10752994.537353516,20779371.26159668,-2017048.3589172363,-425252.16937065125,27450313.568115234,24797012.329101562,23983362.197875977,31048610.68725586,9213108.06274414,6147157.669067383,4577062.129974365,29475357.055664062,33454391.479492188,46754810.33325195,39317100.524902344,33211956.024169922,26203596.115112305,3834717.273712158,3367357.2540283203,1626273.6320495605,30633958.81652832,21246206.283569336,20728616.71447754,20236001.96838379,16721767.42553711,17261007.30895996,23471740.72265625,18128522.872924805,-1465393.4240341187
0.34,17047845.8404541,23214984.893798828,8351740.837097168,11871943.473815918,920510.4112625122,13209847.450256348,11297853.469848633,12211299.896240234,11298416.137695312,7860969.066619873,7242999.55368042,7891749.382019043,7334806.442260742,3380740.8809661865,15198553.085327148,5818081.855773926,6537252.902984619,-15117850.303649902,3636687.0403289795,3455731.153488159,3651403.6655426025,7050055.027008057,-11590844.15435791,15213122.367858887,5827185.63079834,-5470194.339752197,-4916071.41494751,-5766360.759735107,8729032.516479492,7519757.7476501465,11570095.06225586,-14062467.575073242,-14395465.850830078,-11226031.303405762,15771683.692932129,-3153001.546859741,-518323.77910614014,22279237.747192383,20297008.514404297,17424863.815307617,21902833.938598633,4244877.338409424,1922390.9378051758,1653222.680091858,23029600.143432617,27206369.400024414,38752975.46386719,31438175.201416016,24954084.396362305,18021112.4420166,-275314.1522407532,-807771.3847160339,-1814513.8025283813,25148296.356201172,15088805.198669434,14691797.256469727,13060286.521911621,10090510.368347168,10344828.605651855,17926906.58569336,11647200.584411621,-4949076.175689697
0.345,7323501.110076904,13232160.568237305,-3045376.777648926,5061308.38394165,-6594592.094421387,5989836.692810059,4388736.248016357,5303799.629211426,5607624.053955078,2227978.229522705,1431290.864944458,1987135.5295181274,1645493.3881759644,-6082243.919372559,7459626.197814941,-431898.89192581177,2359242.6776885986,-15287070.274353027,323441.20740890503,-234564.69178199768,184811.59210205078,-146889.28425312042,-20271400.451660156,7366981.506347656,162835.10625362396,-7526583.194732666,-6179461.479187012,-6076717.853546143,5447744.369506836,4222898.483276367,3782909.870147705,-22367233.276367188,-20498645.782470703,-13936982.154846191,10692168.235778809,-3928552.3891448975,-529871.940612793,18310821.533203125,16622117.99621582,11195562.362670898,11590884.2086792,-3907381.772994995,-3545845.7469940186,-920462.0122909546,18563970.5657959,23415107.72705078,33373985.290527344,24608432.76977539,17274185.180664062,7986821.65145874,-6245559.215545654,-6761768.817901611,-4519439.220428467,21455327.9876709,10069476.127624512,9575576.782226562,4295478.820800781,2102686.882019043,2110107.183456421,12126276.016235352,5652107.715606689,-10549688.339233398
0.35,3318290.4720306396,11480425.834655762,-5375597.953796387,3148601.531982422,-9084827.423095703,3069559.097290039,1698197.841644287,2770405.7693481445,4522205.829620361,748129.9042701721,-239364.8624420166,417785.64453125,109161.08638048172,-8183389.663696289,4553680.419921875,-1699432.9690933228,1504030.5852890015,-16018857.955932617,-205801.39756202698,-886433.482170105,-233190.92392921448,-626.9306759350002,-21242450.714111328,4660655.0216674805,-483514.57715034485,-7661399.364471436,-5671174.049377441,-6056857.585906982,5979838.3712768555,4669417.381286621,5153131.484985352,-23197839.736938477,-22417558.670043945,-14756494.522094727,11686095.237731934,-3246824.026107788,-248836.487531662,19386096.954345703,17985996.24633789,13098369.598388672,13056954.383850098,-4730123.996734619,-3190474.9870300293,302623.2123374939,20237222.67150879,25311876.29699707,36005424.49951172,26147438.049316406,18920774.459838867,8259554.862976074,-6343003.749847412,-6708751.201629639,-3363761.1865997314,23665828.704833984,12425345.420837402,11765128.135681152,4927361.011505127,2693662.8818511963,2679032.802581787,13666541.09954834,7870280.2658081055,-10055302.619934082
0.355,8754179.954528809,18438667.29736328,1991029.3817520142,7858049.392700195,-4999095.916748047,7911370.754241943,6337303.161621094,7567249.774932861,8540670.394897461,3709454.7748565674,2771768.808364868,3449151.9927978516,3071811.9144439697,-1615210.2947235107,9889518.737792969,3930567.0261383057,5087421.417236328,-16108856.201171875,1550436.019897461,1192904.5915603638,1781882.5244903564,6006971.35925293,-13062002.182006836,10202382.08770752,4729027.271270752,-5174199.58114624,-3817526.8173217773,-5659959.316253662,8848350.524902344,7581186.294555664,12718421.936035156,-15082565.307617188,-16953248.977661133,-12095066.07055664,17519279.47998047,-2072381.4964294434,107034.42245721817,23375728.607177734,22428915.02380371,21088783.264160156,25347312.927246094,3505866.289138794,2946908.950805664,3976453.7811279297,25003810.88256836,29553417.205810547,42888275.146484375,33540973.663330078,27731321.334838867,18742038.72680664,5137.8970965743065,-178977.63848304749,-303791.5229797363,28541202.545166016,19318582.53479004,18607131.958007812,14725950.241088867,11055787.086486816,11092784.881591797,20540300.369262695,15282373.428344727,-3084634.54246521
0.36,13038253.784179688,22524164.1998291,7128685.474395752,10548366.54663086,-2138528.823852539,12992983.8180542,10972143.173217773,12223523.139953613,10270903.587341309,4731019.496917725,4006212.7113342285,4466789.245605469,4172620.2964782715,3445045.7096099854,15344645.500183105,9039263.725280762,7853435.516357422,-16151977.5390625,1613336.8015289307,1698635.9357833862,1982492.5661087036,8744291.305541992,-5789245.128631592,15722033.500671387,9151962.280273438,-2973735.809326172,-3096206.1882019043,-5540257.453918457,9503199.577331543,8410898.208618164,16012292.861938477,-7807016.372680664,-10310091.972351074,-8828704.833984375,20893808.364868164,-2117022.5143432617,184928.5215139389,24646745.681762695,24167573.928833008,25509389.877319336,33927143.09692383,11113984.107971191,7601596.355438232,5745075.225830078,26415958.404541016,30314611.434936523,45281242.37060547,37115879.05883789,32775543.212890625,26586538.314819336,5017989.635467529,4983591.079711914,487628.0725002289,29737476.348876953,22650476.455688477,21968376.15966797,22237009.048461914,16899572.372436523,16857189.178466797,24006328.582763672,18614645.00427246,3072295.4273223877
0.365,7260315.418243408,16253105.163574219,2257025.0034332275,4987715.721130371,-5920834.064483643,10826211.929321289,8553657.531738281,9688417.434692383,5000938.892364502,382722.49698638916,-203624.2038011551,16489.921137690544,-89459.29259061813,-934194.028377533,13031142.234802246,6951288.70010376,5486204.147338867,-16624116.897583008,-1444946.527481079,-1181711.6737365723,-1162313.1036758423,3787245.988845825,-7890669.345855713,13443112.37335205,7355239.8681640625,-3596570.9686279297,-4685236.45401001,-5775263.30947876,6206441.402435303,5233325.958251953,10416883.46862793,-9701343.536376953,-8410562.515258789,-7864549.160003662,17286849.975585938,-3520520.9255218506,-18226.93459689617,20580717.086791992,20611045.837402344,21167596.8170166,28683937.072753906,9745083.808898926,5654694.080352783,3956820.249557495,21981765.747070312,25491420.74584961,38990360.260009766,31358032.2265625,27579593.658447266,22638969.42138672,2988664.388656616,3076347.827911377,-1812653.0647277832,25360208.51135254,19151926.040649414,18446464.53857422,19555198.669433594,13992838.859558105,13823410.034179688,20148340.225219727,14641753.196716309,3699663.1622314453
0.37,-3385249.614715576,4757038.116455078,-7474206.447601318,-4499316.215515137,-12309077.262878418,3582863.0924224854,1357136.2495422363,2311728.4774780273,-3340319.1566467285,-5468519.687652588,-6049303.05480957,-5831916.332244873,-5932392.120361328,-10823114.395141602,5328392.98248291,-360022.1276283264,-169901.11768245697,-16369543.075561523,-4783893.10836792,-4632102.966308594,-4665938.854217529,-3972587.3470306396,-16213298.797607422,5760081.768035889,1218464.3745422363,-6120818.138122559,-7130618.572235107,-5635329.246520996,1582199.5735168457,646705.2698135376,1252087.5930786133,-17711164.474487305,-9377797.12677002,-8330603.59954834,9311905.860900879,-5032143.115997314,-192673.9513874054,13631112.098693848,14550642.967224121,12450994.491577148,14651318.550109863,2357924.699783325,-365490.1087284088,1041403.4128189087,14432940.483093262,17389692.306518555,27230995.178222656,19793142.318725586,16234649.658203125,11320760.726928711,-2888516.902923584,-2765496.4923858643,-4517852.783203125,18545850.75378418,12447709.083557129,11707298.278808594,10398988.723754883,6600617.8855896,6480707.64541626,13430147.171020508,8290399.551391602,1506761.908531189
0.375,-8441205.024719238,-3084507.2269439697,-13146089.553833008,-10225934.982299805,-14534203.52935791,-1622820.8541870117,-3699167.013168335,-2963251.829147339,-8506647.109985352,-7947858.810424805,-8526615.142822266,-8163003.921508789,-8472215.65246582,-16865600.5859375,-251707.5538635254,-6447658.061981201,-4512067.3179626465,-14261055.946350098,-5833604.335784912,-5887680.530548096,-5799329.75769043,-8251275.062561035,-21795118.33190918,41152.98390388489,-3906055.688858032,-7837120.056152344,-8632995.60546875,-4916708.946228027,-1494706.9883346558,-2259440.6604766846,-4961540.222167969,-22977838.51623535,-8218013.763427734,-7480528.831481934,2189466.2380218506,-5968661.308288574,-166444.97215747833,7293102.741241455,9702753.067016602,6003709.316253662,3006537.437438965,-2571948.0514526367,-5098387.718200684,-419373.21424484253,7095477.58102417,8944997.787475586,15241183.280944824,8896338.46282959,6097494.602203369,2139980.7929992676,-6192754.26864624,-6195050.7164001465,-5769401.073455811,12280640.602111816,6611380.577087402,5995178.22265625,2397944.211959839,1655961.3943099976,1738826.7517089844,9025824.546813965,3887127.161026001,867231.7862510681
0.38,-6989897.727966309,-5335142.612457275,-13390555.381774902,-10968385.696411133,-12295037.269592285,-2483086.8244171143,-4352057.456970215,-3880986.6905212402,-9734194.7555542,-7536314.010620117,-8056977.272033691,-7695440.292358398,-8114645.004272461,-16075407.028198242,-1340647.2206115723,-8529180.526733398,-5836862.564086914,-11288987.159729004,-5635315.418243408,-5874855.995178223,-5625171.184539795,-8898523.330688477,-21480411.529541016,-1304223.1798171997,-5830482.006072998,-7574795.246124268,-9186495.780944824,-4580338.001251221,-3078754.186630249,-3465208.053588867,-7768942.832946777,-22345226.287841797,-4756204.128265381,-4782113.075256348,-1895957.8275680542,-6728192.8062438965,-76237.72323131561,2597502.4700164795,6857936.859130859,3167742.4907684326,-2103208.7802886963,-2560380.458831787,-7055009.841918945,-522997.02167510986,1095261.573791504,1715706.3484191895,5680223.46496582,1455828.1898498535,-279009.55080986023,-2019980.1921844482,-5848850.727081299,-6039218.902587891,-6378073.215484619,7034744.2626953125,2310099.1249084473,1977833.3902359009,-2166445.016860962,-27030.45681118965,150191.85841083527,6676969.051361084,395612.56766319275,1814101.219177246
0.385,-5754508.018493652,-5022857.666015625,-12222008.70513916,-10092844.009399414,-10202896.118164062,-1558691.8592453003,-3072174.072265625,-2802059.8888397217,-9695987.701416016,-7295681.476593018,-7798418.045043945,-7638975.143432617,-7896818.161010742,-12765520.095825195,-645321.3691711426,-7954528.331756592,-5237669.467926025,-9620295.524597168,-6114966.869354248,-6475992.202758789,-6154743.671417236,-8976621.627807617,-18944904.327392578,-712273.359298706,-5685739.517211914,-6182637.691497803,-9607169.151306152,-5400362.491607666,-4228371.143341064,-4336989.402770996,-9221161.842346191,-19563602.447509766,-2677392.00592041,-2391879.3201446533,-3190880.298614502,-7450991.153717041,-90395.34628391266,-350138.8132572174,5464883.804321289,2201445.5795288086,-2973892.2119140625,-1619560.0032806396,-7820666.790008545,-320540.78578948975,-2552669.5251464844,-2557452.67868042,250846.9521999359,-2177044.630050659,-3365610.122680664,-3472984.790802002,-5256445.88470459,-5481426.71585083,-7292764.663696289,3304680.585861206,-382669.8660850525,-500173.8667488098,-4447685.241699219,-1478912.7111434937,-1405970.9310531616,4126963.1385803223,-3464152.5745391846,1920887.5894546509
0.39,-6842868.328094482,-3201099.395751953,-10726370.811462402,-8347743.988037109,-9855672.836303711,-122248.64214658737,-1264406.681060791,-950087.308883667,-8482481.956481934,-6999241.352081299,-7583158.96987915,-7578065.872192383,-7624572.75390625,-10194190.02532959,591322.7796554565,-5956706.0470581055,-3441732.883453369,-9787908.554077148,-6398715.019226074,-6751226.425170898,-6469288.349151611,-8587165.832519531,-16906921.38671875,669545.3524589539,-4385555.267333984,-4830239.295959473,-9823249.816894531,-6517399.787902832,-4350107.192993164,-4619998.455047607,-8539842.60559082,-17533130.645751953,-3264330.3871154785,-2214865.207672119,-1823742.8665161133,-7661844.253540039,-176910.1321697235,-512599.5874404907,5959441.184997559,3213490.7245635986,-813230.8125495911,-2265539.4077301025,-7951972.484588623,113317.89940595627,-2364266.3955688477,-2304934.501647949,678671.9560623169,-1425060.3914260864,-2631562.7098083496,-2693828.582763672,-6125919.342041016,-6174813.747406006,-8182212.829589844,2245210.886001587,-546498.5966682434,-667563.8556480408,-4091604.709625244,-3143303.632736206,-3142612.2188568115,1996616.7211532593,-5516227.245330811,780898.7498283386
0.395,-5936514.377593994,738506.0787200928,-6953753.94821167,-4220123.291015625,-8312936.782836914,2487201.452255249,1480635.5237960815,2048608.0646514893,-4442977.428436279,-4041154.384613037,-4694390.773773193,-4652603.626251221,-4675131.797790527,-6883360.862731934,3143344.4023132324,-3088265.895843506,-743108.332157135,-10110774.993896484,-4302168.846130371,-4556830.406188965,-4286039.352416992,-5722955.226898193,-14128399.848937988,3383871.555328369,-2374775.4096984863,-4169157.9818725586,-9382897.37701416,-6312007.427215576,-2473586.082458496,-3231879.711151123,-4464466.094970703,-15021940.231323242,-4366886.615753174,-3989446.4015960693,1170929.6703338623,-7517283.916473389,-218977.49602794647,2083005.666732788,8424539.566040039,6744519.233703613,4375949.382781982,-2842991.590499878,-7214416.980743408,618314.3854141235,419353.2168865204,762846.5294837952,5252406.597137451,2429267.644882202,1320261.1207962036,922176.9571304321,-7412670.135498047,-7261287.689208984,-9121307.373046875,2851258.9931488037,810729.2056083679,593666.672706604,-1138994.3361282349,-3308406.5914154053,-3159209.4898223877,1974324.7032165527,-4310148.239135742,-8192.104287445545
0.4,-1724484.3244552612,4803793.907165527,-1992869.257926941,610625.2074241638,-4170780.658721924,4948783.874511719,3909900.426864624,4614697.9331970215,623983.0851554871,951537.7879142761,370405.25674819946,481766.6709423065,401276.76725387573,-1837107.77759552,5570931.434631348,-1288387.0601654053,1232052.206993103,-9145860.67199707,-490653.4552574158,-767437.1600151062,-338531.4345359802,-1454749.8226165771,-10130146.026611328,5809825.897216797,-1410890.1023864746,-4541905.403137207,-8851018.905639648,-4651784.420013428,60878.98835539818,-1040474.8916625977,131839.97571468353,-11265730.857849121,-4593358.516693115,-6079256.057739258,2551979.0649414062,-8069943.428039551,-193122.53594398499,4410005.569458008,10749955.177307129,10142301.559448242,9281253.814697266,-2246820.4498291016,-7042554.85534668,-5348.918028175831,1334388.1368637085,1939766.526222229,7962430.477142334,4757384.777069092,4169114.112854004,4416354.179382324,-8650692.9397583,-8469431.87713623,-11183740.615844727,1910325.6464004517,546798.2292175293,313926.8159866333,1008644.4616317749,-2564533.472061157,-2201431.7512512207,2899682.2834014893,-2702487.4687194824,388070.7621574402
0.405,1666495.2039718628,6439359.664916992,315778.2256603241,2541116.952896118,-511689.4841194153,5311466.693878174,4356381.893157959,4881807.804107666,2682480.3352355957,3811838.388442993,3385121.3455200195,3440444.231033325,3431150.197982788,1953782.558441162,5745059.490203857,-1849402.5468826294,1157212.6150131226,-7790473.461151123,1684069.275856018,1192928.671836853,1847424.1495132446,534749.0906715393,-7411986.351013184,5940977.096557617,-2583517.551422119,-5540620.803833008,-9136819.839477539,-3356861.114501953,823882.8778266907,-209528.89323234558,1349035.0246429443,-8565778.732299805,-4394749.641418457,-6982223.033905029,818003.5948753357,-9503512.382507324,-140822.45528697968,3944826.84135437,11042755.126953125,10545457.83996582,10351481.437683105,-1295764.684677124,-8391246.795654297,-1817699.3131637573,-1211285.2334976196,-196805.76026439667,5973138.332366943,3270315.408706665,3227418.4226989746,4633321.285247803,-9678977.012634277,-9631528.854370117,-13887959.480285645,-992118.775844574,-1499130.0106048584,-1726994.1568374634,362190.306186676,-2662650.3467559814,-2282170.295715332,2726854.8011779785,-3202439.785003662,1679037.094116211
0.41,3162629.1275024414,8074873.924255371,359639.9426460266,2782513.8568878174,-31205.98942041397,6222930.908203125,5374602.317810059,5711781.5017700195,2218424.7970581055,2959262.8479003906,2581410.1696014404,2572316.4081573486,2688027.1434783936,2466723.680496216,6533419.132232666,-1437919.4974899292,1201043.3673858643,-8315752.029418945,842847.8837013245,237335.72661876678,910858.4523200989,16582.828015089035,-6699212.074279785,6804159.641265869,-2629723.7873077393,-5455367.565155029,-9615121.841430664,-4060189.2471313477,211703.19616794586,-574225.9621620178,1323286.4141464233,-7884703.636169434,-3225241.8994903564,-5890216.827392578,789119.4224357605,-10082958.221435547,-87943.25590133667,3490325.927734375,11326251.029968262,10844372.749328613,11482279.777526855,1774693.6082839966,-7562358.379364014,-1740019.9174880981,-1296080.9469223022,263006.4785480499,6175135.135650635,3803826.5705108643,3846403.5987854004,5514451.026916504,-7456789.493560791,-7571320.533752441,-13759573.936462402,-746731.7581176758,-198240.5185699463,-565813.2433891296,1946338.176727295,-1098476.6483306885,-860405.0278663635,3560103.65486145,-2418102.264404297,4065632.3432922363
0.415,7456620.693206787,14778307.914733887,3522406.578063965,6647792.816162109,-757970.2734947205,12633554.458618164,11481218.338012695,12089919.090270996,4427917.48046875,2036304.4738769531,1541005.8498382568,1641880.1546096802,1708792.6864624023,3181584.596633911,13349957.466125488,4846916.675567627,4955098.1521606445,-11612090.110778809,-408003.568649292,-726281.464099884,-298948.2283592224,1480913.2814407349,-4586179.733276367,13733565.330505371,3259553.1940460205,-2813495.874404907,-8610501.289367676,-6201091.289520264,1495709.776878357,741238.2364273071,6537546.157836914,-6177084.445953369,427743.49451065063,-3010288.4769439697,9047654.151916504,-8143422.1267700195,-67908.57762098312,8433452.606201172,15585297.584533691,17050632.47680664,20759212.493896484,11004612.922668457,608997.7025985718,3412052.1545410156,8158907.890319824,9933115.95916748,17826406.478881836,14229380.60760498,13726539.611816406,14393225.66986084,1497229.9337387085,1284175.0383377075,-7933593.273162842,7507502.07901001,8431141.85333252,7819079.875946045,11962077.140808105,7328899.86038208,7528727.5314331055,10009021.759033203,4764714.241027832,7839011.192321777
0.42,15581922.53112793,25305030.822753906,11229387.283325195,14413271.9039917,404690.4742717743,22814712.524414062,20947025.299072266,22212518.6920166,10762203.216552734,4299141.407012939,3677321.434020996,3977156.162261963,3864950.8953094482,7902862.071990967,24439748.764038086,15263389.587402344,11442368.507385254,-16061252.59399414,644514.8587226868,824566.2450790405,1034970.8795547485,7230896.949768066,792699.9926567078,24836875.915527344,13619718.551635742,1124088.5257720947,-6102718.830108643,-7720241.069793701,5971311.092376709,4949408.054351807,17715715.408325195,-1460087.776184082,5089026.927947998,-74229.03180122375,23701906.204223633,-4691759.10949707,-118172.21343517303,18489419.93713379,23576412.200927734,28597766.876220703,37352886.19995117,24663202.2857666,13998117.446899414,11780801.773071289,24538476.943969727,25908227.920532227,38340183.25805664,32037605.28564453,30368532.180786133,29592269.897460938,14095772.743225098,13856893.539428711,1193479.7763824463,20796216.96472168,20212865.829467773,19467565.536499023,26652751.922607422,21526983.2611084,21863712.310791016,21450496.673583984,16213869.094848633,11392469.40612793
0.425,19819623.947143555,30893667.221069336,16331594.467163086,18563787.46032715,2114238.0237579346,27654233.932495117,25311574.935913086,26991012.573242188,15097183.227539062,7300097.942352295,6695933.818817139,7044868.946075439,6907638.5498046875,13174839.01977539,29982318.878173828,21077033.99658203,14728966.71295166,-19278093.338012695,2820462.226867676,3187898.874282837,3475412.8456115723,12562726.974487305,4860846.042633057,30353036.880493164,19950277.32849121,2913140.5353546143,-4404357.91015625,-7509957.313537598,10222915.649414062,8893492.698669434,26316450.119018555,2235805.2730560303,5899395.46585083,367987.4539375305,33832057.95288086,-2651374.101638794,-178125.09834766388,26163793.563842773,29549058.91418457,36367439.27001953,48658489.22729492,32804260.25390625,22544811.248779297,17116783.142089844,36270980.83496094,37126777.64892578,53220668.79272461,44221778.869628906,40864158.630371094,38765415.19165039,20920749.66430664,20729394.912719727,7297493.934631348,30229187.01171875,26259483.337402344,25556104.66003418,33765800.47607422,31593299.865722656,32025588.989257812,30054750.442504883,22924671.173095703,11669990.539550781
0.43,13922344.207763672,26081312.17956543,12220547.676086426,13828310.9664917,522619.72427368164,22312263.48876953,20170377.731323242,21642496.10900879,12049387.93182373,6537056.446075439,6020092.010498047,6268193.72177124,6314398.288726807,11700043.678283691,24550230.026245117,17269765.853881836,11544022.560119629,-20391510.009765625,2994313.0016326904,3063584.327697754,3589923.858642578,11401162.147521973,1922117.2332763672,24979459.762573242,16689275.741577148,981492.6981925964,-5173818.111419678,-6496269.226074219,10215105.056762695,8794393.539428711,24714452.743530273,-530257.2250366211,584007.740020752,-2643296.957015991,32355361.938476562,-3368448.01902771,-107628.42744588852,25754213.333129883,29004919.052124023,33615921.02050781,45184745.78857422,28208990.0970459,19808624.267578125,15915166.854858398,36399112.701416016,37421325.68359375,53199474.3347168,42565631.86645508,37270168.30444336,33626338.958740234,16685810.089111328,16631292.343139648,6904500.961303711,31064565.658569336,23351633.071899414,22694442.749023438,27370094.299316406,29562894.821166992,29898588.180541992,29484527.587890625,19905689.239501953,7486273.288726807
0.435,3497253.41796875,16721170.425415039,3288395.1663970947,5514780.521392822,-3822287.082672119,13549743.65234375,11897889.137268066,12890926.361083984,5454412.937164307,2783111.572265625,2226521.9688415527,2474678.5163879395,2607454.776763916,3620816.469192505,15148660.659790039,9640177.726745605,6315200.328826904,-20089365.005493164,973499.7749328613,664771.7356681824,1260275.6023406982,4994086.742401123,-6118459.701538086,15661389.350891113,8727771.759033203,-2015079.9751281738,-6977130.41305542,-6180294.036865234,6691993.236541748,5431258.678436279,16360834.121704102,-8222314.834594727,-6736986.6371154785,-6890411.853790283,25026206.970214844,-5176460.742950439,83695.55324316025,20477794.647216797,24408805.84716797,24947957.99255371,33022407.53173828,16435317.993164062,11360306.739807129,11636508.94165039,30481319.427490234,32225757.598876953,45077117.919921875,33553096.771240234,26508016.58630371,20817737.579345703,7073143.95904541,7211607.456207275,2981484.4131469727,27210664.749145508,17044738.76953125,16328552.24609375,15402777.671813965,19526708.602905273,19697608.947753906,22647294.998168945,12298088.073730469,1269334.077835083
0.44,-621555.9840202332,13284231.185913086,615632.4744224548,2942172.5273132324,-5122314.453125,10744210.243225098,9324728.965759277,10106983.184814453,3660254.2400360107,1799438.5957717896,1065397.6202011108,1490746.6173171997,1423833.966255188,-1280073.1658935547,11859552.383422852,7086106.777191162,5522957.324981689,-19046157.836914062,24964.85225856304,-297544.4495677948,130113.94441127777,1175255.4178237915,-10800095.558166504,12325523.376464844,5019388.198852539,-2414706.4685821533,-7247410.774230957,-6741250.991821289,4261481.761932373,3301630.2585601807,11613172.53112793,-12832179.069519043,-10472999.572753906,-9050187.110900879,22119825.36315918,-5992915.630340576,152286.88716888428,17556344.985961914,21889034.271240234,20440385.818481445,25917633.056640625,9224039.077758789,7272063.255310059,9783508.30078125,27684104.919433594,29606468.200683594,40979267.12036133,28856153.48815918,20676916.122436523,13192619.323730469,1558087.8257751465,1818894.624710083,502739.3102645874,24353895.18737793,13707725.524902344,12944787.979125977,9098571.77734375,12306610.107421875,12400999.069213867,17214395.52307129,7946534.633636475,-3492021.083831787
0.445,3427110.6719970703,18498361.587524414,8052373.886108398,7409895.420074463,330166.8167114258,13463176.727294922,12158593.17779541,13023721.694946289,8433924.674987793,6691149.2347717285,5868256.568908691,6379179.47769165,6098826.4083862305,4778344.15435791,14528171.53930664,9851237.297058105,9193099.021911621,-17407094.955444336,2485889.434814453,2475505.828857422,2742559.6714019775,4981460.5712890625,-7067984.580993652,14824138.641357422,6983425.140380859,-381666.24307632446,-5856682.300567627,-7063808.441162109,5668172.359466553,5010116.5771484375,15195409.774780273,-9256508.827209473,-10693637.84790039,-8680377.960205078,24798725.128173828,-6090769.7677612305,-85599.83223676682,18978927.612304688,23798519.134521484,23386726.37939453,28690065.383911133,9853936.195373535,9118093.490600586,10623624.801635742,28691934.58557129,29694307.327270508,42705150.60424805,30728105.545043945,22187433.24279785,14337956.428527832,1944738.268852234,2109982.967376709,39801.694452762604,22510852.813720703,13205094.337463379,12514837.265014648,9704195.022583008,11850831.031799316,11908033.37097168,15529970.169067383,7493035.316467285,-5882667.064666748
0.45,7922780.513763428,25977300.6439209,18466220.85571289,12252898.216247559,9187652.587890625,14005142.211914062,13143778.800964355,14058837.890625,13968112.94555664,14251761.436462402,13589113.235473633,13878790.855407715,13743730.545043945,18072385.787963867,15135809.898376465,10922445.297241211,11920092.582702637,-15752068.519592285,7068160.533905029,7327092.170715332,7622389.793395996,13522156.715393066,1436737.5373840332,15298750.877380371,8336510.65826416,550136.5065574646,-4922123.908996582,-6350389.48059082,9322577.476501465,8807439.804077148,22550592.42248535,-824197.4115371704,-12060181.617736816,-8762307.167053223,26203348.15979004,-7023290.634155273,-463206.8872451782,21237941.74194336,27371852.87475586,28624526.977539062,34979991.9128418,11534567.832946777,10306669.235229492,10115751.266479492,28146654.12902832,28089931.48803711,43846847.53417969,32986251.831054688,24501710.891723633,17753112.79296875,2597001.791000366,2449717.7600860596,-1661091.923713684,18865676.879882812,11744064.331054688,11129535.675048828,10516186.714172363,12730905.532836914,12705966.94946289,13814064.979553223,6041885.3759765625,-7584404.468536377
0.455,7887745.8572387695,29729660.034179688,24419322.967529297,13404116.6305542,15549912.452697754,9830616.95098877,9588508.605957031,10463544.845581055,16272357.940673828,19975725.173950195,19577325.82092285,19545862.197875977,19829183.57849121,28966087.341308594,10827448.844909668,7455327.033996582,11227490.425109863,-15115903.854370117,11171345.710754395,11428179.740905762,11850299.835205078,20788845.06225586,7950124.263763428,10983835.220336914,5449114.799499512,-1350716.1140441895,-5345349.7886657715,-5045347.690582275,12378058.433532715,11732355.117797852,27746433.25805664,5703062.534332275,-16618473.052978516,-11591311.45477295,23805919.647216797,-8715913.772583008,-662431.7169189453,22188915.252685547,29637096.405029297,31309001.922607422,38769653.3203125,9288882.2555542,7567654.132843018,7026119.232177734,25485618.591308594,25448797.22595215,42718490.60058594,32699424.743652344,24017385.482788086,18381347.65625,149199.81360435486,-314827.65078544617,-5629373.073577881,14728889.465332031,8715631.484985352,8029644.966125488,8239605.903625488,10482316.017150879,10433466.911315918,10377598.762512207,2207114.2196655273,-9691269.874572754
0.46,6880109.3101501465,30331470.489501953,26639659.881591797,13853933.334350586,17976840.97290039,6603483.6769104,6533174.03793335,7517760.276794434,17793172.83630371,23333080.291748047,23020048.141479492,22936929.70275879,23452564.239501953,33591560.36376953,7347302.9136657715,4522291.18347168,10400012.016296387,-15480682.373046875,13884157.180786133,13933568.954467773,14411042.213439941,24150701.52282715,9926993.370056152,7566291.809082031,2122431.516647339,-3633645.2960968018,-5592933.177947998,-4093090.057373047,13808653.831481934,12844835.28137207,29786508.560180664,7524831.295013428,-21039655.685424805,-15453312.873840332,22810276.03149414,-9410359.382629395,-654419.1241264343,23206789.016723633,30372680.6640625,31787776.947021484,40477401.73339844,6401501.178741455,5254553.318023682,5014209.270477295,25798765.182495117,26613466.262817383,43932209.01489258,33040100.09765625,23623895.6451416,17772819.51904297,-2342057.943344116,-2889091.968536377,-8348709.1064453125,14648556.70928955,7108232.9750061035,6280001.640319824,6054274.082183838,8094131.4697265625,8211767.196655273,9090321.54083252,243014.08231258392,-10911880.493164062
0.465,8997240.06652832,30813077.926635742,28910430.908203125,16540657.043457031,18931427.001953125,8440185.546875,7935245.990753174,9196743.965148926,20964635.848999023,25683696.746826172,25205820.083618164,25363435.745239258,25698787.689208984,35071914.67285156,9038229.942321777,6299956.321716309,12136723.518371582,-15543875.694274902,15312871.932983398,15125982.284545898,15566862.106323242,24281915.66467285,9024875.64086914,9311260.223388672,2528686.285018921,-3533246.2787628174,-4587845.802307129,-3894778.251647949,13699479.103088379,12486808.776855469,29924261.09313965,6327617.168426514,-21760114.669799805,-16882604.598999023,26135866.165161133,-8509203.910827637,-702512.9199028015,24614805.221557617,30030712.127685547,31408605.575561523,41320480.34667969,7160191.059112549,6943275.928497314,6621811.389923096,30118812.561035156,31504985.809326172,48075531.005859375,35084449.768066406,24902729.034423828,17955234.52758789,-1471382.2603225708,-1852907.2999954224,-6643325.8056640625,19276630.401611328,8424479.484558105,7556848.049163818,6525228.023529053,9886953.353881836,10244390.487670898,12976343.154907227,3017243.3853149414,-9441644.668579102
0.47,11547042.846679688,30837497.71118164,30062030.792236328,18464889.526367188,19050922.393798828,11691162.109375,10619768.142700195,12026973.724365234,22449392.318725586,25807491.302490234,25122091.29333496,25499965.66772461,25498964.309692383,35602798.46191406,12308740.615844727,9434785.842895508,13734874.725341797,-14921678.54309082,14619362.831115723,14303675.651550293,14712622.64251709,21797994.61364746,6911462.783813477,12615630.149841309,4605685.710906982,-2077168.7030792236,-3868212.938308716,-4347862.720489502,11814609.52758789,10568592.071533203,27748010.635375977,4158457.7560424805,-19509399.4140625,-15219578.742980957,28735923.767089844,-7704043.865203857,-915363.2521629333,23920917.510986328,28110387.802124023,29164018.630981445,39435367.584228516,9767784.118652344,9359349.250793457,9096152.305603027,32449562.072753906,34141418.45703125,49225566.86401367,34824836.73095703,24584522.247314453,17424041.748046875,1328818.678855896,1161863.923072815,-2357899.6658325195,23919553.756713867,10869890.213012695,10060097.694396973,7952137.470245361,14332955.360412598,14756052.017211914,19025398.25439453,7760040.760040283,-5387570.858001709
0.475,9536938.667297363,28026796.340942383,26664911.2701416,15312158.584594727,16395967.483520508,11084875.106811523,9651549.339294434,10945277.214050293,17929636.001586914,21567001.342773438,20853731.155395508,21262969.970703125,21102247.23815918,33786972.04589844,11836865.425109863,8586302.757263184,11367245.6741333,-15261883.735656738,11131148.338317871,10864463.806152344,11314850.807189941,17518888.473510742,4612237.453460693,12179670.333862305,4018332.4813842773,-2206305.980682373,-5307805.061340332,-5365009.307861328,8680364.608764648,7502634.525299072,23486675.262451172,2198098.1826782227,-17224864.959716797,-12975811.958312988,25867740.631103516,-8529254.913330078,-1054683.6853027344,20321517.944335938,25165531.158447266,25229578.018188477,34864913.94042969,10305592.53692627,8209388.732910156,8762013.43536377,28957509.994506836,31708751.678466797,44861770.62988281,30576627.731323242,21147911.071777344,15523670.196533203,2802020.54977417,2736274.7192382812,-35463.6125266552,24945030.212402344,12448607.444763184,11672582.626342773,8654385.566711426,16847066.87927246,17149799.346923828,22255754.470825195,10350895.881652832,-701850.175857544
0.48,3536802.7687072754,22952013.01574707,21010435.104370117,8634118.08013916,11563253.402709961,7312264.919281006,5602622.032165527,6767016.887664795,9745902.061462402,15131888.389587402,14582222.938537598,14994708.061218262,14853819.847106934,30201526.641845703,8290896.415710449,4471105.575561523,6308187.961578369,-17686405.181884766,6884721.279144287,6801620.960235596,7364666.46194458,14497374.534606934,4265396.595001221,8691401.481628418,1130418.4198379517,-4146276.9508361816,-7956694.602966309,-6699222.564697266,6582721.23336792,5426880.359649658,20817237.854003906,2228078.1269073486,-16023668.28918457,-12125952.72064209,21025035.858154297,-10246758.460998535,-912806.0936927795,17118543.62487793,23806987.762451172,23399616.241455078,32536815.643310547,9081711.769104004,5055295.467376709,6524897.575378418,23868007.65991211,28266893.38684082,40390258.7890625,26796743.392944336,18653587.341308594,15169480.323791504,2336377.6206970215,2268627.882003784,-1500896.8114852905,23480913.162231445,12721012.115478516,11970354.080200195,9573814.392089844,16252313.613891602,16493570.327758789,21692171.096801758,10084264.755249023,2479676.7234802246
0.485,-965077.3406028748,19472629.54711914,19533689.498901367,4464910.03036499,9069562.911987305,5015817.165374756,3082176.685333252,4293568.134307861,5127249.240875244,12259694.09942627,11904417.991638184,12434845.924377441,12302832.60345459,29199316.024780273,6236357.21206665,2176577.8064727783,3506055.3550720215,-20220699.310302734,5488656.997680664,5558208.94241333,6247942.4476623535,15699186.325073242,7451606.750488281,6711303.234100342,-178895.44367790222,-5266273.021697998,-9109888.076782227,-7540089.6072387695,7334176.540374756,6210692.405700684,22920337.677001953,5440701.961517334,-15382321.35772705,-12223226.547241211,20310941.696166992,-11230013.847351074,-658886.6114616394,17279752.731323242,25531478.881835938,26131187.438964844,35713226.318359375,8682889.938354492,3884408.473968506,5676032.543182373,22558250.427246094,27521911.62109375,40464851.37939453,27188138.961791992,20339462.280273438,17856321.334838867,974630.2366256714,855818.9868927002,-4854887.962341309,21695032.119750977,11442532.539367676,10808066.368103027,10799130.4397583,14573683.738708496,14948567.390441895,19459621.42944336,8331787.109375,2893989.8014068604
0.49,-86634.90414619446,20347644.805908203,23389741.897583008,6308830.738067627,11440412.521362305,6712977.409362793,4847034.931182861,6130654.335021973,7679442.405700684,15370126.724243164,15076318.740844727,15712438.583374023,15527589.797973633,32251613.61694336,8011594.772338867,4155071.258544922,5382833.003997803,-19871126.174926758,7854196.548461914,7903296.947479248,8638402.938842773,19517282.485961914,11573260.307312012,8529810.905456543,1608281.0163497925,-4071348.190307617,-7958659.648895264,-7112871.6468811035,9732086.181640625,8757479.667663574,27397783.279418945,9323790.550231934,-15095106.12487793,-12135743.141174316,23416664.123535156,-11237123.489379883,-605843.4247970581,19514736.17553711,28358936.309814453,30181734.085083008,40517833.7097168,9365445.137023926,4769325.733184814,6545269.48928833,24142282.485961914,27940347.67150879,42758129.11987305,29536445.61767578,23470203.399658203,20437995.91064453,-902603.6858558655,-1120584.9647521973,-7564785.957336426,19775894.165039062,8836623.191833496,8320449.8291015625,10289353.370666504,13078619.003295898,13624137.878417969,17012714.385986328,6059235.095977783,687393.0096626282
0.495,5361458.778381348,24138837.814331055,26101398.468017578,12205188.751220703,14830866.813659668,11961192.13104248,10348587.036132812,11542551.040649414,13951519.012451172,20196609.497070312,19775184.631347656,20354322.43347168,20140058.517456055,33896568.298339844,13095837.593078613,8811399.459838867,9945974.349975586,-16848045.349121094,10771559.715270996,10663723.945617676,11309886.932373047,20676338.19580078,11340669.631958008,13578364.372253418,4904871.463775635,-1748383.641242981,-6284043.788909912,-5795744.895935059,10911390.30456543,10085976.600646973,28856849.670410156,8954912.185668945,-14445652.00805664,-11308566.093444824,25840471.267700195,-10976552.963256836,-758040.7857894897,20899078.369140625,29518167.49572754,30882024.76501465,41293724.060058594,10578582.763671875,5684847.831726074,7170840.263366699,25081848.14453125,27545299.530029297,43836795.806884766,30663742.065429688,24320037.841796875,20197967.529296875,-2191523.790359497,-2508297.4433898926,-8306173.324584961,18250661.849975586,7389630.317687988,6785058.498382568,8177726.745605469,12248095.512390137,12787033.081054688,15305498.123168945,4682875.156402588,-2091709.852218628
0.5,11763023.376464844,26695743.560791016,22168930.053710938,17829084.396362305,13493884.086608887,19669015.884399414,17877979.278564453,18925535.202026367,18278783.798217773,20919069.290161133,20262439.727783203,20719882.96508789,20509151.458740234,28295331.954956055,20561672.21069336,14249746.322631836,14225370.407104492,-14614573.47869873,10620784.759521484,10383289.337158203,10900968.551635742,16564754.486083984,4953031.539916992,20968406.677246094,8702350.616455078,390112.9364967346,-5593851.089477539,-5008080.005645752,9816658.020019531,8929673.194885254,25903211.59362793,2669241.428375244,-11212607.383728027,-9050513.26751709,26991468.42956543,-10365201.950073242,-823867.2018051147,20976034.16442871,28975646.97265625,28565164.56604004,38246601.10473633,13906636.238098145,7586395.740509033,7841175.079345703,25855836.868286133,28191942.21496582,45049987.79296875,31568853.3782959,24014019.012451172,19221891.403198242,-355195.1050758362,-635763.6451721191,-6614111.90032959,19323526.38244629,9779157.638549805,8930663.108825684,7965148.92578125,13486844.062805176,13839436.531066895,16128433.227539062,6179124.83215332,-2661992.5498962402
0.505,15294394.493103027,24956895.82824707,13891349.792480469,20078466.415405273,7037915.229797363,27624286.651611328,24969358.444213867,26008110.04638672,18210834.503173828,16636123.657226562,15795576.095581055,16230022.430419922,16005552.291870117,17233770.3704834,28416006.088256836,19401020.050048828,16801872.25341797,-15436474.800109863,7238256.454467773,6987542.629241943,7506049.633026123,10077966.690063477,-3550277.2331237793,28807870.864868164,13005455.97076416,2528190.3743743896,-5423994.064331055,-5632452.487945557,7699940.6814575195,6583339.214324951,21848239.89868164,-5648036.479949951,-4879714.9658203125,-4943561.553955078,29748840.33203125,-8908277.51159668,-656308.0549240112,20783704.75769043,28172889.709472656,26707281.1126709,35360000.61035156,19753854.751586914,12169007.301330566,10528562.545776367,28707754.135131836,31262191.772460938,47880691.52832031,33486488.342285156,24917318.34411621,19923439.025878906,4536761.76071167,4465469.837188721,-3407121.181488037,23060583.114624023,14084062.576293945,13165075.302124023,10596966.743469238,16847360.610961914,17002637.86315918,19564544.677734375,9698683.738708496,-570035.457611084
