time,Fp1,Fpz,Fp2,AF3,AF4,F7,F5,F3,F1,Fz,F2,F4,F6,F8,FT7,FC5,FC3,FC1,FCz,FC2,FC4,FC6,FT8,T7,C5,C3,C1,Cz,C2,C4,C6,T8,TP7,CP5,CP3,CP1,CPz,CP2,CP4,CP6,TP8,P7,P5,P3,P1,Pz,P2,P4,P6,P8,PO7,PO5,PO3,POz,PO4,PO6,PO8,CB1,O1,Oz,O2,CB2
0.0,2444477.5581359863,1509499.430656433,1151975.5125045776,1568754.1961669922,721604.1684150696,1315420.0315475464,1318181.7531585693,1314855.0987243652,941979.8851013184,1033234.9538803101,184454.73909378052,876411.1399650574,846306.5028190613,429866.85037612915,1056526.780128479,1155023.8132476807,1340575.098991394,669222.2356796265,419593.2745933533,149171.72491550446,453869.0447807312,150569.6028470993,430240.80991744995,1158666.729927063,773141.6821479797,1165439.6057128906,753498.0177879333,87368.62987279892,-379756.71887397766,243985.8764410019,-75541.71979427338,439081.1324119568,755627.9897689819,916004.2405128479,1089144.7067260742,893989.2649650574,66655.29310703278,777433.7530136108,-52544.381469488144,717790.7824516296,713135.7789039612,880981.7433357239,693879.0082931519,671492.2189712524,681949.5558738708,509358.16764831543,541304.349899292,348253.60774993896,366670.6383228302,355019.1819667816,928529.7393798828,949213.3259773254,939594.5072174072,558017.5518989563,333928.4062385559,315736.0255718231,368933.3200454712,883045.9117889404,1052415.7285690308,941087.8419876099,363374.9783039093,664036.0355377197
0.005,20279792.78564453,15524280.548095703,9854103.088378906,20461305.618286133,9233465.194702148,10407371.520996094,10563095.092773438,10588786.125183105,14657193.183898926,13054003.715515137,6284471.51184082,1978905.200958252,1468358.2782745361,11971235.275268555,6215509.414672852,7270128.25012207,6024565.21987915,7319625.8544921875,5886846.542358398,-2144020.5574035645,-7363592.624664307,-2894732.95211792,12135020.25604248,14560397.148132324,9134876.251220703,1481300.5924224854,1327899.2176055908,1467443.823814392,-3996499.3000030518,-4230393.409729004,3020880.2223205566,12501686.096191406,15493443.489074707,10536557.1975708,7972872.257232666,4716992.8550720215,2259691.7152404785,-381562.2627735138,-1775503.2777786255,13945096.015930176,14356155.395507812,18567171.096801758,12849031.448364258,11936190.605163574,6047564.0296936035,7003477.096557617,1144530.2963256836,12242673.873901367,12871093.75,12229446.411132812,20019914.627075195,20328214.645385742,19924512.86315918,8536868.09539795,11807792.663574219,11118292.808532715,12732163.429260254,27815326.690673828,26101446.1517334,23776111.602783203,12674829.483032227,21484151.84020996
0.01,29550540.924072266,23697305.67932129,15795117.378234863,30854883.193969727,14944134.712219238,16491729.736328125,16725767.135620117,16713525.772094727,23200275.421142578,21555841.44592285,11423055.648803711,4098896.026611328,3454371.213912964,17175415.0390625,10397785.186767578,13353791.236877441,11316268.920898438,12674570.083618164,11016551.01776123,-232841.98343753815,-8137909.889221191,-3307524.9195098877,17349081.03942871,21567914.962768555,16202175.14038086,5793018.817901611,4969820.499420166,3842746.4962005615,-3972656.25,-6344843.864440918,4295286.655426025,17874860.763549805,23632835.388183594,16300767.89855957,13680645.942687988,6373504.161834717,2906011.3430023193,-1251061.0818862915,-4210539.817810059,17508550.6439209,18202434.539794922,26196805.953979492,17961170.196533203,16536569.595336914,5614435.67276001,5844173.908233643,-1190035.5815887451,13655104.637145996,14753233.909606934,13792361.25946045,26773868.560791016,27150506.9732666,26367212.295532227,8003273.963928223,13131510.734558105,12082143.783569336,14505901.336669922,35388309.478759766,32881240.844726562,28863609.313964844,14283985.137939453,27267286.30065918
0.015,31354770.66040039,26543214.797973633,19439092.6361084,33718383.7890625,18640333.17565918,19159656.524658203,19391960.14404297,19280214.309692383,25988348.00720215,25704607.009887695,15545104.98046875,7332734.107971191,6770932.197570801,16551853.17993164,13559451.10321045,17561727.52380371,15270215.034484863,15520882.606506348,14802299.499511719,4864407.539367676,-2695214.9868011475,-1004381.537437439,16560321.807861328,23128562.927246094,20573972.702026367,11557836.532592773,9846221.923828125,6511530.39932251,-532631.3376426697,-5299259.662628174,4340897.560119629,17026012.420654297,24949184.41772461,17606491.088867188,16568641.662597656,6460269.927978516,2252570.629119873,-1811130.7621002197,-5739928.722381592,13469964.981079102,14193964.958190918,24746543.884277344,16786647.79663086,15259436.60736084,2506640.4342651367,727190.1369094849,-4480512.619018555,7741189.002990723,8983895.301818848,8084346.771240234,22992382.049560547,23373676.300048828,22284410.47668457,2730985.8798980713,7335624.694824219,6260404.109954834,8691657.066345215,26716884.61303711,25454532.623291016,19861297.607421875,8321336.74621582,20864624.0234375
0.02,33059242.248535156,28823869.705200195,22699663.162231445,36336120.60546875,22455860.137939453,20623023.986816406,20806089.401245117,20626245.498657227,26308353.424072266,26867591.857910156,18464492.797851562,9928944.58770752,9317762.37487793,15210746.765136719,16823423.385620117,18739572.525024414,15439291.954040527,15553223.609924316,16093317.031860352,8137348.175048828,983238.8162612915,1167172.6703643799,15052775.382995605,25075323.1048584,22120346.069335938,13388805.389404297,11729019.165039062,7846642.971038818,2373767.614364624,-3172001.838684082,4620993.614196777,15360606.19354248,24803817.749023438,17214645.385742188,16359674.453735352,6721160.411834717,1751613.8553619385,-3170625.2098083496,-5223010.540008545,10941145.896911621,11456053.733825684,23205793.380737305,15539681.434631348,14124193.19152832,3348509.5500946045,-44109.538197517395,-5573190.212249756,4948438.64440918,5964139.461517334,5312436.103820801,19916116.71447754,20471801.7578125,19228298.18725586,1707367.6586151123,4541993.141174316,3547019.9584960938,5728034.496307373,20265636.444091797,21563941.955566406,14167109.489440918,5406029.70123291,16880697.25036621
0.025,37716026.306152344,32614883.422851562,25461797.7142334,41709377.28881836,25829214.096069336,22838806.15234375,22943603.515625,22838584.899902344,26942430.49621582,26541955.947875977,19248908.99658203,9912690.162658691,9101081.848144531,16056669.235229492,20711545.944213867,18772251.12915039,12839941.97845459,14201054.573059082,15077600.479125977,7019682.884216309,-2291192.7700042725,734344.3036079407,15948019.981384277,29551101.684570312,22655424.118041992,11107805.252075195,10084083.557128906,7448436.260223389,1786609.8880767822,-3000347.61428833,5175405.025482178,16102191.925048828,27273483.276367188,18020673.751831055,15455080.032348633,7239412.784576416,2106287.2409820557,-6340385.437011719,-4537285.804748535,13506587.982177734,13772255.897521973,26431943.893432617,17434032.440185547,16227756.50024414,7816861.152648926,3292554.1400909424,-5472493.1716918945,7993840.217590332,8655024.528503418,8178345.680236816,22877269.744873047,23640800.47607422,22409702.30102539,5030841.827392578,7450450.897216797,6456519.603729248,8564015.38848877,25205955.505371094,27670429.229736328,19447052.001953125,8431358.337402344,21874706.268310547
0.03,41542114.2578125,35540885.92529297,26309862.13684082,45703636.169433594,26749475.479125977,25065431.594848633,25093427.658081055,25210538.864135742,27988645.553588867,25909948.348999023,18121265.411376953,8577225.685119629,7704640.865325928,18191562.65258789,23228454.58984375,19755292.892456055,11516348.838806152,13905966.758728027,13827392.578125,4843174.934387207,-7275488.85345459,-558869.4214820862,18321220.39794922,32264381.408691406,23861625.67138672,9682066.917419434,8594336.50970459,6649474.620819092,-224577.56102085114,-4475961.685180664,5724977.493286133,18360549.926757812,30532939.910888672,19928432.46459961,16444847.106933594,7136654.376983643,2698506.5937042236,-9363122.940063477,-5220547.676086426,17167196.27380371,17347997.665405273,30310169.219970703,19797916.412353516,18852479.934692383,10085742.950439453,3733893.632888794,-6536813.259124756,11005870.819091797,11516145.706176758,11036047.93548584,26926610.946655273,27632257.46154785,26500076.293945312,5512672.901153564,10423401.832580566,9386946.678161621,11516837.120056152,33273159.02709961,33841030.12084961,27543106.079101562,11536888.122558594,28694557.189941406
0.035,41132167.81616211,35469123.84033203,25678941.72668457,44692234.03930664,25932909.01184082,25023799.896240234,25040313.720703125,25368642.807006836,28584524.154663086,26300497.05505371,17491659.16442871,9659697.532653809,8976756.09588623,20048210.14404297,21340478.897094727,20178611.755371094,13413537.02545166,15783961.296081543,14439311.981201172,6137554.64553833,-4947189.3310546875,1144059.5388412476,20314359.664916992,28901643.753051758,24713439.94140625,11434263.229370117,9550613.403320312,6745960.235595703,696078.6581039429,-4161053.6575317383,7100357.0556640625,20300283.432006836,29926481.246948242,20275245.666503906,18432422.637939453,6696649.551391602,2824565.649032593,-8462512.016296387,-5144496.917724609,18456775.665283203,18705043.79272461,29039968.490600586,19159616.470336914,18376182.556152344,8451915.740966797,-101058.4831237793,-7076532.84072876,10836449.62310791,11477709.770202637,10906663.89465332,26504150.390625,26926864.624023438,25908773.42224121,1638219.3565368652,10357262.61138916,9369527.816772461,11357307.434082031,33992206.57348633,31720905.303955078,29480054.85534668,11467664.71862793,29419391.632080078
0.04,38341030.12084961,33777519.22607422,25516365.05126953,41463729.85839844,26368965.14892578,22327688.217163086,22419044.494628906,22744501.1138916,28910963.05847168,28245283.126831055,19155082.70263672,13498271.942138672,13034745.216369629,20641344.07043457,15327350.616455078,17197713.85192871,15680631.637573242,18297538.75732422,16582691.192626953,9950903.89251709,3719493.865966797,5340071.201324463,20753944.396972656,21462764.739990234,22624156.951904297,12851594.924926758,10806279.182434082,7526917.934417725,4628116.607666016,-1385280.4899215698,9270953.178405762,20767679.21447754,24574508.666992188,17415939.331054688,18020566.940307617,6577937.126159668,2640748.977661133,-3904888.391494751,-2238789.7968292236,18222990.036010742,18516910.552978516,23149837.493896484,15900316.23840332,15027295.112609863,6770437.717437744,-2151577.2342681885,-4091052.532196045,10584694.862365723,11447372.436523438,10846988.677978516,22795675.27770996,23023447.036743164,22171163.55895996,-398037.5826358795,10163616.180419922,9322083.473205566,11068358.421325684,28313226.6998291,25896526.336669922,26236152.64892578,11273503.303527832,25607282.638549805
0.045,36401199.34082031,32619533.53881836,25710948.944091797,40916259.765625,28336931.228637695,19192216.873168945,19375514.98413086,19449062.34741211,29543006.896972656,30155872.344970703,21321105.95703125,14940027.236938477,14519146.919250488,18415992.736816406,9573931.694030762,11821608.543395996,14585214.614868164,19006610.870361328,17794382.095336914,10920772.552490234,7164109.230041504,6209141.254425049,18248714.447021484,15852107.048034668,17356506.34765625,10528009.414672852,9656067.848205566,7963387.489318848,6704591.751098633,-533714.9500846863,9540677.070617676,18342346.19140625,18702144.622802734,13042889.595031738,14366575.241088867,5949758.052825928,2629383.087158203,-1528938.6510849,672732.1147918701,17346471.786499023,17579647.064208984,17810905.45654297,12628703.117370605,11526982.307434082,6700165.748596191,325046.03266716003,260976.19533538818,11735000.610351562,12733864.784240723,12219120.979309082,19643918.991088867,19845085.14404297,19270975.11291504,2180650.234222412,11272624.015808105,10529557.228088379,12252658.84399414,23674385.07080078,24057012.5579834,22733140.94543457,12489753.723144531,22967580.795288086
0.05,35085147.857666016,31444334.030151367,23602657.318115234,42961841.58325195,28229978.561401367,17491090.774536133,17727445.602416992,17487710.95275879,30030113.220214844,29695978.16467285,20747703.552246094,10015159.606933594,9505784.034729004,12413555.145263672,7658067.226409912,8490377.426147461,10819080.352783203,17663450.241088867,16682073.593139648,7050621.509552002,-908758.819103241,350404.44135665894,12096389.770507812,14617645.263671875,12326717.376708984,6685412.406921387,7356255.531311035,7792130.470275879,4290116.310119629,-4666656.017303467,5602838.99307251,12271674.156188965,16222251.892089844,10363989.83001709,11112104.415893555,3789382.9345703125,2758321.523666382,-5434974.670410156,-836484.6110343933,14440438.270568848,14603484.153747559,15710435.86730957,10439084.05303955,9266906.73828125,5175077.91519165,2212333.2023620605,578367.5312995911,10660495.75805664,11681541.442871094,11299187.660217285,17313701.629638672,17455909.729003906,17185882.568359375,4054471.492767334,10204877.853393555,9412261.962890625,11392438.888549805,22331909.1796875,24922739.028930664,19375440.59753418,11488708.49609375,21955188.751220703
0.055,32398872.37548828,28385190.963745117,18125514.98413086,43231868.743896484,23820602.416992188,16624998.092651367,16935859.68017578,16535406.112670898,29351978.302001953,26810579.299926758,17396451.950073242,2312011.71875,1707768.5594558716,4896725.177764893,8206195.831298828,9177482.604980469,8648244.857788086,16585763.931274414,14811235.427856445,2833389.9974823,-11633590.698242188,-7599164.4859313965,4539227.9624938965,14867718.696594238,10961112.976074219,6010634.422302246,7354780.197143555,7699932.098388672,1405939.5790100098,-9992745.399475098,-393419.5041656494,4810205.936431885,16243045.806884766,10461349.487304688,11899809.837341309,1486742.2580718994,2666210.651397705,-11707316.398620605,-5816329.479217529,9382069.58770752,9579067.23022461,14765154.838562012,8726990.699768066,7722613.334655762,1022866.8451309204,-751234.3525886536,-3535592.0791625977,5390056.133270264,6296196.460723877,6000861.167907715,13768659.591674805,13793871.879577637,13674719.81048584,888210.8926773071,5000278.472900391,4098391.056060791,6274131.298065186,20280374.52697754,22288639.068603516,14096640.586853027,6169063.091278076,18466493.606567383
0.06,29077980.041503906,24237901.68762207,12511990.547180176,40149291.9921875,18386545.181274414,15551075.93536377,16029951.095581055,15650051.11694336,27751791.00036621,24274538.040161133,14792724.609375,-1126292.5863265991,-1809065.818786621,163379.4903755188,7861991.405487061,11193934.440612793,10230624.198913574,17677696.228027344,14648232.460021973,3084212.303161621,-12673461.9140625,-10615245.819091797,-307541.48960113525,13444785.118103027,12846459.38873291,9046082.496643066,10174654.960632324,8202811.241149902,3067235.4698181152,-10882614.135742188,-3894032.7167510986,119233.69765281677,15505317.687988281,11446141.242980957,15558917.999267578,1494674.0865707397,2352547.1687316895,-13474679.946899414,-8996755.599975586,5021039.009094238,5328844.5472717285,12482471.466064453,7329138.75579834,6477447.509765625,-1914412.260055542,-5317382.8125,-6703113.079071045,-139009.5055103302,467928.2605648041,187015.29502868652,9353140.830993652,9471352.577209473,9317936.897277832,-3833120.822906494,-606990.5757904053,-1512598.5145568848,527642.0712471008,15168661.117553711,15937770.84350586,8063056.945800781,395356.26769065857,11417955.39855957
0.065,28461626.052856445,22822347.64099121,11480381.965637207,37686965.94238281,17480813.98010254,15416870.1171875,16070438.385009766,15767641.067504883,27143798.828125,24729080.200195312,15611611.366271973,1520076.9901275635,775583.2672119141,519351.66120529175,6787170.886993408,11838524.81842041,13347760.200500488,20100608.825683594,16451747.89428711,6759008.407592773,-4635163.307189941,-7940597.057342529,-85026.71867609024,11485838.890075684,14880840.301513672,12054178.237915039,12806100.845336914,9061604.499816895,7789295.196533203,-8032895.088195801,-3484162.0922088623,503604.2928695679,13726888.656616211,11329391.479492188,17985839.84375,3580262.8993988037,2188095.5696105957,-10347895.622253418,-8451397.895812988,3721376.1806488037,4109775.5432128906,9782873.153686523,6903962.135314941,5975048.065185547,-915268.063545227,-6478004.455566406,-6005564.212799072,-1637117.862701416,-1376242.995262146,-1682035.0885391235,6812124.729156494,7326725.006103516,7109540.4624938965,-4887582.778930664,-2360941.8869018555,-3135546.6842651367,-1361793.7564849854,10209634.780883789,11832669.258117676,4863251.686096191,-1361354.947090149,5265077.590942383
0.07,31914325.714111328,26513048.17199707,16151309.967041016,39770347.595214844,22347249.98474121,17867944.717407227,18520755.767822266,18265384.674072266,28895404.815673828,27758760.452270508,18701751.708984375,6081373.21472168,5352011.680603027,4912338.2568359375,8026775.360107422,12023781.776428223,15083502.769470215,21458866.119384766,18237998.962402344,9430919.647216797,1623066.9021606445,-4096848.964691162,4429612.159729004,12180238.723754883,15426100.730895996,12625533.103942871,12997206.687927246,9803691.864013672,9846647.262573242,-6613873.9585876465,-1466973.7815856934,5019170.28427124,13769987.106323242,10517319.679260254,17858777.99987793,4848703.384399414,2331162.214279175,-7980493.545532227,-7361478.805541992,4977953.4339904785,5358383.1787109375,9315020.561218262,7456736.087799072,6339578.151702881,945341.7658805847,-5100004.67300415,-4768622.875213623,58016.19589328766,249446.40696048737,-75606.59199953079,7457618.236541748,8323749.542236328,8105811.11907959,-3251752.8533935547,-804916.1434173584,-1447908.9975357056,306749.8803138733,9681523.323059082,13161780.35736084,5714161.8728637695,334048.8076210022,4727905.2734375
0.075,36714397.43041992,32697128.295898438,22761932.373046875,44695568.0847168,28457710.26611328,21628622.05505371,22072721.481323242,21850751.876831055,31715162.27722168,30409702.30102539,20945348.739624023,8903581.619262695,8268150.329589844,10895623.207092285,12148724.555969238,13645995.140075684,15356919.288635254,20591819.763183594,18391878.128051758,9466506.958007812,719688.2367134094,-1523549.9143600464,10853698.73046875,15846477.508544922,15704336.166381836,12304193.496704102,11732041.358947754,10222615.242004395,7590579.986572266,-7810774.803161621,467658.9369773865,11192523.002624512,16939517.974853516,10859636.306762695,17891054.153442383,3753725.76713562,2534381.628036499,-9128919.60144043,-7733170.509338379,7491740.703582764,7785875.7972717285,11796807.289123535,8226498.603820801,7041985.511779785,-154537.30523586273,-5282526.016235352,-6263627.529144287,2037719.0113067627,2557004.690170288,2234457.015991211,9938264.846801758,10748799.324035645,10482020.378112793,-3279774.6658325195,1351782.5603485107,728313.0288124084,2713372.7073669434,13562506.675720215,16886131.286621094,8470023.155212402,2571854.591369629,9522194.862365723
0.08,39016925.81176758,35904590.60668945,26258352.279663086,47241287.23144531,30520740.509033203,23181182.861328125,23387699.127197266,23207696.91467285,32639751.434326172,30232877.731323242,20546747.2076416,9806019.78302002,9218477.249145508,15928849.220275879,15739891.052246094,15715679.168701172,15474379.539489746,18353128.43322754,17180355.072021484,8613039.97039795,-2554097.4140167236,867995.7389831543,16341798.782348633,19425394.05822754,16911262.51220703,13046257.972717285,10793386.459350586,10201442.71850586,5066287.040710449,-7774111.747741699,2733286.8576049805,16313821.792602539,20746173.858642578,12802163.124084473,20049007.415771484,1650447.3686218262,2533736.228942871,-10497711.181640625,-7304515.361785889,10838709.831237793,11006930.351257324,15329123.497009277,8968866.348266602,7820568.084716797,-2514839.8876190186,-7223196.029663086,-8329507.827758789,4130651.4739990234,5029967.308044434,4715981.960296631,12444460.86883545,12898374.557495117,12448469.161987305,-5257612.228393555,3695751.905441284,3019060.6117248535,5132789.611816406,17899534.225463867,19144609.451293945,10474181.175231934,4866956.2339782715,14925435.066223145
0.085,38049045.56274414,33696189.880371094,24993009.567260742,45470584.869384766,27839323.043823242,21473884.58251953,21582366.943359375,21432376.861572266,30665752.410888672,27721240.997314453,18145126.342773438,9211049.07989502,8551951.40838623,17614536.28540039,16194675.44555664,15937547.68371582,15569096.565246582,16314767.837524414,15907103.538513184,8080503.463745117,-3323626.2798309326,2835915.5654907227,18199357.986450195,20611190.795898438,18105901.71813965,14090326.309204102,10265700.340270996,9647906.303405762,5431279.182434082,-5052580.3565979,4735451.698303223,17939041.137695312,22319921.493530273,14720679.28314209,22375064.849853516,-123298.24268817902,2359066.2479400635,-9326719.284057617,-4630034.923553467,13902440.071105957,13960260.391235352,17772129.05883789,10120347.97668457,8920760.154724121,-1814341.9027328491,-7575065.135955811,-7548050.403594971,7128690.719604492,8010883.331298828,7694770.812988281,14270592.68951416,14468446.731567383,13842921.257019043,-5741843.223571777,6668301.105499268,5963970.184326172,7949820.041656494,19455032.348632812,19704263.68713379,10598441.123962402,7778602.600097656,16576555.252075195
0.09,36679729.46166992,29507112.503051758,21986730.575561523,43156925.201416016,24454631.805419922,19890771.865844727,20029138.565063477,19891902.923583984,28565845.489501953,25843624.114990234,15950525.283813477,7034500.598907471,6293473.243713379,15506375.312805176,15371981.620788574,14988770.484924316,15525012.969970703,15547647.476196289,15564008.712768555,7508920.192718506,-2987160.2058410645,2126440.2866363525,16016492.84362793,20559499.740600586,18258483.88671875,14032058.715820312,9736289.978027344,8913530.349731445,7046761.989593506,-3398458.242416382,4208073.616027832,15779836.654663086,22107553.482055664,15261737.823486328,22263141.632080078,-2344200.372695923,2198452.949523926,-8025276.184082031,-2732324.8386383057,14553604.125976562,14571443.557739258,18772428.512573242,11592392.921447754,10254741.668701172,1854083.0612182617,-5442840.576171875,-5143629.07409668,9234356.880187988,9717630.386352539,9412549.018859863,15319948.196411133,15535535.81237793,14899292.945861816,-3710962.2955322266,8530684.471130371,7833521.842956543,9692692.756652832,18896579.74243164,20069538.116455078,9368388.175964355,9640021.324157715,14317296.028137207
0.095,38105777.740478516,28781696.319580078,21453470.23010254,45064685.8215332,24459081.649780273,22234149.932861328,22431091.30859375,22316118.240356445,29886047.36328125,26905429.84008789,15996572.494506836,4816266.5367126465,4115869.9989318848,12542737.007141113,16981554.03137207,16333862.3046875,16727443.69506836,16197277.069091797,16294050.216674805,7075136.184692383,-4090519.428253174,-801429.5697212219,12920610.427856445,21940204.620361328,18887563.705444336,14047398.567199707,10146782.875061035,8765234.94720459,7284974.575042725,-5477837.562561035,1109805.2263259888,12877592.086791992,22764762.87841797,15427039.14642334,21039566.040039062,-5886621.952056885,2168425.3215789795,-9803688.049316406,-4556214.332580566,12618137.35961914,12662380.21850586,19639661.78894043,12765796.661376953,11441403.38897705,4362298.011779785,-3503743.6485290527,-4846488.952636719,8331372.261047363,8501390.45715332,8262516.975402832,15776564.598083496,16101079.940795898,15521714.210510254,-1757502.4366378784,7537351.608276367,6816998.9585876465,8787593.841552734,19279367.446899414,20646177.291870117,8472708.702087402,8615885.734558105,11662129.402160645
0.1,42032627.10571289,32425422.66845703,23876871.10900879,50941146.85058594,27477937.698364258,27629484.176635742,27876779.556274414,27784208.297729492,34107395.17211914,29594894.409179688,17994983.673095703,4659892.559051514,4076151.8478393555,11948593.139648438,21517951.96533203,21225696.563720703,19993583.67919922,17125936.50817871,17212411.880493164,7343697.071075439,-5825459.4802856445,-2426861.28616333,12172624.588012695,25175872.802734375,22173116.68395996,16342834.47265625,12297899.24621582,9420475.959777832,6555277.8244018555,-8475365.63873291,-1107291.340827942,12342499.732971191,25186733.24584961,17108673.095703125,22342252.731323242,-9773477.554321289,2277858.018875122,-13366616.249084473,-7872835.636138916,10873900.413513184,10941658.020019531,21471481.323242188,13574631.690979004,12518091.201782227,4056658.2679748535,-3425404.0718078613,-6974642.276763916,6066657.543182373,6337733.745574951,6200910.0914001465,16117841.720581055,16430583.953857422,15795950.889587402,-1545334.9351882935,5475728.988647461,4678560.256958008,6847077.369689941,21629241.943359375,21033668.518066406,9179096.221923828,6421518.802642822,11501283.645629883
0.105,44554885.86425781,35562110.900878906,25382677.07824707,55396739.9597168,29137208.938598633,31006603.240966797,31300743.103027344,31175928.115844727,36477043.15185547,29974634.170532227,18955051.42211914,5303143.501281738,4773194.313049316,12885557.174682617,25435279.846191406,25986976.623535156,22594062.80517578,16327396.392822266,16787204.74243164,7229963.779449463,-7098571.77734375,-1791504.3830871582,12886115.074157715,27561946.868896484,26604417.80090332,19805379.86755371,14410882.949829102,9983172.416687012,6571235.179901123,-8467976.570129395,-33622.08604812622,13217791.557312012,27180337.90588379,19670749.66430664,26224866.86706543,-12873927.116394043,2476732.2540283203,-15108309.745788574,-8143728.256225586,11433744.430541992,11478244.78149414,23349933.624267578,14187439.918518066,13413393.9743042,3551203.2508850098,-3863019.7048187256,-8355510.711669922,5900872.707366943,6513896.942138672,6408518.314361572,16266132.354736328,16454750.061035156,15730435.371398926,-1864291.1911010742,5547964.572906494,4666050.910949707,6847798.824310303,23152235.03112793,20988656.997680664,10607653.617858887,6367354.393005371,12870528.221130371
0.11,42401905.05981445,33618122.10083008,23002151.489257812,53471733.09326172,26391128.540039062,28516721.725463867,28834909.439086914,28612667.083740234,33513450.622558594,26131935.119628906,16392263.412475586,3616802.215576172,3065440.6547546387,12337641.716003418,24822393.4173584,25558906.55517578,20511962.890625,12866778.373718262,14273204.803466797,5021937.370300293,-8483157.15789795,-1677900.5527496338,12146879.196166992,25961637.496948242,27201370.239257812,19961843.490600586,13487476.348876953,9346024.513244629,7231918.3349609375,-5732258.7966918945,2619564.2948150635,12586685.180664062,25889802.932739258,19476268.768310547,27845172.882080078,-15746733.665466309,2665199.9950408936,-14155632.972717285,-4653945.9228515625,13173033.714294434,13188910.484313965,22495340.34729004,13483478.546142578,12731884.956359863,4645072.460174561,-3469899.4159698486,-7088614.463806152,7987612.724304199,8791778.564453125,8580851.554870605,14960545.539855957,15051493.644714355,14432320.594787598,-1560622.4536895752,7639279.365539551,6702347.278594971,8749611.854553223,20762582.778930664,19825132.369995117,10778354.64477539,8494315.147399902,12880484.580993652
0.115,36870666.50390625,28183933.25805664,19147603.98864746,45901226.04370117,21641033.172607422,21620559.692382812,21946861.267089844,21626096.725463867,27399278.64074707,20926460.26611328,11937769.889831543,719669.2228317261,165805.6527376175,10824732.780456543,19368574.142456055,19313642.501831055,14136141.777038574,8465371.131896973,10944423.67553711,1651516.4375305176,-8953532.218933105,-2733754.3964385986,10652471.542358398,20260517.120361328,21616298.67553711,14586063.385009766,9364542.961120605,7608610.153198242,7539461.135864258,-3054058.074951172,4407084.4650268555,11139875.411987305,20854496.002197266,14214925.765991211,23631097.7935791,-19105960.845947266,2753365.7550811768,-12518095.970153809,-684619.665145874,14195101.737976074,14229721.069335938,17228979.110717773,9839445.114135742,8917551.040649414,5279771.80480957,-3051841.4974212646,-4498692.035675049,9302076.33972168,10003969.192504883,9653137.20703125,11316295.623779297,11423395.156860352,11070557.594299316,-1455218.3151245117,8760420.799255371,7799949.169158936,9802438.735961914,15413519.859313965,16590347.290039062,9504227.638244629,9775465.01159668,11020196.914672852
0.12,32239135.7421875,24746459.9609375,18564893.72253418,38231830.59692383,19934803.009033203,15219532.012939453,15604562.759399414,15243306.159973145,23130308.151245117,18556032.180786133,9710334.777832031,1683771.1334228516,1152102.3511886597,12292156.219482422,12695372.581481934,11957946.77734375,8698556.900024414,5877307.415008545,8972245.216369629,146115.91398715973,-5860269.546508789,-1349799.7522354126,12320971.488952637,13995221.138000488,13979906.08215332,7408439.636230469,5462757.110595703,6018744.945526123,7766141.414642334,-1424588.4418487549,6035534.858703613,12795077.323913574,14852772.71270752,6974987.506866455,16723396.301269531,-21814800.262451172,2731444.835662842,-11633652.687072754,1397232.2940826416,14920631.408691406,14994500.160217285,10112766.26586914,4435673.713684082,3437250.3757476807,3252086.877822876,-3694070.1007843018,-2718187.3321533203,8621242.52319336,9107673.645019531,8751750.946044922,7103239.059448242,7322137.355804443,7102283.477783203,-2398140.9072875977,7897350.788116455,6946132.659912109,9020196.914672852,11362038.612365723,12269870.75805664,8664979.934692383,8974997.520446777,9716755.867004395
0.125,30579147.338867188,25492828.369140625,21515235.900878906,35157451.62963867,22468389.5111084,12548346.519470215,13037733.07800293,12697842.597961426,22309318.54248047,19232347.48840332,10867862.701416016,7196689.128875732,6619979.8583984375,17442745.208740234,9312951.08795166,8542407.035827637,7873041.152954102,5542575.836181641,8939742.088317871,1314752.8171539307,-870456.9935798645,3746695.041656494,17624837.87536621,11416173.934936523,10562780.380249023,4231344.699859619,4714809.894561768,5440783.0238342285,8431879.043579102,-327789.2470359802,9056595.802307129,18074434.280395508,12100194.931030273,3981410.9802246094,13758961.67755127,-22474924.087524414,2638785.1238250732,-11445186.614990234,2072035.312652588,16711935.043334961,16776010.513305664,6914919.376373291,1848314.4044876099,948044.3596839905,212263.85235786438,-4769298.553466797,-2660625.457763672,8177671.432495117,8563030.242919922,8330850.601196289,5962085.723876953,6299674.987792969,5993078.708648682,-3525965.2137756348,7409818.649291992,6492093.563079834,8568095.207214355,11512948.989868164,10388213.157653809,9348138.809204102,8309551.239013672,10732839.584350586
0.13,30041315.07873535,27128553.39050293,23229591.369628906,36320804.595947266,25151203.155517578,12625299.453735352,13112239.837646484,12839150.428771973,22141954.42199707,19505870.819091797,12198277.473449707,10786370.277404785,10090791.702270508,21414693.83239746,10664437.294006348,9277230.262756348,9510631.561279297,5226169.586181641,9429575.92010498,2711279.86907959,-306273.07295799255,7578602.7908325195,21568496.704101562,13436477.661132812,12408246.994018555,6108710.765838623,6173990.726470947,5419425.964355469,8472609.519958496,-118136.99454069138,11841538.429260254,22029043.197631836,14604469.299316406,7424013.614654541,16557479.858398438,-22112613.677978516,2488257.646560669,-11797648.429870605,2225450.277328491,18916471.481323242,18918111.80114746,10698485.374450684,4966957.569122314,4126791.9540405273,-644685.2684020996,-5149589.061737061,-4040120.6016540527,9749814.987182617,10187510.49041748,10024307.250976562,9297346.115112305,9652512.550354004,9302226.066589355,-3734885.2157592773,9070106.506347656,8157781.600952148,10131495.475769043,14753584.861755371,13201837.539672852,10451547.622680664,9658390.045166016,12902579.307556152
0.135,28526754.37927246,26047586.44104004,20543443.67980957,37978149.4140625,24191797.256469727,12661135.67352295,12934039.115905762,12759250.64086914,20452898.025512695,17641696.92993164,11010755.53894043,7565260.410308838,6790756.702423096,20060291.290283203,14064212.799072266,10256759.643554688,9630998.611450195,3495659.828186035,9224275.588989258,2608908.4148406982,-6165388.107299805,5492473.125457764,20117256.16455078,16835119.247436523,14891890.525817871,8794890.403747559,6944995.880126953,5066873.073577881,6614944.934844971,-1337740.3020858765,11213293.075561523,20578523.635864258,19681722.64099121,12501093.864440918,19943510.055541992,-22942996.978759766,2328699.1119384766,-12538278.579711914,1575901.2699127197,19394186.01989746,19346067.428588867,17571653.366088867,10547029.495239258,9583646.774291992,718434.9298477173,-5071268.081665039,-5640897.750854492,11591502.18963623,12095429.420471191,11869367.599487305,13936018.943786621,14160524.368286133,13972659.11102295,-3488576.4122009277,11060132.98034668,10079437.255859375,12027396.202087402,17640417.098999023,17916694.64111328,10514226.913452148,11424276.351928711,13975144.386291504
0.14,26691175.46081543,22822135.92529297,16005596.160888672,37699005.126953125,20771656.036376953,11617579.460144043,11629493.713378906,11550969.123840332,18831911.087036133,15920579.91027832,8879440.307617188,1514055.4904937744,752950.2511024475,15334302.90222168,15551218.98651123,8684222.221374512,8213590.621948242,1940187.931060791,8788620.948791504,2340693.712234497,-11665568.351745605,199735.73088645935,15389684.677124023,17733839.03503418,14259794.235229492,8762823.104858398,6273934.841156006,4394626.617431641,3855141.8781280518,-2927464.246749878,7330322.742462158,15750504.493713379,21993087.768554688,13214123.725891113,18760047.912597656,-24673212.0513916,2310626.983642578,-12603085.5178833,59539.470821619034,17408506.393432617,17364788.055419922,20345243.453979492,12696304.321289062,11577234.268188477,1710386.7530822754,-5342040.061950684,-5779047.012329102,10772251.12915039,11212648.391723633,10948995.590209961,15360871.315002441,15393531.799316406,15359812.73651123,-3766938.9247894287,10348423.00415039,9274969.100952148,11320377.349853516,17530832.290649414,19163375.854492188,9362003.326416016,10660926.818847656,13138051.986694336
0.145,26055149.07836914,20241115.57006836,13715986.251831055,36535560.607910156,18508918.76220703,10683114.051818848,10670639.038085938,10643524.169921875,19693883.895874023,16774749.755859375,8720524.787902832,-550428.9865493774,-1292278.76663208,11638590.812683105,13913263.320922852,6091035.842895508,8290885.925292969,2820559.501647949,9099038.124084473,3420161.008834839,-10538137.435913086,-2526629.686355591,11786701.202392578,15664828.300476074,11988980.293273926,7339679.24118042,6056993.48449707,4279218.673706055,2555447.3400115967,-3714119.6727752686,3581848.8597869873,11970236.778259277,19280719.757080078,9856541.633605957,14736485.481262207,-24485294.342041016,2503528.118133545,-11089176.177978516,-1487944.8413848877,14112779.61730957,14099893.569946289,16933673.858642578,10618422.508239746,9516598.70147705,1710240.4832839966,-5578881.26373291,-4276721.000671387,7045296.192169189,7310657.978057861,7164373.874664307,13077834.129333496,13043615.341186523,12927594.184875488,-4152678.4896850586,6615761.280059814,5534935.95123291,7585319.519042969,14459764.48059082,15728308.67767334,7394279.479980469,6957028.388977051,11041577.339172363
0.15,26021196.365356445,19144929.885864258,13762693.405151367,36640369.4152832,18222791.67175293,10807221.412658691,11037600.51727295,11002304.077148438,22327884.674072266,19081861.49597168,10210819.244384766,1158319.592475891,380647.8977203369,9623470.306396484,11280456.54296875,5660895.347595215,10579009.056091309,5601424.217224121,9960401.53503418,4797587.3947143555,-6297742.3667907715,-2485334.1579437256,9845786.094665527,13318839.073181152,11549697.875976562,7766059.875488281,7554078.578948975,5233735.56137085,3473629.951477051,-4546061.992645264,1747314.691543579,9929499.626159668,14980690.002441406,7990270.137786865,13759804.725646973,-21339199.06616211,2687106.132507324,-8979322.43347168,-2678809.642791748,10641944.885253906,10641463.279724121,12749754.905700684,9401050.567626953,8441653.25164795,2936772.346496582,-4732087.135314941,-3344042.3011779785,3013915.3003692627,3157924.6520996094,3150612.1158599854,11012756.34765625,11160225.868225098,10878939.628601074,-3424216.9857025146,2512175.5599975586,1529535.8896255493,3365227.699279785,11151737.213134766,12355280.876159668,4931925.7736206055,2864802.837371826,8656140.327453613
0.155,24937667.846679688,18419246.673583984,13389417.64831543,38118701.93481445,17809904.098510742,11300749.778747559,11767436.027526855,11660021.781921387,23851015.090942383,20063098.907470703,10675196.647644043,1005366.0869598389,211100.7571220398,7109466.552734375,10170485.496520996,7833212.375640869,12341778.755187988,7454959.869384766,10298295.021057129,4777812.480926514,-6508447.647094727,-3975955.2478790283,7337181.091308594,12882856.369018555,13350670.81451416,10298753.73840332,9411231.994628906,6665835.380554199,5353794.574737549,-6482799.530029297,456047.02830314636,7483147.621154785,13887830.73425293,10465390.2053833,17606880.18798828,-18081310.272216797,2553664.9227142334,-8175271.987915039,-3907419.204711914,7577889.442443848,7577083.110809326,13494405.746459961,12264863.014221191,11377011.2991333,6087885.37979126,-3092819.929122925,-4690319.538116455,1271822.8101730347,1454480.767250061,1415748.2385635376,12142056.465148926,12630272.86529541,12399732.58972168,-1732732.2959899902,759435.772895813,-132015.07925987244,1472812.0565414429,10769621.849060059,13474949.836730957,2983500.4806518555,1122077.7034759521,6971516.6091918945
0.16,23072938.919067383,17766427.993774414,12038694.381713867,39201469.42138672,16518701.553344727,11298978.805541992,11782649.993896484,11519427.299499512,23026243.209838867,19208478.927612305,9458744.049072266,-2468762.159347534,-3203082.56149292,4335901.737213135,11170359.61151123,10316427.230834961,11753488.540649414,6900135.040283203,9601309.776306152,3770558.8340759277,-11119813.919067383,-7543215.274810791,4551804.065704346,14098225.593566895,15118593.215942383,12426686.28692627,9686891.555786133,7495590.2099609375,6951545.715332031,-8060991.287231445,-1084157.2284698486,4802361.965179443,16444646.835327148,14042003.631591797,21967628.479003906,-17791101.455688477,2163752.0790100098,-9127367.01965332,-4860048.294067383,6105571.746826172,6143334.865570068,18037536.62109375,15970498.085021973,15046138.763427734,8274423.599243164,-2225987.434387207,-6508869.171142578,2523719.549179077,2815588.7126922607,2643393.039703369,14823111.534118652,15537447.929382324,15571506.50024414,-665303.8263320923,2106728.5537719727,1196017.3845291138,2798639.2974853516,13664093.017578125,17497570.037841797,3185102.4627685547,2532359.6000671387,6941618.4425354
0.165,22144100.189208984,17819522.857666016,11829636.573791504,38819274.90234375,16270797.729492188,11291379.928588867,11669853.210449219,11206016.540527344,21111759.185791016,18168708.80126953,8640446.662902832,-4656492.710113525,-5359576.70211792,3969942.569732666,13587782.859802246,11812592.506408691,10565917.015075684,5335087.776184082,8309423.446655273,3207912.4450683594,-13269457.817077637,-8749530.792236328,4207358.837127686,15984123.229980469,16003616.333007812,13057055.473327637,8611452.102661133,7246091.842651367,7858480.930328369,-7087074.756622314,-1081087.350845337,4449779.510498047,19272409.439086914,15071474.075317383,23178762.435913086,-19565799.713134766,1930136.799812317,-10907567.024230957,-4392920.017242432,7458957.672119141,7602169.036865234,21005916.595458984,16459577.560424805,15519783.020019531,7250675.678253174,-2763285.6369018555,-5762996.673583984,5734129.428863525,6072512.149810791,5873098.850250244,15900285.720825195,16506042.48046875,16775974.27368164,-1016278.2669067383,5418588.161468506,4420948.028564453,6179347.038269043,16849178.314208984,19703664.779663086,5798420.429229736,5948882.102966309,8567145.347595215
0.17,22243352.89001465,18050027.84729004,13603908.53881836,37547790.52734375,18279653.549194336,11984440.803527832,12330293.655395508,11777988.43383789,19318284.98840332,17731986.99951172,9545888.900756836,-2439762.3538970947,-3252430.6774139404,6438606.262207031,16588274.002075195,13151508.331298828,11093512.535095215,4683133.125305176,7095502.853393555,3208648.204803467,-9980495.45288086,-5371528.625488281,6704707.622528076,18379650.115966797,17314350.128173828,13647563.934326172,7976714.611053467,6314676.284790039,7804077.1484375,-4180889.60647583,1867710.5903625488,6864759.44519043,20287288.665771484,14788905.143737793,22866153.717041016,-19944055.557250977,2038540.8401489258,-12895081.520080566,-2322710.0372314453,10851738.929748535,11119596.481323242,20516929.626464844,15405367.851257324,14511513.710021973,5293408.393859863,-3476654.529571533,-2759667.158126831,9150609.016418457,9523525.23803711,9366454.124450684,15628841.400146484,15871792.793273926,16243814.468383789,-1689320.5642700195,8841556.549072266,7829422.950744629,9636777.877807617,17875434.87548828,19096239.08996582,9011888.50402832,9458016.395568848,10593053.817749023
0.175,21773933.41064453,17144969.940185547,15561110.496520996,36395950.31738281,20883630.752563477,12711188.316345215,13090437.889099121,12691765.785217285,17640106.201171875,17229547.50061035,10989870.071411133,1565964.937210083,610629.141330719,8937985.42022705,19110372.54333496,14799736.022949219,12841029.167175293,5105351.448059082,6441345.21484375,3159853.935241699,-5537009.239196777,-829086.4825248718,9170668.601989746,21013921.7376709,19640066.146850586,15293416.023254395,8635574.340820312,5467510.70022583,6819059.8487854,-1991034.8653793335,5990609.645843506,9337874.412536621,20779645.919799805,16352231.979370117,24115467.071533203,-17670177.459716797,2197706.699371338,-14863758.087158203,-29101.118445396423,13658070.56427002,13981433.868408203,19850799.560546875,17100254.05883789,16196622.848510742,6044723.5107421875,-3135446.786880493,-664566.8745040894,11427664.756774902,11972551.345825195,11668345.45135498,16931966.78161621,16903802.8717041,17317899.703979492,-1416157.603263855,11045058.250427246,10155333.518981934,11841979.98046875,18317731.857299805,19139299.392700195,11262127.876281738,11695427.894592285,11930062.294006348
0.18,20728975.296020508,15672688.484191895,16302177.429199219,36009311.67602539,21999870.30029297,12488740.921020508,12824822.425842285,12717758.178710938,16490348.815917969,16652914.047241211,11508184.432983398,3640625.7152557373,2730175.018310547,9715742.111206055,20129730.224609375,15799703.598022461,13889296.531677246,5794154.167175293,6684757.232666016,3497662.7826690674,-3971582.4127197266,1063468.5754776,9826270.10345459,22831203.46069336,21843778.610229492,17092096.32873535,9988891.6015625,5314961.910247803,6023692.1310424805,-1345150.9475708008,8375975.608825684,10113544.464111328,22546508.7890625,19275180.81665039,26313192.36755371,-14932485.580444336,2151582.0026397705,-15927645.683288574,1373053.5507202148,14521506.309509277,14798720.359802246,21831428.52783203,21043130.87463379,20019561.767578125,8880808.83026123,-2344507.4558258057,-639843.2850837708,12563865.661621094,13370979.309082031,12702107.429504395,20456668.853759766,20508829.11682129,20891557.693481445,-682396.7099189758,12097640.037536621,11363184.928894043,12973449.70703125,21406351.08947754,21994150.161743164,13059129.71496582,12736186.027526855,12909132.957458496
0.185,21759363.174438477,16258079.528808594,16874889.373779297,37550159.4543457,22212539.672851562,12414174.07989502,12622966.766357422,12674303.05480957,17684103.01208496,17422061.920166016,11687561.03515625,3785369.396209717,3107992.41065979,10328230.857849121,20496938.705444336,16349771.499633789,14232146.263122559,6991079.330444336,8018680.572509766,5134741.78314209,-4120068.5501098633,883865.6544685364,10283673.286437988,23924818.03894043,23540296.55456543,18235410.690307617,11619028.091430664,6150757.789611816,6829853.057861328,-713354.8259735107,8598735.809326172,10652141.571044922,25747697.830200195,20757656.09741211,27231803.89404297,-14048327.445983887,2101131.2007904053,-15437822.341918945,2219080.4481506348,14975336.074829102,15154517.17376709,25536937.713623047,22907186.50817871,21778442.3828125,9766515.731811523,-2662779.3312072754,-854050.33826828,13679750.442504883,14587269.78302002,13687345.504760742,23580074.310302734,23937131.881713867,24096496.58203125,-1032038.4502410889,13146498.680114746,12430676.460266113,14180101.39465332,26902009.963989258,25617473.602294922,15446767.807006836,13761785.507202148,14560436.248779297
0.19,26587566.375732422,19980665.20690918,18401988.983154297,42598518.37158203,23580181.121826172,14995303.1539917,15141562.461853027,15083166.122436523,22364494.32373047,20384420.39489746,13138240.814208984,3680155.7540893555,3158906.4598083496,12156534.194946289,23174734.115600586,18966358.184814453,15534973.14453125,9823355.674743652,10300496.101379395,7571547.508239746,-4032967.5674438477,819239.8548126221,12014846.801757812,26520837.783813477,26198883.056640625,19718896.865844727,13800349.235534668,7834551.811218262,8969573.020935059,366307.7652454376,8294436.454772949,12355350.494384766,29986766.815185547,21098188.400268555,28031040.19165039,-14970174.789428711,2304897.0699310303,-14965767.860412598,2771110.5346679688,16678440.09399414,16758247.375488281,29294708.251953125,22189632.415771484,21083013.5345459,7492820.262908936,-4429699.420928955,-929049.0746498108,15217825.889587402,15957277.297973633,15231272.69744873,24650194.16809082,25166278.839111328,24957708.35876465,-2877524.8527526855,14633749.008178711,13756243.705749512,15770403.861999512,30716211.318969727,27422296.52404785,17616643.90563965,15288925.170898438,16966039.657592773
0.195,32440227.508544922,23934669.494628906,19490728.3782959,49979911.80419922,25863561.630249023,19973608.016967773,20187822.341918945,19882280.349731445,28194261.55090332,23933534.622192383,15745935.440063477,3080835.8192443848,2465610.980987549,13421887.397766113,29110004.425048828,24373338.69934082,17671300.888061523,13980047.225952148,12753952.026367188,9068533.897399902,-4940991.401672363,478360.5635166168,13281003.952026367,31414569.854736328,29914321.899414062,22115009.307861328,15841219.902038574,9567900.657653809,10461585.998535156,168176.23376846313,8036229.133605957,13609233.856201172,34560409.54589844,22941335.678100586,31172071.45690918,-16578409.194946289,2534287.452697754,-16935707.092285156,2095552.682876587,18294689.178466797,18274019.241333008,32802028.65600586,22963615.41748047,21921701.431274414,5494639.3966674805,-6419626.712799072,-3307305.335998535,15865698.81439209,16378505.70678711,16029390.335083008,24966997.146606445,25313348.7701416,24865636.825561523,-4975962.6388549805,15282170.295715332,14213185.31036377,16390510.559082031,29743030.548095703,27482481.002807617,17582292.556762695,16095649.719238281,18862672.805786133
0.2,33822952.27050781,23795526.5045166,17729768.753051758,53896568.298339844,25862825.393676758,22558151.245117188,22854513.16833496,22368480.682373047,30049392.700195312,24875261.306762695,17035943.98498535,919156.4917564392,130677.08909511566,11839392.66204834,33734527.587890625,28017354.96520996,17662691.116333008,16611616.134643555,13919001.579284668,8617900.848388672,-7746994.495391846,-1541479.3491363525,11768142.700195312,34589942.932128906,31062520.98083496,23110681.533813477,15568570.137023926,10184862.13684082,10131642.34161377,-1935073.8525390625,6874749.183654785,12195060.729980469,36803260.803222656,25182621.002197266,34207569.12231445,-18521596.908569336,2394799.9477386475,-20646070.48034668,-38044.83264684677,17177833.557128906,17086021.423339844,34597816.467285156,26016229.6295166,24921855.926513672,6542178.630828857,-7405317.783355713,-8062663.0783081055,14310620.307922363,14775127.410888672,14602673.530578613,25362773.895263672,25401502.60925293,25048698.42529297,-5985188.961029053,13825842.85736084,12717219.352722168,14839477.5390625,24913595.19958496,26594856.26220703,14890447.616577148,14821269.035339355,18809928.89404297
0.205,28143360.137939453,18601726.531982422,13287993.431091309,48584354.400634766,21371938.705444336,18017608.642578125,18292449.951171875,17765926.361083984,24660852.432250977,21262575.149536133,14637305.25970459,-1810433.3877563477,-2576441.764831543,8806917.190551758,30832263.946533203,24289472.579956055,13112344.741821289,14501548.767089844,12434497.833251953,6676873.683929443,-9554738.998413086,-3958005.666732788,8836491.584777832,31012582.778930664,26062271.118164062,19648059.844970703,11818367.004394531,9110514.640808105,9149361.610412598,-3483051.061630249,4984954.833984375,9353792.190551758,33476112.365722656,22960350.036621094,31373029.708862305,-20504022.5982666,2044655.3230285645,-21972391.12854004,-1307038.9032363892,13863285.064697266,13829196.92993164,31635608.673095703,26324295.043945312,25061195.373535156,8965794.563293457,-6983218.669891357,-9939679.145812988,11908513.069152832,12462816.23840332,12183045.387268066,24245946.884155273,24144531.25,24137353.897094727,-5501899.719238281,11608991.622924805,10615221.02355957,12537103.652954102,19356031.41784668,24359981.536865234,11634001.731872559,12586881.637573242,16841014.862060547
0.21,19118370.056152344,12391355.514526367,9658676.147460938,36374027.252197266,15056705.474853516,8243182.182312012,8428375.244140625,7964415.550231934,14971631.050109863,14837664.604187012,9486948.96697998,-2848722.6963043213,-3402235.269546509,8353984.832763672,21256746.292114258,14740364.074707031,6017426.96762085,7874326.705932617,8693284.98840332,4278941.631317139,-7708075.046539307,-3984619.8558807373,8494111.061096191,22684392.92907715,17589971.5423584,12854698.181152344,6857433.795928955,7045911.78894043,9272774.696350098,-2179135.799407959,4455941.677093506,8951530.456542969,26286935.806274414,16115942.001342773,23121112.823486328,-21173488.61694336,2046654.224395752,-18818048.47717285,676344.4542884827,12305210.11352539,12468315.124511719,25034475.326538086,21756734.84802246,20381175.994873047,10083606.719970703,-4959812.641143799,-4673125.267028809,11924603.462219238,12523275.375366211,12102209.091186523,21582359.313964844,21593751.907348633,21915199.279785156,-3495147.466659546,11814845.085144043,10934226.989746094,12666724.20501709,15916583.061218262,21724298.47717285,10642631.530761719,12494948.387145996,15195113.182067871
0.215,13564008.712768555,10509442.329406738,10184435.844421387,27670703.887939453,12591073.989868164,1067734.8375320435,1208604.6934127808,853435.754776001,8439206.12335205,10279113.76953125,5769910.81237793,-1697389.6026611328,-2098877.6683807373,11957358.360290527,14021621.704101562,8087121.963500977,1516499.9961853027,1209552.28805542,5217310.905456543,2311763.048171997,-4669644.355773926,-1548555.850982666,12163804.054260254,18475643.157958984,13469259.262084961,8284258.842468262,4583466.529846191,5315016.746520996,10268771.171569824,432849.10917282104,6371533.8706970215,12505082.130432129,22536272.048950195,12242301.940917969,18172912.59765625,-19660341.262817383,2463120.698928833,-14814369.201660156,4370572.090148926,14537942.886352539,14849907.875061035,22140153.884887695,18426641.4642334,17122694.01550293,10325143.814086914,-1470839.262008667,3709937.09564209,15249954.223632812,15824838.638305664,15382817.268371582,21284561.157226562,21507865.90576172,21935226.440429688,-165767.90809631348,15230512.619018555,14374588.012695312,16025056.838989258,16425397.872924805,22210037.231445312,12759408.950805664,15570546.15020752,16544097.900390625
0.22,14399221.420288086,14119812.01171875,14169939.994812012,29847515.106201172,16192487.716674805,1657030.9400558472,1836125.4930496216,1567233.920097351,9492604.25567627,10767542.839050293,6580149.173736572,-161646.5449333191,-593288.9580726624,16358854.293823242,15861825.942993164,10004861.831665039,2325704.0977478027,-927809.2980384827,4156513.214111328,1270845.7708358765,-5033563.613891602,281218.0817127228,16510538.101196289,23194221.49658203,17484016.41845703,9706820.487976074,6076065.540313721,4490572.452545166,10022725.105285645,675349.8315811157,8568475.723266602,16886821.746826172,26472232.818603516,16703557.968139648,22207708.35876465,-17675905.227661133,2651578.187942505,-15183159.828186035,5273251.056671143,17236480.712890625,17480182.647705078,27574605.94177246,21767484.664916992,20661115.646362305,11045128.82232666,1809441.328048706,6452193.737030029,18299047.470092773,18897851.943969727,18443178.176879883,25503635.40649414,25868072.509765625,26173236.846923828,3004903.0780792236,18219022.750854492,17368148.803710938,19037809.371948242,20411920.54748535,26884174.346923828,15682415.962219238,18484649.658203125,20493745.803833008
0.225,17334735.870361328,18649013.51928711,17113815.307617188,37854297.63793945,21247608.184814453,6110441.207885742,6362493.03817749,6106435.775756836,14280160.903930664,14095524.787902832,9866998.672485352,-186977.93781757355,-684887.5284194946,17252151.489257812,21975826.263427734,15541724.20501709,5460355.281829834,1107494.9502944946,4580384.254455566,794298.7084388733,-8986632.347106934,-894827.3658752441,17245922.088623047,29942535.400390625,23530096.05407715,14027644.157409668,8261939.04876709,4039860.725402832,7273057.460784912,-2550554.9907684326,7769204.139709473,17797733.306884766,32196441.650390625,23267066.955566406,29023874.282836914,-17998722.076416016,2185153.2459259033,-19873497.009277344,1486323.4758377075,15629636.764526367,15723685.264587402,34655639.6484375,26456918.716430664,25507143.020629883,10722533.226013184,2280566.692352295,937118.649482727,16713058.471679688,17374780.654907227,16825639.724731445,28982208.251953125,29384826.66015625,29531608.58154297,3596998.453140259,16481506.34765625,15655509.948730469,17403392.791748047,23732585.906982422,30375831.604003906,15810494.422912598,16927453.994750977,22667522.430419922
0.23,15754826.545715332,18434642.791748047,15200360.298156738,40062583.923339844,21109523.77319336,6115795.612335205,6431169.033050537,6169710.636138916,15037499.42779541,14799281.120300293,10396173.477172852,-2407178.8787841797,-2872996.5686798096,13847340.58380127,21715019.22607422,15134589.195251465,5630625.7247924805,2516871.690750122,3730430.3646087646,-183362.99061775208,-12612071.03729248,-4508495.330810547,13734685.897827148,28039630.889892578,22245500.564575195,14538219.451904297,7696118.354797363,3407652.6165008545,3556966.3047790527,-6727877.616882324,3411441.0877227783,14370765.686035156,30132680.892944336,21104923.248291016,28622316.360473633,-20715978.622436523,1533444.5238113403,-23742929.458618164,-3858806.371688843,9639183.99810791,9772436.141967773,32439525.604248047,22759309.768676758,21834371.56677246,7222163.677215576,-510398.5667228699,-6235976.696014404,10477540.016174316,11092321.395874023,10502121.925354004,24588970.184326172,24999343.872070312,25187883.377075195,1001889.9440765381,10143741.607666016,9253858.56628418,11115554.809570312,21547027.587890625,26639766.693115234,11970473.289489746,10728136.06262207,19230947.494506836
0.235,8676167.488098145,12916336.059570312,9468609.809875488,32622512.817382812,14862795.82977295,-937562.9425048828,-567458.2123756409,-746630.609035492,9469937.324523926,10750422.477722168,6153354.644775391,-6180953.502655029,-6621499.538421631,9189626.693725586,12425100.326538086,6622526.6456604,1350849.5092391968,-12842.475436627865,1003493.6666488647,-2005556.344985962,-13855645.179748535,-8424230.575561523,9142193.794250488,16933807.373046875,12597033.500671387,8880677.223205566,4572030.544281006,2852800.130844116,1865848.0644226074,-9119103.43170166,-1752557.5160980225,9652641.296386719,19790254.592895508,9795700.073242188,21060003.28063965,-22734104.15649414,1442592.2632217407,-23408548.35510254,-6707853.7940979,3821933.2695007324,4142568.588256836,20829339.9810791,11368775.367736816,10403447.151184082,2688806.5338134766,-3541241.6458129883,-8026761.054992676,3861736.059188843,4293344.497680664,3851475.954055786,14027856.826782227,14479922.2946167,14946599.006652832,-2085322.618484497,3550839.900970459,2454183.81690979,4406933.784484863,14275382.041931152,17865596.771240234,7165944.0994262695,4067994.5945739746,12087233.543395996
0.24,2160733.461380005,7308488.845825195,4995666.027069092,23379951.47705078,8365632.057189941,-9245388.984680176,-8802793.502807617,-8858929.634094238,3148403.6445617676,5768167.018890381,922710.7763290405,-9622165.67993164,-10205239.295959473,7030297.756195068,2580545.18699646,-2593536.138534546,-3698696.3748931885,-4299545.2880859375,-1134370.3269958496,-3471898.317337036,-14228191.375732422,-10734189.0335083,7132098.67477417,6906820.297241211,3265414.237976074,1722359.538078308,1932158.8277816772,2852744.5793151855,3363745.4509735107,-9294695.854187012,-4490795.612335205,7454674.243927002,10751123.428344727,479327.9767036438,15496173.858642578,-21631742.477416992,1928641.7961120605,-20835077.2857666,-6532177.448272705,1800192.5945281982,2125381.2313079834,11590626.71661377,3916375.6370544434,2970219.612121582,1992541.1939620972,-3594067.096710205,-4978374.95803833,762630.9990882874,1082243.2041168213,841342.3299789429,7406338.691711426,7900435.924530029,8665196.418762207,-2480511.18850708,524690.3300285339,-719020.9031105042,1175396.44241333,8178981.781005859,12818013.191223145,5743228.912353516,921228.7664413452,7414541.721343994
0.245,2137283.0867767334,6724846.839904785,5787236.213684082,20592466.354370117,7184221.7445373535,-12295680.046081543,-11743707.656860352,-11839967.727661133,1792355.1797866821,4420513.62991333,-646912.8131866455,-9941301.345825195,-10760826.110839844,9178936.004638672,16826.685518026352,-5501513.481140137,-5471741.199493408,-5828959.941864014,-852839.2910957336,-3278614.044189453,-14198421.478271484,-9899981.498718262,9314378.73840332,5439513.206481934,1674941.4205551147,-1099324.9416351318,1581541.895866394,3164174.0798950195,6027096.271514893,-7893198.013305664,-3493276.357650757,9559847.831726074,9916153.907775879,872845.4113006592,16325597.763061523,-18446819.305419922,2319228.8875579834,-19026500.701904297,-5091051.5785217285,3178591.728210449,3250201.463699341,12482772.827148438,7290368.08013916,6455608.84475708,5954217.433929443,-1222949.1472244263,-2170183.4201812744,1634784.9369049072,2107845.3063964844,1846256.6137313843,10583822.250366211,11003582.954406738,11881834.983825684,-404728.4126281738,1415045.0229644775,325967.58008003235,1960574.5077133179,8030652.046203613,15628935.813903809,8723870.277404785,1810348.7491607666,8454599.380493164
0.25,7456299.304962158,10644120.216369629,10771401.405334473,22997354.50744629,10651861.190795898,-10273548.126220703,-9601117.134094238,-9962695.121765137,4278744.697570801,6276187.896728516,1376710.4148864746,-5716242.31338501,-6628429.889678955,14556657.791137695,2292775.1541137695,-3548127.1743774414,-4091845.5123901367,-3683094.9783325195,390760.9283924103,-1734333.0383300781,-11204326.629638672,-5385955.333709717,14549474.716186523,8415080.070495605,5224665.16494751,734551.1317253113,2243190.288543701,3173263.7882232666,7137815.475463867,-4826739.311218262,482632.66682624817,14818572.998046875,13076208.114624023,5683437.824249268,17864515.30456543,-15901816.368103027,2174517.6315307617,-17372367.85888672,-2807854.413986206,5846753.5972595215,5781013.488769531,17307535.17150879,14634895.324707031,13927902.221679688,9808281.898498535,214832.24630355835,-1341454.267501831,4640819.549560547,5443974.018096924,4899857.521057129,17760313.034057617,17939672.470092773,18805391.311645508,1035468.578338623,4415580.749511719,3678631.30569458,5037053.108215332,11234611.511230469,20747146.606445312,12866333.961486816,4861115.455627441,11775970.458984375
0.255,11830621.719360352,14197943.687438965,15153161.04888916,24410734.176635742,14266079.902648926,-7858625.411987305,-7131785.869598389,-7731707.572937012,5835502.147674561,7735919.952392578,3606899.2614746094,675442.5764083862,-110804.9526810646,19484848.022460938,2320168.972015381,-2482120.990753174,-2371851.682662964,-1005051.0168075562,447843.7900543213,-86401.3358950615,-4458495.616912842,634356.7967414856,19294282.913208008,7877476.692199707,6272645.950317383,2988753.5572052,2038252.353668213,2998910.903930664,6681806.0874938965,-285115.8380508423,5295294.284820557,19611562.728881836,12314421.653747559,5694826.602935791,14899898.529052734,-15143362.998962402,1757690.7873153687,-14041216.850280762,742433.1903457642,8453331.94732666,8621957.778930664,16076250.076293945,15688396.453857422,15064152.717590332,9604572.296142578,-1054347.9919433594,-74742.35445261002,7596216.678619385,8593123.435974121,7782107.830047607,19481803.89404297,19410858.154296875,20317161.560058594,-81231.2662601471,7435569.763183594,6860159.873962402,8199102.401733398,11549072.265625,20787208.557128906,14294728.27911377,7845726.490020752,11800016.403198242
0.26,11601632.118225098,14236430.168151855,15523026.466369629,23942449.56970215,16085769.653320312,-7082268.714904785,-6403793.811798096,-6942771.434783936,5685216.426849365,8096744.537353516,4873377.323150635,4688733.100891113,4073144.4358825684,20199674.606323242,-556198.2989311218,-3491255.760192871,-1323833.703994751,36486.23451590538,207110.4198694229,1454787.4927520752,1792963.981628418,4161354.5417785645,19932764.053344727,3795175.075531006,3047511.8160247803,3174712.1810913086,1306005.9547424316,3476530.7903289795,7215219.974517822,3794375.419616699,8468778.610229492,20328771.591186523,7425767.421722412,1001366.0192489624,11341835.021972656,-15377407.07397461,1558404.9224853516,-10774066.925048828,3983518.600463867,9957891.464233398,10409255.027770996,9358192.443847656,10352007.865905762,9798361.778259277,6885035.991668701,-3695031.8813323975,2445276.975631714,8551189.422607422,9392769.813537598,8601022.720336914,14253612.518310547,14171402.931213379,15170343.399047852,-2697284.460067749,8476142.883300781,7701231.956481934,9286489.486694336,7084559.440612793,15605630.874633789,12114401.817321777,8817003.25012207,7315156.45980835
0.265,9218452.453613281,12560626.983642578,13163827.896118164,26077604.293823242,18103641.510009766,-5700510.9786987305,-5079401.969909668,-5340512.275695801,7437279.70123291,10231124.877929688,7281399.726867676,4687077.99911499,4119174.9572753906,16996141.43371582,-642241.7759895325,-2631930.8280944824,515020.9665298462,930125.5345344543,2327718.0194854736,3707817.0776367188,3168461.799621582,3826319.932937622,16774698.257446289,2852653.2649993896,1175150.8712768555,3196344.1371917725,1757716.0596847534,4925886.154174805,10249663.352966309,5338002.2048950195,9233422.27935791,17267471.313476562,5021573.543548584,-749393.8207626343,13527207.374572754,-15767710.68572998,1692149.4007110596,-11351872.444152832,4479607.582092285,9551825.523376465,9871885.299682617,6014623.641967773,6498596.668243408,6042391.300201416,5023341.655731201,-6057521.343231201,3207167.387008667,6751191.139221191,7213344.097137451,6680887.222290039,8388264.6560668945,8578250.885009766,9555321.69342041,-5153818.607330322,6625028.610229492,5563679.6951293945,7374265.670776367,1906522.274017334,10775245.666503906,8387886.047363281,7000005.24520874,1997052.550315857
0.27,9010641.098022461,13056591.987609863,12248803.13873291,32237998.962402344,21879669.189453125,-1959966.4211273193,-1275720.9539413452,-1368553.2808303833,12449191.093444824,15075458.526611328,11704771.995544434,3884259.7007751465,3270173.5496520996,15047298.431396484,4545966.625213623,1948613.5244369507,3582379.102706909,3583214.044570923,6742235.6605529785,6450724.124908447,1083107.2330474854,3062697.8874206543,14922267.91381836,7798185.348510742,4905666.351318359,5545271.396636963,3581735.610961914,6572203.636169434,13983342.170715332,4849345.2072143555,9617234.230041504,15393269.538879395,8424661.636352539,3527740.955352783,19901395.797729492,-16173202.514648438,1915979.6237945557,-15753726.959228516,2914054.6321868896,8423951.148986816,8292577.743530273,9788580.894470215,7941221.237182617,7552845.478057861,3956942.558288574,-8129094.123840332,24066.466838121414,4025694.8471069336,4245752.811431885,3916090.0115966797,6872385.501861572,7367960.453033447,8166309.356689453,-7197948.455810547,3705778.3603668213,2610693.2163238525,4448637.008666992,495526.67140960693,9949750.900268555,5891396.999359131,4195136.547088623,-263396.56114578247
0.275,11700733.184814453,16703212.73803711,14851610.18371582,38091587.06665039,25558649.06311035,2390872.9553222656,3202809.0953826904,3038398.027420044,16888252.25830078,18814682.006835938,15223253.25012207,5530337.810516357,4878247.7378845215,18474729.537963867,10696638.107299805,6716033.935546875,5535888.671875,6696893.692016602,9841240.882873535,7718831.0623168945,-110555.38803339005,5413081.645965576,18431680.67932129,13859869.956970215,11376237.869262695,9295865.058898926,4835247.993469238,7461562.156677246,15361481.666564941,4534800.5294799805,11846082.68737793,18688169.479370117,13785463.333129883,8702661.514282227,23635692.596435547,-16579967.498779297,2007590.0554656982,-19895828.247070312,2539093.255996704,9168629.64630127,8777381.896972656,15470175.743103027,10912234.30633545,10466280.937194824,1536369.2045211792,-9950266.83807373,-4714440.34576416,3343171.3581085205,3678812.5038146973,3292801.61857605,8742561.340332031,9322188.377380371,9939344.40612793,-8800539.016723633,2874271.1544036865,1977070.0931549072,3825022.4590301514,3320807.2185516357,12151415.824890137,6201588.6306762695,3442121.2673187256,1188344.120979309
0.28,14283323.287963867,20302722.930908203,18396413.803100586,39826152.80151367,26283617.01965332,4544213.29498291,5319821.834564209,5031636.714935303,16758789.0625,17509742.736816406,14711780.548095703,7926510.810852051,7253768.9208984375,24285404.205322266,13079161.643981934,7695910.453796387,4164996.1471557617,7410695.552825928,8943422.317504883,6146334.648132324,13555.30321598053,9020179.748535156,24267766.95251465,15787692.070007324,14928009.986877441,11345483.779907227,3940450.90675354,7511908.054351807,13759197.235107422,4990252.494812012,14734685.897827148,24308048.248291016,16075231.552124023,9638750.076293945,22785205.841064453,-17032657.623291016,1950626.7309188843,-21648872.37548828,4087402.34375,11815345.764160156,11553645.133972168,17702743.530273438,11351922.035217285,10715259.552001953,-1726524.1146087646,-10431855.201721191,-7062442.302703857,4846522.331237793,5474948.883056641,4877959.728240967,10571365.356445312,11041144.371032715,11580699.920654297,-9087384.223937988,4367025.852203369,3632292.9859161377,5683009.147644043,7658906.45980835,14844371.795654297,8567827.224731445,5003226.757049561,4085026.741027832
0.285,14197853.088378906,20231676.10168457,18918085.0982666,38608463.287353516,24144840.240478516,3915372.133255005,4415292.263031006,4128533.8401794434,13149462.699890137,12675990.104675293,11386786.460876465,7136054.039001465,6434649.467468262,25614509.58251953,11878500.938415527,5585802.5550842285,786166.4295196533,5556693.077087402,5912561.893463135,3346462.9650115967,-1400117.1588897705,9132688.522338867,25558431.62536621,13688490.867614746,13879623.413085938,10529360.7711792,1784105.658531189,7363991.260528564,11665678.977966309,4926070.213317871,15007181.167602539,25635774.612426758,14580137.252807617,7330380.439758301,21646326.065063477,-17874795.91369629,1825443.7446594238,-23147623.06213379,4689143.180847168,12906328.201293945,12863838.195800781,17036746.978759766,9961900.71105957,9091750.144958496,-2756499.767303467,-9210922.241210938,-6409437.656402588,5403252.124786377,6109961.032867432,5423165.321350098,10646051.406860352,11023628.234863281,11514768.600463867,-7874555.587768555,4904881.954193115,4183000.087738037,6476089.4775390625,10570432.662963867,16357635.498046875,10201593.399047852,5704778.19442749,5468009.471893311
0.29,12254575.729370117,17030328.75061035,16652412.414550781,37207012.17651367,22425943.37463379,1881291.8663024902,2136565.685272217,1907154.7985076904,10627154.350280762,10007165.908813477,9763257.98034668,3982203.0067443848,3306409.3589782715,21340406.41784668,9460839.27154541,3768710.8516693115,-839568.6745643616,4134612.560272217,5036511.421203613,2723562.717437744,-3579936.742782593,5766225.814819336,21249366.760253906,10375935.554504395,10685286.521911621,8795816.421508789,701048.6721992493,7581727.027893066,11751004.219055176,4282686.233520508,12544793.128967285,21547527.313232422,11397179.60357666,5183232.78427124,22700380.325317383,-18844142.91381836,1690504.4317245483,-25369756.6986084,3100446.4626312256,10579026.222229004,10595189.094543457,15888461.112976074,9122604.370117188,8077281.951904297,-395871.72865867615,-7842011.451721191,-5058948.993682861,3456688.88092041,3904091.1197662354,3368337.631225586,9321539.878845215,9720385.551452637,10127785.682678223,-6620217.800140381,2814633.60786438,2065597.2957611084,4325300.693511963,10820121.765136719,15897326.469421387,9090860.366821289,3779394.3881988525,4060374.7367858887
0.295,11183700.561523438,15029607.772827148,16134094.23828125,35938453.674316406,23943571.090698242,-207376.167178154,141093.09017658234,-112738.49755525589,11803278.923034668,12790021.896362305,12278676.986694336,3860022.0680236816,3327887.2966766357,17752033.233642578,6376667.022705078,3288228.988647461,1054922.9383468628,5354856.491088867,7925137.042999268,5612104.892730713,-1817244.6489334106,4337663.173675537,17721292.49572754,6883539.67666626,7637053.0128479,8347477.912902832,1746450.424194336,8272776.6036987305,14023861.8850708,4860805.511474609,11108827.590942383,18073999.404907227,8028069.496154785,3715138.6737823486,23221828.46069336,-18566722.869873047,1576226.830482483,-24713216.78161621,2229954.957962036,7842584.133148193,7858541.488647461,14042671.203613281,9074847.221374512,7981114.387512207,2903394.4606781006,-7586661.815643311,-4327066.421508789,1733993.411064148,1896244.4067001343,1568639.874458313,7796347.141265869,8254724.502563477,8643025.398254395,-6396995.067596436,976722.1808433533,225515.4550075531,2203650.47454834,9250329.01763916,13820121.765136719,6623816.013336182,1849709.2723846436,1324736.9527816772
0.3,12055031.776428223,16868125.915527344,19770221.710205078,34202850.341796875,27883733.74938965,-1568899.7507095337,-879283.8454246521,-1194813.60912323,15210783.004760742,18325691.22314453,16515344.619750977,8511794.090270996,8145045.280456543,18988567.352294922,2650754.690170288,2496830.2249908447,4150871.2768554688,7929625.034332275,11831696.510314941,9549103.736877441,4563408.374786377,7524811.267852783,19093929.290771484,3198541.4028167725,5238624.095916748,9020038.604736328,3706898.4508514404,9149871.826171875,16251264.572143555,7004665.851593018,12664538.383483887,19190078.735351562,5279182.910919189,1693478.9419174194,21011665.34423828,-16384021.759033203,1506016.6120529175,-18635293.96057129,4158808.2313537598,8078619.956970215,8143066.40625,10846206.665039062,8919013.023376465,7926422.119140625,4164775.3715515137,-7620294.570922852,-3714524.745941162,2815480.2322387695,3004128.4561157227,2674049.139022827,7155612.945556641,7656462.1925354,8192137.718200684,-6370465.7554626465,2160692.4533843994,1347597.7182388306,3166256.1893463135,7478338.718414307,11732700.34790039,5700039.386749268,2650175.8098602295,-380793.5416698456
0.305,13433580.39855957,20120771.408081055,23963685.989379883,33630222.32055664,31020862.579345703,-1340324.5210647583,-459095.3290462494,-739743.5903549194,18177333.83178711,21734920.501708984,18602064.13269043,12409903.526306152,12058165.550231934,20721401.21459961,482828.4978866577,1014335.2746963501,5143214.225769043,9325394.630432129,13385353.088378906,11265285.49194336,9297367.095947266,10823383.331298828,20884420.39489746,857988.5363578796,3976337.432861328,9106675.148010254,4885129.451751709,9786199.569702148,16741535.186767578,8124612.808227539,14097580.909729004,20703447.341918945,4210669.040679932,-397683.322429657,18557832.717895508,-14265699.38659668,1473130.464553833,-11889732.360839844,5834056.854248047,9537014.00756836,9554104.804992676,8113826.751708984,8543153.762817383,7724180.698394775,2583645.3437805176,-7217808.246612549,-3593166.3513183594,4352530.479431152,4796226.501464844,4241841.3162231445,7165448.6656188965,7731595.993041992,8465458.869934082,-5934910.297393799,3902197.83782959,2931089.6396636963,4898309.230804443,5751014.232635498,10559992.790222168,6125068.187713623,4038145.5421447754,-897795.1407432556
0.31,14206812.858581543,21129026.412963867,24294284.82055664,36608127.59399414,31965906.143188477,1129861.3548278809,1880395.2932357788,1699254.870414734,20148601.531982422,22104402.542114258,18342222.213745117,10681635.856628418,10201859.474182129,17519945.14465332,2347857.713699341,1157182.0974349976,4236207.008361816,9579787.254333496,12923430.442810059,10928341.86553955,7907653.331756592,9513307.571411133,17548141.479492188,1808849.3347167969,4882203.578948975,8160225.868225098,5309212.684631348,10121291.160583496,16203821.182250977,6520294.189453125,12323474.884033203,17407707.21435547,5179306.0302734375,-1024341.2256240845,19208755.493164062,-14821402.549743652,1438614.6068572998,-11907893.180847168,3471201.6582489014,8206696.510314941,7985779.285430908,7699718.475341797,7882735.729217529,7141539.096832275,-955571.4130401611,-7988494.396209717,-5524327.278137207,2275306.224822998,2838015.7947540283,2119472.9804992676,6075566.76864624,6722348.213195801,7477252.960205078,-6718387.126922607,1854008.5554122925,756490.0517463684,2935287.4755859375,2805217.504501343,9057428.359985352,4494265.079498291,1957468.2712554932,-2256441.354751587
0.315,15647909.164428711,20664779.663085938,22443284.98840332,42409088.134765625,33025314.331054688,5178246.49810791,5733378.887176514,5538197.5173950195,22470577.239990234,23009613.037109375,19300893.783569336,7095088.481903076,6556317.8062438965,12604929.92401123,7268983.364105225,4485868.453979492,5037408.828735352,11143894.19555664,13795771.598815918,11966701.50756836,5031642.436981201,6562755.584716797,12390545.845031738,5457078.456878662,7743847.370147705,7929465.293884277,6511142.253875732,10768501.281738281,16725440.979003906,4787779.331207275,10053588.8671875,12531954.765319824,7110462.188720703,-277472.0788002014,22465293.884277344,-17463201.52282715,1371202.4688720703,-18595750.80871582,-792343.6760902405,4925042.152404785,4501375.675201416,8581441.879272461,6300179.958343506,5449380.874633789,-4980220.794677734,-11351321.22039795,-8960917.472839355,-2342022.8958129883,-1939148.0684280396,-2530632.734298706,3110769.748687744,3739470.0050354004,4287827.491760254,-10056747.436523438,-2921884.775161743,-3999050.6172180176,-1849215.6267166138,-1193433.0463409424,6125892.639160156,-187625.9744167328,-2638196.9451904297,-4951409.339904785
0.32,19019588.470458984,22386978.149414062,23573476.791381836,47145366.66870117,36483268.73779297,8798799.514770508,9357571.601867676,8978246.688842773,25456975.93688965,26580852.508544922,23319927.215576172,8712509.155273438,8314397.811889648,13772516.250610352,11566362.380981445,8870196.342468262,9396279.335021973,14781446.45690918,17293142.318725586,16055807.113647461,7658318.042755127,8377285.957336426,13414149.284362793,9042261.123657227,10529255.867004395,10019046.783447266,9022989.273071289,12243161.20147705,19003904.342651367,6643065.929412842,12335762.023925781,13715783.11920166,8993809.700012207,594842.6127433777,25462635.040283203,-18764629.364013672,1278066.7543411255,-23846954.345703125,-1095824.2416381836,4928418.6363220215,4593845.367431641,9064308.166503906,4201342.582702637,3174516.6778564453,-7466564.178466797,-14805548.667907715,-10271933.555603027,-3774975.7766723633,-3586437.225341797,-3892178.2970428467,625790.536403656,1086234.0927124023,1396081.4476013184,-13462454.795837402,-4438951.015472412,-5406723.499298096,-3502370.1190948486,-3030677.7954101562,3796275.1388549805,-3580427.885055542,-4080874.443054199,-6192830.562591553
0.325,22429523.468017578,26268201.82800293,27794242.85888672,47936931.61010742,40281143.18847656,10355023.384094238,10987849.235534668,10422537.803649902,27045484.54284668,29490552.90222168,27021604.537963867,14703541.75567627,14508167.266845703,21450471.878051758,13348923.683166504,10818949.699401855,14054525.375366211,17559509.27734375,20135391.235351562,20046743.392944336,14160915.37475586,14717255.592346191,21162786.48376465,10950391.76940918,11568308.83026123,13309764.862060547,11008946.418762207,13819090.843200684,21303604.125976562,11587739.944458008,18887042.999267578,21372219.08569336,11222231.8649292,1547210.0973129272,26971586.227416992,-17168992.99621582,1188861.1316680908,-22170669.555664062,3970336.675643921,10224066.734313965,10179775.23803711,10107254.028320312,3646066.427230835,2568150.758743286,-6789205.074310303,-14067930.221557617,-7105142.116546631,702804.8634529114,852538.4664535522,638853.3115386963,1822632.1935653687,2106969.8333740234,2335162.63961792,-12774390.22064209,134690.49334526062,-753483.1166267395,913652.0624160767,253903.65719795227,5359667.3011779785,-1191280.484199524,382190.7937526703,-3408786.7736816406
0.33,22626649.856567383,27780179.977416992,29472522.735595703,45796859.74121094,39948116.302490234,10200241.088867188,10693697.929382324,10124277.114868164,25247783.660888672,27142908.096313477,25767332.077026367,16804800.033569336,16651491.165161133,27539091.110229492,14236294.746398926,9921851.15814209,14390903.47290039,16409414.291381836,18521554.946899414,19549505.23376465,16264198.303222656,18489978.790283203,27465833.66394043,12118653.297424316,11438266.75415039,14872175.216674805,10339412.689208984,13988097.190856934,21659400.939941406,15454559.326171875,24097806.930541992,27575271.606445312,14330326.080322266,3509123.0869293213,27639930.725097656,-15047070.503234863,1112472.5341796875,-17100057.60192871,9547114.372253418,16491899.490356445,16648445.129394531,13548383.712768555,5781054.973602295,4792506.217956543,-3787750.482559204,-9024254.79888916,-1998775.9590148926,7292490.482330322,7532902.717590332,7096564.769744873,6366999.626159668,6658745.288848877,6918817.043304443,-7882105.350494385,6787712.574005127,5937356.472015381,7491023.540496826,6997473.239898682,10547326.08795166,5287118.911743164,6954131.126403809,1886183.500289917
0.335,19928750.99182129,24972133.63647461,26275615.692138672,43900119.78149414,35147682.189941406,10040236.473083496,10225971.221923828,9815001.487731934,21263624.19128418,20731197.357177734,20281068.801879883,11609629.63104248,11317693.710327148,27064313.888549805,16257759.094238281,8969822.883605957,10579029.083251953,12571177.48260498,13579242.706298828,14821580.88684082,11362271.308898926,16042325.973510742,27181324.005126953,14008011.817932129,11767400.741577148,13511214.256286621,7545461.654663086,12488557.815551758,20522453.30810547,15896675.109863281,24787635.803222656,27392635.345458984,17387275.69580078,6171035.7666015625,27810052.8717041,-14865030.288696289,1032516.4794921875,-14673294.067382812,11417199.13482666,19093074.798583984,19274955.74951172,18197866.439819336,8943389.892578125,8048278.80859375,-1326200.9620666504,-4402413.368225098,761409.1038703918,11063686.37084961,11369937.896728516,10676242.82836914,10470183.372497559,10954425.811767578,11177989.959716797,-3331345.0813293457,10435383.796691895,9622676.849365234,11174551.963806152,12234491.348266602,15242328.643798828,9978358.268737793,10684677.124023438,5928986.549377441
0.34,18164354.32434082,21938714.9810791,23338081.35986328,43681221.00830078,31107549.6673584,10381761.55090332,10419440.269470215,10162442.207336426,18412708.282470703,16549551.010131836,16367015.838623047,5836139.678955078,5402208.32824707,24309535.98022461,18449676.513671875,9515995.025634766,7244010.925292969,10188070.297241211,10274427.41394043,10710162.162780762,6257917.881011963,11926012.992858887,24484615.325927734,16128732.681274414,12524446.487426758,11158430.099487305,5341351.03225708,11050014.49584961,20039506.912231445,14513939.85748291,23605792.999267578,24844692.23022461,18713132.858276367,7677811.622619629,27275539.39819336,-15561839.10369873,953710.9732627869,-14839733.123779297,10788892.74597168,18484540.939331055,18665164.947509766,20520009.994506836,10678804.397583008,9832278.25164795,-830623.0306625366,-3669884.9201202393,752014.4581794739,11659325.59967041,12002904.891967773,11332302.09350586,11562631.607055664,12232584.953308105,12307908.058166504,-2477287.769317627,10913885.116577148,10100661.277770996,11758372.30682373,13296485.900878906,16511709.213256836,10237866.401672363,11257287.979125977,7315722.942352295
0.345,19020910.263061523,22524824.142456055,25242231.369018555,43682163.23852539,31895458.221435547,9664972.305297852,9826853.75213623,9610258.102416992,17971054.077148438,17829406.73828125,17595273.971557617,6342053.8902282715,5892066.478729248,24672739.028930664,17994691.848754883,9631873.13079834,6967923.164367676,10753922.462463379,10990407.943725586,10554327.964782715,7029015.54107666,11354804.992675781,24789373.39782715,16352624.893188477,11746792.793273926,10190236.09161377,5073975.563049316,11370124.816894531,20915153.50341797,13560622.215270996,23687940.59753418,25072612.762451172,17767364.501953125,6782772.064208984,26458059.310913086,-14887851.71508789,908843.7557220459,-13531847.00012207,10801792.14477539,17687307.357788086,17927577.97241211,19204540.252685547,10666203.498840332,9902274.131774902,-753897.8457450867,-5070733.070373535,1178463.4590148926,11779918.670654297,12213407.516479492,11770891.189575195,10875953.674316406,11568797.11151123,11550285.339355469,-3712440.013885498,11162281.036376953,10258546.829223633,12088928.22265625,12160717.964172363,15730401.992797852,8892309.188842773,11435926.43737793,7652328.4912109375
0.35,19998241.424560547,24628669.73876953,28782007.217407227,42764350.89111328,35281433.10546875,7230675.69732666,7535583.019256592,7282194.6144104,18359083.17565918,21137096.405029297,21339662.551879883,10410110.473632812,10016700.744628906,26282436.37084961,14612112.045288086,7510253.90625,7494280.815124512,11719190.59753418,13098053.932189941,12521127.700805664,10795347.213745117,12757585.525512695,26304075.241088867,13734070.777893066,8538505.554199219,10563456.535339355,5287834.644317627,13069008.827209473,21445001.60217285,13179114.34173584,23906724.92980957,26338050.842285156,15524159.43145752,4238388.0615234375,26158607.482910156,-13574490.547180176,915468.3351516724,-10585520.74432373,11528596.878051758,17307304.38232422,17572246.551513672,16710180.282592773,10228094.100952148,9580237.38861084,502072.7515220642,-5143860.816955566,3402909.517288208,12574382.781982422,13109580.993652344,12749823.570251465,10696398.735046387,11292329.788208008,11375080.108642578,-3786794.424057007,12211769.104003906,11210075.378417969,13120116.233825684,12037160.873413086,15713662.147521973,9178442.95501709,12352895.736694336,8273947.715759277
0.355,19672248.84033203,24679042.81616211,28463834.762573242,43239120.48339844,36934494.01855469,6229244.232177734,6490673.542022705,6220888.137817383,19017004.013061523,22563089.37072754,23516365.05126953,10782727.241516113,10397683.143615723,24337091.44592285,12553681.373596191,5616577.1484375,6795003.414154053,11342409.133911133,13770596.504211426,13073815.34576416,10974620.819091797,11405136.108398438,24277019.500732422,10791750.90789795,5664752.006530762,10954300.880432129,4703750.133514404,14563257.217407227,20080596.923828125,12501274.108886719,21710456.84814453,24220287.322998047,13747233.390808105,2191372.1561431885,26714820.861816406,-14126578.330993652,952134.370803833,-10348287.582397461,10767228.126525879,15818229.675292969,15960042.953491211,16133161.544799805,10065127.3727417,9421898.84185791,1930914.7596359253,-3609058.141708374,4699992.656707764,12984996.795654297,13524073.600769043,12987449.645996094,11247023.582458496,11776962.280273438,12042731.285095215,-2381597.9957580566,12703436.851501465,11733106.61315918,13521201.133728027,13754586.219787598,16894598.00720215,10677453.04107666,12885532.37915039,8830632.209777832
0.36,21164234.161376953,24489944.458007812,25830596.923828125,48472190.856933594,37239192.962646484,10802381.51550293,10967346.19140625,10746317.863464355,22106153.48815918,23570775.985717773,24315225.60119629,7002363.204956055,6556699.752807617,20108552.932739258,16642942.428588867,8370696.067810059,7354821.681976318,11874893.188476562,14193956.37512207,12125461.57836914,7147830.486297607,7531229.9728393555,19993087.768554688,11857044.219970703,7503369.331359863,11609136.581420898,4841439.723968506,15367536.544799805,17818761.825561523,11638813.972473145,18123767.852783203,20124551.77307129,14372364.99786377,2691924.0951538086,28286251.068115234,-16148981.094360352,1014395.7138061523,-14217507.362365723,8212681.770324707,13369694.709777832,13273133.277893066,18306818.00842285,10134713.172912598,9316633.224487305,1922125.220298767,-2579216.241836548,2596161.8423461914,12549675.941467285,13026649.475097656,12350102.424621582,11706983.56628418,12259356.498718262,12546999.93133545,-1369973.4210968018,12170864.10522461,11324278.831481934,12923666.954040527,16235683.44116211,17994005.20324707,11541593.551635742,12568084.716796875,9231373.78692627
0.365,26667110.443115234,28037988.662719727,26993841.17126465,56777671.813964844,39689266.204833984,19503936.767578125,19705823.89831543,19553588.8671875,28076948.165893555,27032032.012939453,26219034.19494629,5532643.795013428,5041060.447692871,19590461.73095703,25781515.12145996,15362669.944763184,11817782.402038574,15460088.729858398,16618957.51953125,12524348.258972168,5168730.25894165,6193973.541259766,19483472.82409668,17831645.965576172,14343084.335327148,13608494.758605957,7526936.054229736,16198461.532592773,16972888.946533203,11499727.249145508,16830108.642578125,19794260.025024414,18118314.743041992,5929303.169250488,30780105.590820312,-16251791.000366211,1143764.3766403198,-17434000.01525879,6390856.742858887,12277914.047241211,11986662.864685059,21971351.623535156,10799304.008483887,9774862.289428711,1180110.0969314575,-2858109.951019287,-946768.045425415,12371501.922607422,12877014.16015625,12368579.864501953,12435253.143310547,13009557.723999023,13104095.458984375,-1449127.5548934937,12009073.257446289,11191962.242126465,12747681.617736816,18486780.166625977,18683685.302734375,11995352.745056152,12536200.523376465,10463743.209838867
0.37,31585147.857666016,33167938.232421875,32160633.087158203,60816566.467285156,43708995.8190918,24649877.548217773,24916109.085083008,24758850.09765625,32258666.9921875,30508186.34033203,28463613.510131836,9286307.334899902,8817417.14477539,23991500.854492188,32349540.71044922,19997489.92919922,16908336.639404297,19359964.37072754,19567749.0234375,15239964.485168457,8543359.756469727,9535098.0758667,24003402.709960938,23611921.310424805,20294122.69592285,15811449.05090332,10985434.532165527,17071205.139160156,18232397.079467773,12479804.039001465,18903064.727783203,24215297.69897461,22785444.259643555,9389165.878295898,32882190.704345703,-13157434.463500977,1345032.3343276978,-15644639.96887207,7408512.115478516,13542603.492736816,13252365.112304688,25160099.029541016,12293230.056762695,11217555.99975586,1385301.113128662,-3620091.438293457,-1895013.928413391,13128885.269165039,13787598.609924316,13589087.48626709,14105920.791625977,14616309.16595459,14495670.318603516,-1961856.6036224365,12986323.356628418,12061248.779296875,13692202.5680542,19626615.524291992,19372436.5234375,13225401.878356934,13417471.885681152,12349223.136901855
0.375,29463655.471801758,33038120.26977539,34310501.09863281,55900196.07543945,44162109.375,20867181.7779541,21017063.14086914,20739387.51220703,29793270.111083984,28856939.3157959,27614000.32043457,12945726.39465332,12505099.296569824,27050966.262817383,30084394.454956055,16970590.591430664,16674165.725708008,19097307.205200195,19484086.990356445,17515386.5814209,13658785.820007324,13159333.229064941,27236032.485961914,23091764.450073242,19162981.033325195,15436241.149902344,11359663.009643555,16832349.77722168,19947866.439819336,13913340.56854248,20981971.740722656,27250881.19506836,24282558.44116211,9788906.09741211,32679668.426513672,-9932950.019836426,1525111.436843872,-11322443.962097168,10176381.11114502,14852540.969848633,14753657.341003418,26047246.9329834,13412592.887878418,12439500.80871582,2025677.6809692383,-4702533.24508667,422903.3291339874,13647514.343261719,14406126.022338867,14295664.78729248,15555430.41229248,15967105.865478516,15768013.000488281,-2971999.6452331543,13630546.569824219,12655803.680419922,14263339.99633789,18371965.408325195,19262098.31237793,14217552.185058594,13929929.733276367,12426683.42590332
0.38,22094167.709350586,26760398.864746094,29727800.369262695,47361667.63305664,39280326.84326172,12606795.310974121,12536309.242248535,12108561.515808105,23072807.31201172,22875087.73803711,23568859.100341797,10706417.083740234,10201670.64666748,23538244.247436523,22067350.387573242,9470925.331115723,11270793.914794922,15400534.629821777,16418470.38269043,16520277.02331543,14482835.76965332,11653922.080993652,23794313.430786133,17127447.1282959,12269288.063049316,12407508.850097656,8212089.538574219,15010778.427124023,20180515.28930664,14374781.608581543,19464632.034301758,23905202.865600586,21299276.35192871,7050710.678100586,30445428.8482666,-9733896.255493164,1592358.4699630737,-10410410.88104248,11462615.966796875,13285969.734191895,13374774.932861328,24414924.62158203,12863873.481750488,11999382.019042969,1346588.0155563354,-6349036.21673584,2629510.6410980225,12363503.456115723,13018137.93182373,12735070.22857666,15066714.2868042,15470739.364624023,15240367.889404297,-4758406.639099121,12150330.543518066,11319957.733154297,12754192.352294922,14773702.621459961,17358991.622924805,12761409.759521484,12519021.034240723,9262903.213500977
0.385,18629240.036010742,22152610.778808594,23935321.807861328,45102375.03051758,34369342.80395508,9227554.321289062,9103439.331054688,8627562.522888184,19674127.57873535,19597530.364990234,20793001.174926758,4544327.259063721,3909636.4974975586,16610456.466674805,17629993.438720703,5630012.512207031,7415781.497955322,13685056.686401367,14426308.631896973,13171496.391296387,10033353.805541992,5561501.026153564,16771146.774291992,13229005.813598633,7373040.199279785,10372509.956359863,5567226.409912109,12829043.3883667,18645219.802856445,12840015.411376953,15141005.516052246,17274797.439575195,17624439.239501953,4935476.303100586,29068212.509155273,-11484310.150146484,1569421.0529327393,-14034162.521362305,9574007.034301758,9173797.607421875,9269321.44165039,22524789.810180664,11669680.59539795,10830554.962158203,-12076.781131327152,-7125750.541687012,2164987.564086914,9688481.330871582,10128423.690795898,9713491.439819336,13522743.225097656,14036314.964294434,13652756.690979004,-5753169.536590576,9183666.229248047,8542671.203613281,9851248.741149902,11660539.627075195,15111589.431762695,9568387.985229492,9753925.323486328,5574287.414550781
0.39,22928142.547607422,24632001.876831055,23477016.44897461,50545337.67700195,34405529.0222168,12925290.10772705,12939278.602600098,12516483.306884766,22163518.90563965,22395036.697387695,21969652.17590332,1257413.625717163,598822.7725028992,13618250.846862793,20700445.1751709,8049106.597900391,8886694.90814209,16002084.732055664,15702057.838439941,10972834.587097168,5613664.150238037,802720.1294898987,13649487.495422363,15650938.987731934,8756318.092346191,11604478.83605957,6258226.8714904785,11604106.903076172,16680078.506469727,10354357.719421387,12414261.817932129,14394572.257995605,17393560.4095459,5992567.539215088,29982849.12109375,-11937698.364257812,1530230.164527893,-17223007.202148438,6605328.559875488,5971993.446350098,5962161.064147949,22666439.056396484,11919952.392578125,11067484.855651855,370823.05550575256,-5121508.598327637,721663.4750366211,8029826.1642456055,8348363.876342773,8001514.434814453,13644121.170043945,14259348.86932373,13649188.995361328,-3912920.2365875244,7501407.146453857,6894388.675689697,8244644.1650390625,12007175.44555664,15205656.051635742,8472624.778747559,8142479.89654541,5512015.342712402
0.395,27315658.569335938,28589864.73083496,26095289.23034668,54038070.67871094,36391960.14404297,15945520.401000977,16003383.63647461,15571586.608886719,24404817.581176758,25715959.548950195,23691064.834594727,3126086.473464966,2660638.3323669434,16370841.979980469,24783395.767211914,10472724.914550781,11113078.117370605,17599777.221679688,17440889.358520508,11546508.7890625,6504088.401794434,1391632.9145431519,16386955.261230469,19105432.510375977,11412681.579589844,13004599.571228027,7737714.767456055,11031730.651855469,15668970.108032227,9571457.862854004,13779722.213745117,16926540.37475586,19011590.9576416,7259903.907775879,30291957.85522461,-10706001.281738281,1479737.401008606,-16128171.920776367,6136397.838592529,5925112.724304199,5904100.8949279785,23566226.959228516,12944593.42956543,12133708.000183105,2184441.328048706,-1484699.9645233154,1653210.6399536133,8983756.065368652,9316136.360168457,9045143.127441406,15548992.156982422,16136119.842529297,15475716.590881348,-327458.2326412201,8667699.813842773,8008910.179138184,9413176.536560059,14836745.262145996,17201738.357543945,11233768.463134766,9183979.988098145,8981134.414672852
0.4,23063795.08972168,25250120.162963867,24401695.251464844,47845214.84375,33731456.7565918,11470954.895019531,11323579.788208008,10708806.991577148,20480453.491210938,23107307.43408203,21288114.547729492,5475517.749786377,5282958.507537842,19265525.817871094,22084251.403808594,6724165.439605713,8353570.938110352,13962905.883789062,16249589.920043945,12817577.362060547,11493166.92352295,4659805.774688721,19335519.790649414,16012742.99621582,8149841.30859375,10290091.514587402,5988331.7947387695,10069430.351257324,15554167.747497559,11278460.502624512,16393396.377563477,19495170.59326172,17272230.14831543,4035491.466522217,26726306.915283203,-10456122.398376465,1391247.7493286133,-13201729.774475098,8515095.710754395,7093888.282775879,7165613.174438477,21735429.763793945,11633222.579956055,10944993.019104004,2013092.9946899414,-1929.5181846246123,5066102.027893066,11118063.926696777,11461296.081542969,11092453.956604004,15930322.647094727,16397581.100463867,16000881.19506836,1223408.4606170654,10890112.87689209,10302577.97241211,11608222.007751465,16131702.423095703,17419910.430908203,14580855.369567871,11296207.427978516,11400985.717773438
0.405,13138157.844543457,16086881.637573242,17459838.8671875,37355407.71484375,26617792.1295166,3213579.1778564453,2850864.4104003906,1991445.4221725464,13528438.568115234,16785997.39074707,15899105.072021484,3711769.5808410645,3609975.0995635986,17377107.620239258,14543085.098266602,-215395.91252803802,2676940.441131592,8060074.806213379,13237881.660461426,12070630.073547363,14116625.785827637,4980838.298797607,17440986.63330078,7752237.796783447,208732.88810253143,4960495.948791504,1887871.3846206665,8878926.277160645,14990401.268005371,12582202.911376953,15668543.815612793,17507913.58947754,11590860.366821289,-2628686.9049072266,21485771.17919922,-12309299.46899414,1311484.932899475,-13320463.180541992,10139493.942260742,6118068.218231201,6181181.43081665,17201017.379760742,7592113.971710205,7009221.55380249,-1245597.3625183105,-2126098.6328125,7326069.355010986,11606013.298034668,11895949.363708496,11389315.605163574,13062834.739685059,13468882.56072998,13480768.203735352,-762016.4155960083,11205113.410949707,10790690.422058105,11949805.25970459,14215281.48651123,14420505.52368164,14435575.485229492,11680982.58972168,9917902.946472168
0.41,8811115.264892578,12093190.19317627,13256028.175354004,34500171.66137695,22988851.54724121,313345.1044559479,18378.784880042076,-937607.9440116882,11538138.389587402,14538099.28894043,13354487.419128418,-210852.20575332642,-478267.69948005676,13431761.741638184,11121063.232421875,-2046195.2686309814,1004235.5060577393,6704305.171966553,12233997.344970703,9752140.998840332,10826934.814453125,1570922.7323532104,13458334.922790527,3341872.9305267334,-3924608.9458465576,3085658.550262451,271043.21122169495,8673062.324523926,13322628.021240234,10830101.96685791,12020753.860473633,13750873.565673828,8002082.824707031,-6030350.685119629,20604284.286499023,-13774696.350097656,1312013.1492614746,-16850267.41027832,8788855.55267334,3557868.9575195312,3461501.359939575,15008054.733276367,5153604.507446289,4509285.926818848,-3702527.5230407715,-4513416.290283203,5949751.853942871,10303089.141845703,10614066.123962402,10139140.129089355,10361534.118652344,10837729.454040527,11094237.327575684,-3048636.1980438232,9735564.231872559,9369039.535522461,10539738.655090332,12166522.979736328,12059179.306030273,11893796.920776367,10370252.60925293,7550053.119659424
0.415,15055850.982666016,19902809.143066406,18847093.58215332,42529865.26489258,28417625.427246094,5245310.306549072,5212300.3005981445,4357439.041137695,16508134.841918945,18905323.028564453,16624969.482421875,-331779.03294563293,-822466.3734436035,14442289.352416992,15465132.713317871,3394068.956375122,4987127.304077148,11273731.231689453,14302754.402160645,8949096.6796875,5821950.912475586,81690.40828943253,14524408.340454102,7191733.360290527,-50949.90134239197,6879617.691040039,3022909.8796844482,9802418.70880127,12111606.59790039,8193284.98840332,11316864.013671875,14981424.331665039,11126952.171325684,-2417001.0089874268,26158760.07080078,-12295584.678649902,1381553.4114837646,-19446981.43005371,7490590.572357178,4023059.368133545,3850279.5696258545,18858512.87841797,7908441.543579102,7046404.3617248535,-1716048.7174987793,-3193799.0188598633,3270061.492919922,10551077.842712402,11077678.680419922,10746534.34753418,12307415.962219238,12893179.893493652,13090625.762939453,-1748937.1299743652,10064261.436462402,9577457.427978516,10883408.546447754,13653531.074523926,14632136.344909668,12118165.016174316,10773679.733276367,9192701.33972168
0.42,24695287.704467773,33728420.25756836,31628646.850585938,52708976.74560547,38975406.646728516,11326709.747314453,11393047.332763672,10702648.162841797,22268920.8984375,24261362.075805664,22327594.757080078,5415654.65927124,4849371.433258057,22292873.38256836,21276046.752929688,9048186.302185059,8752833.366394043,16024900.436401367,16615791.320800781,11209417.343139648,5567978.382110596,5033190.727233887,22482570.64819336,13272727.966308594,6012341.499328613,11102893.829345703,6335397.243499756,11041299.819946289,13549742.698669434,9063281.059265137,16972026.824951172,22818099.975585938,17130550.384521484,3600147.7241516113,32965682.983398438,-9154710.76965332,1491301.7749786377,-18298759.46044922,10119840.621948242,9599809.646606445,9570090.293884277,25104148.864746094,12935731.887817383,11956274.98626709,2382863.2831573486,1177747.7264404297,3562721.4908599854,14390139.57977295,15190313.339233398,14909788.131713867,17644737.243652344,18234937.66784668,18224494.93408203,2522568.941116333,14106248.85559082,13551371.574401855,14900909.423828125,17597417.8314209,20263364.791870117,16810268.40209961,14765217.781066895,14497519.493103027
0.425,27960149.76501465,42735881.80541992,42295848.84643555,55948993.68286133,46105781.55517578,11854596.138000488,11720321.655273438,11143961.906433105,22967416.763305664,24911668.77746582,25288825.98876953,12238745.68939209,11732318.878173828,30610355.377197266,21031661.987304688,7865856.647491455,7041811.943054199,15756048.202514648,16623428.344726562,14353944.778442383,10076077.461242676,12908575.057983398,30775621.41418457,13427614.212036133,6064911.842346191,9642415.046691895,5853018.283843994,11085771.560668945,17179424.285888672,13138259.887695312,24209524.154663086,30897567.749023438,18034008.026123047,4492673.873901367,34353561.40136719,-8158115.386962891,1693600.058555603,-15778762.817382812,14613144.874572754,15556060.791015625,15656163.215637207,26266624.450683594,13575658.798217773,12809219.360351562,2951714.515686035,4077489.3760681152,7102642.059326172,18502132.415771484,19365989.685058594,19019018.173217773,19821081.161499023,20277015.686035156,20200788.497924805,5354694.843292236,18281011.5814209,17814685.821533203,19089216.232299805,18910449.981689453,22300603.86657715,20830358.505249023,18813873.291015625,17537776.947021484
0.43,23299400.329589844,42569568.6340332,44405258.17871094,52325889.587402344,45953315.73486328,7315595.626831055,6932466.03012085,6433626.651763916,19522193.908691406,21792203.903198242,24176544.189453125,14084036.827087402,13649075.508117676,32030086.517333984,14989755.630493164,1203209.0425491333,1479217.767715454,11661533.35571289,15036673.545837402,15189372.062683105,13182211.875915527,15890514.373779297,32015293.12133789,7363422.870635986,-577858.2096099854,3142345.428466797,2090922.8324890137,10036403.65600586,19575252.532958984,14990209.579467773,25454881.66809082,32100982.666015625,11671429.634094238,-1234816.7896270752,29364801.40686035,-10844313.621520996,1982329.8454284668,-15884410.858154297,14781061.172485352,15416812.896728516,15367302.894592285,20051124.572753906,7662236.213684082,7292478.561401367,-1389515.995979309,2626845.121383667,9429771.423339844,17571226.119995117,18228288.650512695,17841487.884521484,14901844.024658203,15194374.084472656,15334827.423095703,3893764.9726867676,17252176.28479004,16833784.103393555,18137964.248657227,14464599.609375,17376392.364501953,18495286.94152832,17613529.205322266,14061615.943908691
0.435,16708498.001098633,37302032.470703125,39214397.43041992,47899402.6184082,41587337.493896484,2749240.3984069824,2357216.5966033936,1935038.2089614868,16592853.546142578,19437557.220458984,21483570.098876953,10386152.267456055,9994687.0803833,26446300.506591797,9480319.023132324,-3966050.386428833,-2651781.0821533203,8442407.608032227,14049568.176269531,13386189.460754395,11146739.959716797,11604550.3616333,26303276.06201172,1528509.6168518066,-7394590.377807617,-2276986.3605499268,-950912.2967720032,9046140.670776367,18295450.21057129,11671574.592590332,20124458.31298828,26507871.627807617,4220036.506652832,-7842206.001281738,23058065.41442871,-14632748.6038208,2127383.7089538574,-19081573.486328125,9172027.587890625,9256393.432617188,8898515.701293945,12297818.183898926,473381.01267814636,271973.3417034149,-5902219.772338867,-1260046.9589233398,7302917.003631592,11458980.560302734,11870102.882385254,11507355.690002441,6832671.642303467,7076060.2951049805,7536155.700683594,-35875.26082992554,11067931.175231934,10500178.337097168,12034661.293029785,7160137.176513672,9721277.236938477,11485198.020935059,11266644.477844238,7015670.299530029
0.44,13617254.257202148,32686359.405517578,32548164.36767578,46295295.71533203,37745658.87451172,1247068.6435699463,1052361.249923706,678903.5201072693,16314086.9140625,19407079.696655273,19636009.216308594,5951534.271240234,5595049.858093262,20408920.288085938,8848833.084106445,-3808009.8628997803,-2977420.3300476074,8212954.521179199,14206227.30255127,11348957.061767578,7270867.347717285,5806019.7830200195,20323673.248291016,590154.2901992798,-8994533.53881836,-2546134.9487304688,-1114883.0652236938,8832617.75970459,15030547.142028809,7256894.588470459,15247739.791870117,20595008.850097656,2659909.48677063,-9381331.443786621,20779735.565185547,-15965371.131896973,1888917.9229736328,-22167043.685913086,3960546.4935302734,3922100.782394409,3425288.677215576,10268264.770507812,-1264744.0433502197,-1687780.6186676025,-5683343.410491943,-3287832.9753875732,3396032.5717926025,6358759.880065918,6732485.771179199,6351243.019104004,3217481.851577759,3565260.410308838,4111372.470855713,-2192989.5877838135,6031249.523162842,5287530.899047852,7002905.368804932,3551216.1254882812,6479954.242706299,7652026.653289795,6187074.184417725,3421633.005142212
0.445,14504102.70690918,30757175.44555664,28935791.015625,46603736.877441406,36271434.78393555,2298709.1541290283,2249408.006668091,1866636.037826538,17317855.834960938,19595081.329345703,18943120.9564209,4893934.24987793,4521368.980407715,19265882.49206543,12114640.235900879,-470214.3371105194,-1099278.3308029175,9397983.55102539,14273205.757141113,10703336.715698242,6471752.166748047,4613097.667694092,19302095.413208008,3541999.578475952,-5930140.972137451,839660.108089447,114559.13633108139,8951252.937316895,13296610.832214355,7143081.6650390625,16023813.247680664,19508266.44897461,7359022.617340088,-5621898.174285889,23497865.676879883,-14155076.98059082,1408409.3570709229,-22610403.060913086,4819339.275360107,4634957.790374756,4225061.416625977,14987448.692321777,3493185.043334961,2753875.0171661377,-1111199.0213394165,-1408933.6395263672,2848813.772201538,7541278.839111328,8092658.996582031,7618317.127227783,6923371.315002441,7426435.947418213,7700874.328613281,-452674.9849319458,7378489.017486572,6655041.217803955,8230406.761169434,7398854.732513428,10110615.730285645,11708581.924438477,7632461.071014404,6574637.889862061
0.45,16585222.244262695,30037624.35913086,28482164.38293457,46755542.75512695,36123836.517333984,4053614.616394043,3980883.836746216,3553337.335586548,17881870.26977539,18481992.721557617,18601436.614990234,6500261.7835998535,6019393.444061279,21985645.294189453,15712011.337280273,2167129.0397644043,711747.7655410767,10075189.590454102,13416511.535644531,10570722.579956055,8711921.691894531,7323710.4415893555,22039266.58630371,6792289.257049561,-2219988.5845184326,4018503.6659240723,487897.9027271271,8462416.648864746,13804954.528808594,10461977.005004883,19665992.736816406,22150297.164916992,12830152.51159668,-1176514.6255493164,27880193.71032715,-11504176.139831543,1111665.0104522705,-21312211.990356445,9413172.721862793,9152978.897094727,8826106.071472168,21033905.029296875,9713945.388793945,8908095.359802246,3351311.206817627,2293713.092803955,6353802.20413208,12963768.005371094,13722444.534301758,13188078.880310059,13367963.790893555,13932351.112365723,13820218.086242676,3198157.548904419,13016916.275024414,12408809.661865234,13643284.797668457,15422772.407531738,16364267.349243164,19491638.18359375,13354558.944702148,12715744.972229004
0.455,16806570.053100586,28236358.642578125,27992641.44897461,45617012.02392578,35426784.51538086,4791136.264801025,4652596.950531006,4183097.8393554688,17533401.489257812,17061885.833740234,18019821.166992188,7306129.455566406,6712978.363037109,23845575.3326416,16851270.67565918,2382963.180541992,1284580.111503601,10041794.776916504,12268866.539001465,9646301.26953125,10390727.043151855,8903430.938720703,23818300.247192383,7944656.3720703125,-963167.4289703369,4725964.546203613,-336996.28710746765,7163488.864898682,14175073.623657227,11627231.59790039,20380607.60498047,23912239.07470703,14117741.584777832,-406503.26013565063,29755189.895629883,-10333261.489868164,1148814.2013549805,-20908271.78955078,11240747.451782227,11551294.326782227,11194812.774658203,22763984.68017578,11920160.293579102,11268653.869628906,4246668.338775635,4106354.236602783,9560171.127319336,16091522.216796875,16918222.427368164,16438415.52734375,16038845.06225586,16524997.71118164,16251880.645751953,5022930.62210083,16354732.513427734,15700413.703918457,16776422.500610352,20073101.043701172,19248220.443725586,22920991.897583008,16621383.666992188,15599781.99005127
0.46,14046750.06866455,24665830.612182617,25202722.549438477,42996665.954589844,33394489.288330078,3595230.5793762207,3470349.3118286133,2987616.539001465,16486730.575561523,16765640.258789062,17255018.23425293,6042250.633239746,5460352.420806885,22650291.442871094,15078470.230102539,699975.311756134,100302.67387628555,9930626.86920166,11978530.883789062,8630663.871765137,10331573.486328125,7557489.395141602,22527751.922607422,6911980.152130127,-2481292.724609375,2911297.082901001,-1319585.680961609,6066106.31942749,13213027.000427246,8577574.729919434,17586278.915405273,22684759.14001465,11249042.510986328,-3533198.356628418,27777219.772338867,-10757552.146911621,1205658.4358215332,-22240774.154663086,8879545.211791992,9837402.34375,9481535.911560059,19719022.750854492,9359291.076660156,8821780.20477295,2113002.7770996094,2836764.8124694824,9491831.77947998,14193509.101867676,14919637.680053711,14566230.773925781,13491863.250732422,13852331.161499023,13708706.855773926,3745186.0904693604,14530587.196350098,13697233.200073242,14934200.286865234,17466960.906982422,17209270.477294922,19330183.029174805,14654754.638671875,13411245.346069336
0.465,10528015.13671875,21321451.18713379,21945192.337036133,40301811.21826172,31388597.48840332,1833722.472190857,1730925.0831604004,1295285.3441238403,15605028.15246582,17673612.594604492,17034183.502197266,4916498.184204102,4449598.31237793,20765861.51123047,12834401.13067627,-920481.0857772827,-2212939.0239715576,10244884.490966797,12930777.549743652,9348566.055297852,10817374.229431152,6378407.4783325195,20557556.15234375,5722296.237945557,-4595040.321350098,103811.42050027847,-1727364.5401000977,6429863.929748535,12829463.958740234,5466933.250427246,15770056.72454834,20779458.99963379,8230568.885803223,-6790221.214294434,24474033.35571289,-11236628.532409668,1021698.1172561646,-23500116.3482666,7126459.121704102,7515573.501586914,7281193.256378174,16358646.392822266,6087785.720825195,5527786.731719971,146015.79308509827,1002687.2158050537,8305864.334106445,11307443.618774414,11874304.77142334,11623388.290405273,10234650.611877441,10541619.300842285,10595599.174499512,1880493.402481079,11497982.025146484,10642922.401428223,12083582.878112793,11991477.012634277,14244121.551513672,13861426.35345459,11595657.348632812,10266381.26373291
0.47,10276995.658874512,21154430.389404297,21970556.259155273,40346317.291259766,31685533.52355957,2750623.4645843506,2569192.409515381,2237151.861190796,16384132.385253906,19125284.19494629,18137460.708618164,5948271.751403809,5576478.481292725,21144742.965698242,13794949.531555176,143999.77028369904,-3256763.458251953,11423323.631286621,14436576.843261719,11898241.04309082,12982242.584228516,7774370.193481445,20899456.024169922,7072607.99407959,-4340389.728546143,-964052.8559684753,-1611452.4602890015,8155926.704406738,14465688.705444336,6308099.746704102,17350925.44555664,21094762.802124023,8645865.440368652,-6200869.083404541,23490650.177001953,-10558251.38092041,795522.7494239807,-22994602.20336914,9226661.682128906,8178603.172302246,8044307.708740234,17126091.00341797,6470707.893371582,5868018.627166748,698261.6186141968,1391460.2994918823,9062926.292419434,12368273.735046387,12872109.413146973,12620216.369628906,11115553.855895996,11453803.062438965,11584347.72491455,2282821.1784362793,12321526.527404785,11692994.117736816,13094085.693359375,11176445.007324219,14981101.989746094,12675623.893737793,12533998.489379883,10847211.837768555
0.475,14405757.904052734,24297857.2845459,25369300.842285156,44319114.685058594,34183811.18774414,7631397.724151611,7344211.101531982,7068697.929382324,19307796.478271484,20607454.299926758,20088233.947753906,7519735.336303711,7189713.954925537,22845739.364624023,18825778.96118164,4925902.843475342,-963555.9916496277,13513805.389404297,15336939.811706543,13945769.309997559,14220080.375671387,9441867.82836914,22716672.897338867,11402254.104614258,-805816.113948822,1803085.207939148,-1307152.1520614624,9536552.429199219,15817425.727844238,9119630.813598633,19258918.76220703,22775844.57397461,12404847.145080566,-1585714.6978378296,25680976.86767578,-9003351.211547852,825175.2853393555,-21896190.643310547,12087326.049804688,10841334.342956543,10638894.081115723,22002546.310424805,10674462.31842041,10075634.956359863,3019098.997116089,3121777.296066284,10449067.115783691,16545557.022094727,17115442.276000977,16736700.057983398,15895028.114318848,16260683.059692383,16369260.787963867,4081105.7090759277,16390079.498291016,15971148.490905762,17167234.420776367,16343185.424804688,19241641.998291016,15916706.085205078,16718276.977539062,14712644.577026367
0.48,19045034.408569336,27194961.547851562,27502687.454223633,49681610.107421875,35672798.15673828,13393593.788146973,13131443.02368164,12763955.116271973,22631048.20251465,21714921.951293945,21194211.959838867,6263193.130493164,5964701.6525268555,22166170.120239258,24414113.998413086,10961644.172668457,3325020.3132629395,15587152.481079102,15114121.437072754,13462980.270385742,11579676.628112793,7723571.77734375,22302492.141723633,15802582.740783691,3535449.981689453,7049614.906311035,-1060901.9994735718,9177814.483642578,13729761.123657227,8935271.263122559,17675792.694091797,22236541.748046875,16593666.076660156,3452317.953109741,28641361.236572266,-7971155.643463135,1005948.7819671631,-22913555.145263672,11088163.375854492,11810752.868652344,11450897.216796875,27113742.82836914,14889778.137207031,14278548.240661621,4382536.888122559,2755064.2490386963,8757811.546325684,18674648.28491211,19270488.739013672,18757286.071777344,20132188.79699707,20461872.100830078,20544914.24560547,3787014.2459869385,18551019.6685791,18090215.6829834,19189689.63623047,21470846.17614746,22630706.787109375,18839883.80432129,18912982.940673828,17470766.067504883
0.485,19978532.791137695,26946914.672851562,25211462.020874023,52706661.224365234,34063537.59765625,15865558.624267578,15720394.134521484,15205919.26574707,24121185.302734375,22252908.70666504,20758003.23486328,2324452.4002075195,1998649.4779586792,18402029.037475586,26633661.2701416,14335019.1116333,5652616.024017334,16457138.061523438,14577713.012695312,11497035.026550293,6521628.379821777,3598982.095718384,18749927.520751953,17212905.883789062,5227395.534515381,10434844.970703125,-955915.9874916077,7878759.860992432,9474068.641662598,5216276.6456604,13918202.40020752,18725854.873657227,18892890.93017578,5548212.52822876,30007968.90258789,-8593885.42175293,1040345.0727462769,-26026390.075683594,7028091.907501221,10139780.044555664,9723209.381103516,29185771.942138672,15844407.081604004,15183846.473693848,3333253.3836364746,-682669.2819595337,4144177.9136657715,16651371.002197266,17065166.473388672,16621332.168579102,20712236.404418945,20985214.233398438,21049068.450927734,415692.41881370544,16508853.912353516,15877419.471740723,17045726.776123047,21980201.721191406,22288125.99182129,18545341.49169922,16859504.69970703,17047607.421875
0.49,17968803.40576172,25046693.801879883,21577093.12438965,52332077.02636719,31784597.396850586,14597927.09350586,14432353.973388672,13944593.42956543,23596914.291381836,22561334.60998535,20307331.085205078,338888.40675354004,-163356.4680814743,16115341.186523438,25691560.745239258,13936584.47265625,3994405.98487854,16186832.427978516,15035435.676574707,11067047.119140625,4279429.4357299805,2506011.2476348877,16468832.015991211,15996991.157531738,3501140.1176452637,9375804.901123047,-846913.6357307434,7755712.032318115,8021016.1209106445,3034046.6499328613,13253863.334655762,16632820.129394531,19401554.107666016,4804706.09664917,30027826.3092041,-10480982.780456543,1024399.0421295166,-27491178.512573242,5334306.716918945,9226673.126220703,8913766.860961914,28442888.259887695,14148136.138916016,13477777.481079102,1247804.6417236328,-3774976.2535095215,1494017.9586410522,14504484.176635742,14645262.718200684,14501464.84375,18958209.991455078,19235443.115234375,19263057.708740234,-2597200.870513916,14226972.579956055,13567582.130432129,14766031.265258789,20702848.434448242,20160854.33959961,17152568.817138672,14530537.605285645,16235998.153686523
0.495,16866001.12915039,24607801.43737793,21379428.86352539,50087173.46191406,32268684.38720703,12510270.118713379,12097297.668457031,11851567.268371582,22528585.43395996,22915218.353271484,21250984.19189453,3354894.8764801025,2622616.767883301,19378257.751464844,24736244.201660156,12190748.21472168,659639.4181251526,15955787.658691406,16493535.995483398,13055350.303649902,7629540.44342041,7180208.683013916,19645282.745361328,14888177.871704102,724008.8582038879,6300633.430480957,-419382.63177871704,9507791.519165039,11285781.860351562,5905547.618865967,17853052.139282227,19950054.168701172,19339214.324951172,3692677.4978637695,30486049.65209961,-11878424.644470215,1367646.6941833496,-24860286.712646484,8684858.322143555,12011283.874511719,11860768.31817627,27130990.982055664,12675106.048583984,12058028.221130371,338761.6276741028,-3048999.786376953,4063884.735107422,16571115.493774414,16654020.309448242,16743734.359741211,17985635.75744629,18342164.993286133,18339578.62854004,-1826169.490814209,16221576.690673828,15713344.57397461,16782455.444335938,22430587.768554688,19703102.111816406,17854492.1875,16394149.780273438,17973278.045654297
0.5,17521055.221557617,25118091.583251953,23498100.28076172,47379756.927490234,34148609.16137695,11598665.237426758,10913548.469543457,10867703.437805176,21635780.334472656,22565006.256103516,22162796.020507812,7605665.683746338,6822011.470794678,25126642.22717285,25233934.40246582,11400154.113769531,-877312.0045661926,16124372.482299805,17211769.104003906,14477361.679077148,12586147.30834961,12860840.797424316,25396749.49645996,15236029.624938965,-606521.2488174438,5465174.674987793,437867.31362342834,11422065.734863281,14841849.327087402,10273809.432983398,23132329.9407959,25702947.61657715,19307958.602905273,3787942.64793396,32139076.232910156,-11539302.825927734,2076947.4506378174,-21343832.01599121,13235839.84375,16191173.553466797,16140825.271606445,26644945.14465332,12772931.098937988,12184700.965881348,942016.3035392761,329877.46596336365,8860250.473022461,20984687.80517578,21297985.076904297,21275259.017944336,18652528.762817383,19087207.794189453,19061588.287353516,1495661.2586975098,20767599.10583496,20380456.924438477,21314491.271972656,25995103.83605957,21255281.448364258,20169651.03149414,20768535.614013672,20668016.43371582
0.505,17385164.260864258,23452306.747436523,22574104.30908203,45179206.84814453,32995075.225830078,11586843.490600586,10831623.077392578,10718623.161315918,20678478.240966797,20698968.8873291,20742031.09741211,6811802.387237549,6177639.007568359,26022253.036499023,26146099.090576172,11558129.31060791,-170344.84446048737,15694747.924804688,15866025.924682617,12281210.899353027,12544610.023498535,12519329.071044922,26342330.932617188,16376533.508300781,-20959.455519914627,7542729.85458374,1450086.236000061,11577037.811279297,13551597.595214844,9985207.557678223,22880107.879638672,26646615.982055664,19545658.111572266,4730189.800262451,34269565.58227539,-10288488.388061523,2551887.9890441895,-22244464.874267578,13533958.435058594,16688129.425048828,16628934.860229492,27109931.94580078,13501022.338867188,12859391.212463379,1695065.1407241821,2099809.169769287,10236179.35180664,22088327.407836914,22637914.657592773,22301277.16064453,19543430.32836914,19962696.075439453,19867094.039916992,3172472.4769592285,22077384.94873047,21643606.185913086,22635963.439941406,26472831.72607422,22670469.284057617,21091190.338134766,22027181.62536621,20882425.30822754
0.51,16021329.879760742,19760908.126831055,17875869.750976562,45273353.576660156,28724672.317504883,12387451.171875,11732222.557067871,11401096.34399414,20207048.416137695,18368333.81652832,18010877.60925293,1047129.8694610596,499535.79902648926,20125631.33239746,27114192.962646484,12221177.101135254,462928.9507865906,14238206.86340332,13597957.611083984,7960944.652557373,6551107.883453369,6004002.094268799,20385953.903198242,18005447.387695312,1587873.3396530151,9405305.862426758,2175517.797470093,10212679.862976074,8538579.940795898,4793684.482574463,16762304.306030273,20791790.008544922,20585748.67248535,5591102.123260498,35987239.837646484,-10029294.01397705,2324523.448944092,-27626323.699951172,9337878.227233887,12500932.693481445,12355535.507202148,28414911.2701416,13761775.016784668,13043975.830078125,1650166.9883728027,344467.9379463196,6708727.3597717285,18380630.493164062,18934223.175048828,18476667.404174805,19645170.211791992,19954074.85961914,19742771.14868164,1444063.663482666,18418214.797973633,17867658.615112305,19078456.87866211,23312715.530395508,22943206.787109375,19593547.821044922,18524881.36291504,18811479.568481445
