time,Fp1,Fpz,Fp2,AF3,AF4,F7,F5,F3,F1,Fz,F2,F4,F6,F8,FT7,FC5,FC3,FC1,FCz,FC2,FC4,FC6,FT8,T7,C5,C3,C1,Cz,C2,C4,C6,T8,TP7,CP5,CP3,CP1,CPz,CP2,CP4,CP6,TP8,P7,P5,P3,P1,Pz,P2,P4,P6,P8,PO7,PO5,PO3,POz,PO4,PO6,PO8,CB1,O1,Oz,O2,CB2
0.0,-87679.20732498169,176850.8106470108,172642.91644096375,54980.46800494194,457577.82459259033,-726610.7201576233,-707944.0951347351,-758414.2684936523,324036.5982055664,72810.15813350677,874881.2675476074,297139.13798332214,323518.8126564026,817463.8152122498,-603540.7781600952,-1182938.4565353394,-723983.3474159241,149598.82199764252,84739.19332027435,83187.39384412766,-445743.3223724365,219777.55427360535,769042.1342849731,-647821.7840194702,-1230190.9923553467,-690235.3763580322,-597071.5880393982,173377.8864145279,-77314.1086101532,479067.3553943634,207130.44703006744,799783.2894325256,-468647.0627784729,-744957.6258659363,-175882.0414543152,-391191.36333465576,32278.001308441162,-64283.51253271103,-127369.7316646576,325341.25447273254,380888.4024620056,-355809.39054489136,-776440.9780502319,-773805.1414489746,-191719.6363210678,-469783.4849357605,-446156.0845375061,-5301.063880324364,-43741.97870492935,-24817.59339570999,-348787.1289253235,-362948.9243030548,-356971.5619087219,-450498.0444908142,-20500.976592302322,-6565.965246409178,-34301.18411779404,-443534.4338417053,-250709.98072624207,345973.6108779907,4300.011787563562,593862.771987915
0.005,12645200.729370117,15551863.670349121,4210229.873657227,8498167.991638184,9417771.339416504,-2237664.222717285,-1979243.3977127075,-2961393.8331604004,219816.1780834198,3678121.0899353027,5648103.2371521,8370178.22265625,8715443.61114502,7684622.287750244,3862629.6520233154,-4845377.9220581055,-4215714.931488037,4319978.713989258,-61103.105545043945,2158130.645751953,8364922.523498535,9555929.183959961,6079508.304595947,2619459.390640259,-4382631.301879883,825213.9091491699,-4499803.066253662,2493767.738342285,-3581986.427307129,-3662511.3487243652,8920905.113220215,7298096.179962158,2016114.4733428955,-825479.9842834473,1094232.678413391,457626.46198272705,324860.69202423096,-2765450.954437256,-349593.8181877136,5748418.807983398,6931644.916534424,-1661005.973815918,-5932976.245880127,-6302779.197692871,1157199.9788284302,-11916233.06274414,-6087145.805358887,-3235116.481781006,-4453246.593475342,-3984958.1718444824,-4150257.5874328613,-4230717.182159424,-4935523.986816406,-11977304.458618164,-3649245.7389831543,-3221068.1438446045,-3902646.30317688,-2287439.1078948975,-871336.4005088806,-899600.8634567261,-3167051.076889038,2749054.9087524414
0.01,15798435.21118164,19867834.091186523,1314402.461051941,10479508.399963379,13104515.075683594,-6397907.257080078,-6162674.427032471,-7498255.729675293,914042.1748161316,5067711.353302002,6943464.279174805,9179657.936096191,9711409.568786621,7685406.684875488,2650105.7147979736,-8408347.129821777,-8605093.955993652,5075106.143951416,-1586.1664433032274,1264666.199684143,8661947.250366211,9705466.270446777,5689499.855041504,-189604.80391979218,-9362832.069396973,-1789551.7349243164,-7423779.487609863,1878369.2121505737,-4629828.453063965,-5403434.753417969,8028231.620788574,7287950.51574707,-1454665.8992767334,-4583879.470825195,-2667447.566986084,791493.5350418091,395377.0399093628,-1997223.973274231,-1746223.5689163208,4909005.165100098,6570325.85144043,-7718668.9376831055,-14051301.956176758,-14518131.256103516,-441287.5175476074,-17156805.03845215,-7709381.103515625,-6777294.635772705,-8530247.688293457,-7674741.268157959,-10739584.922790527,-10879039.764404297,-11849207.878112793,-17357633.590698242,-7424111.843109131,-6681315.4220581055,-7659211.158752441,-7507951.736450195,-6177040.576934814,-5320125.102996826,-6685135.841369629,-1347933.4115982056
0.015,11156803.131103516,14445956.230163574,-5883212.089538574,7454417.2286987305,11393788.33770752,-10626483.917236328,-10540822.982788086,-11781221.389770508,1799728.1551361084,4177188.8732910156,5594428.539276123,6063388.824462891,6623222.827911377,2591237.5450134277,-2211730.718612671,-10336808.204650879,-11691840.171813965,3340725.6603240967,182902.69374847412,-421613.6932373047,5029108.52432251,5208631.992340088,1117483.8542938232,-5993846.416473389,-13828407.287597656,-5885994.911193848,-8499152.183532715,-801337.6593589783,-2428218.126296997,-3779000.2822875977,2586937.90435791,2353777.1701812744,-8026778.221130371,-9193462.371826172,-6265960.693359375,977762.8779411316,298894.7033882141,662938.5948181152,-3198439.121246338,579531.4311981201,2149643.898010254,-15002947.807312012,-20746562.957763672,-21123731.61315918,-3079944.133758545,-15354468.34564209,-6083549.499511719,-9678469.65789795,-11277513.50402832,-10237923.622131348,-16967876.434326172,-17124109.268188477,-17821617.126464844,-15713336.944580078,-10229968.070983887,-9473789.21508789,-10384305.000305176,-13386540.412902832,-12725791.931152344,-10619897.842407227,-9594777.10723877,-8823174.476623535
0.02,7944621.0861206055,10018667.221069336,-8346294.403076172,5994189.739227295,9036669.731140137,-10186428.07006836,-10085382.461547852,-11270311.35559082,2095378.3988952637,3037170.648574829,5276492.118835449,7731471.061706543,8233088.493347168,562442.95835495,-3639639.139175415,-8889072.41821289,-10795882.225036621,2419867.515563965,426530.06315231323,1251434.326171875,7956845.760345459,7148632.526397705,-569288.0749702454,-6170755.386352539,-14347504.615783691,-6116128.444671631,-7782566.070556641,-2414440.870285034,1438728.6901474,-142423.73406887054,4733021.259307861,254597.9917049408,-9120658.874511719,-8789120.6741333,-2354411.1251831055,1421480.0596237183,282400.0418186188,1432306.8857192993,-2513669.490814209,867592.5135612488,2348548.650741577,-15049201.965332031,-19319458.0078125,-19680931.091308594,-3264112.710952759,-11064064.979553223,-4900461.673736572,-9817388.534545898,-11065361.022949219,-10134784.698486328,-16375694.274902344,-16500810.623168945,-16708892.822265625,-11452274.322509766,-10018810.272216797,-9595671.653747559,-10340886.116027832,-12769461.631774902,-12278012.2756958,-11068511.962890625,-9746672.630310059,-10346922.874450684
0.025,10483134.269714355,13495475.769042969,-1614638.5669708252,9180528.64074707,10480715.75164795,-4784216.403961182,-4517282.485961914,-5793180.9425354,2852385.0440979004,3764699.697494507,7973399.1622924805,15959943.771362305,16402345.657348633,6277538.299560547,1010984.1823577881,-4569973.945617676,-6983528.137207031,3240831.136703491,1174938.9171600342,6222759.246826172,18338006.9732666,17054094.314575195,4915010.929107666,1835950.0169754028,-11822979.927062988,-2653162.956237793,-6563947.677612305,-1730036.735534668,4170666.6946411133,2672575.2353668213,15762285.232543945,5713370.323181152,-1622158.2889556885,-2860416.889190674,5851075.172424316,1434979.9156188965,471194.2970752716,81650.79355239868,324303.537607193,8262084.9609375,9914232.25402832,-5588319.778442383,-10846477.508544922,-11290694.236755371,-1683487.2961044312,-9146926.879882812,-5594173.908233643,-6196447.849273682,-7331333.637237549,-6663156.986236572,-7805192.947387695,-7895339.012145996,-7850747.108459473,-9326941.49017334,-6171830.177307129,-6072432.994842529,-6775978.565216064,-2835833.5494995117,-2829157.1140289307,-5505511.283874512,-6116191.864013672,-1812318.205833435
0.03,14690638.542175293,21437915.802001953,9368834.495544434,14001106.262207031,15310604.095458984,1053914.6661758423,1387036.3235473633,106230.33344745636,5852806.568145752,6487512.588500977,12298666.954040527,24009893.4173584,24440879.821777344,15765995.979309082,6522480.487823486,-113724.7383594513,-3845176.6967773438,3996478.319168091,2973389.3871307373,10468877.792358398,26885568.618774414,25784801.483154297,14138079.643249512,10702423.095703125,-10528588.29498291,-465074.3305683136,-6087427.616119385,-280083.62650871277,4060122.9667663574,2642219.305038452,24480709.075927734,15175443.649291992,7631189.346313477,2807140.588760376,9206897.735595703,239240.45264720917,738432.7054023743,-443757.44462013245,2409382.8201293945,16423259.735107422,18219570.15991211,5347244.739532471,-3772776.8421173096,-4207805.633544922,-1872979.6409606934,-10290557.861328125,-6599350.929260254,-1251728.2962799072,-2491764.3070220947,-1965962.6483917236,1453077.5547027588,1400107.502937317,1244336.8434906006,-10122780.799865723,-1403326.392173767,-1177378.8928985596,-1997615.933418274,9329908.37097168,7325575.828552246,-588263.988494873,-1132853.2695770264,9551350.593566895
0.035,15904628.75366211,26215480.80444336,15860720.63446045,16372797.012329102,18994581.22253418,3659117.6986694336,3905389.5473480225,2718295.097351074,10427432.0602417,9131147.384643555,15386529.922485352,25622003.55529785,26094242.095947266,21094108.58154297,7145276.069641113,2439819.3359375,-2421336.6508483887,3998264.3127441406,5378957.748413086,11489722.25189209,26913475.036621094,26321968.07861328,19560661.31591797,12393684.387207031,-12373313.903808594,-1172256.9465637207,-5963960.647583008,309035.92705726624,1704774.1413116455,-7771.803066134453,22758491.51611328,20827381.134033203,10328228.950500488,3897823.0953216553,7007048.606872559,-1007505.5360794067,881695.7473754883,855842.9479598999,1035295.3672409058,17961988.44909668,19605836.868286133,8549978.256225586,-3313739.538192749,-3607213.9739990234,-4322358.60824585,-12068025.588989258,-7394780.158996582,578175.7235527039,-701817.8105354309,-111047.21575975418,3472721.3382720947,3542173.8624572754,2880958.318710327,-11688029.289245605,57273.17929267883,789163.8278961182,-200997.7102279663,13095852.851867676,8825068.473815918,-2907908.2012176514,725736.9160652161,12839305.877685547
0.04,14921397.20916748,24999309.539794922,13537819.862365723,15594259.262084961,18194499.969482422,3466029.405593872,3681598.901748657,2462675.5714416504,13391599.655151367,9671602.249145508,15416727.066040039,20955383.30078125,21481817.2454834,18767429.35180664,4309264.659881592,3839531.898498535,-238583.0283164978,5058987.617492676,7071689.605712891,10623498.916625977,20885713.577270508,20791807.174682617,17427631.378173828,7871307.373046875,-15245739.936828613,-924228.6086082458,-4632741.451263428,78160.24124622345,-920196.1159706116,-3283430.576324463,15358925.819396973,18795389.17541504,6844813.346862793,2579221.487045288,7018207.550048828,185361.8174791336,852756.9770812988,1872189.998626709,-2913909.673690796,12605148.315429688,13987724.304199219,4421023.368835449,-6104629.039764404,-6322578.907012939,-6026757.717132568,-13586653.709411621,-10198877.334594727,-2269413.709640503,-3406995.2964782715,-2749501.2283325195,-892206.7284584045,-590974.4501113892,-1746158.8382720947,-13314214.706420898,-2918983.221054077,-1889217.1382904053,-2925047.1591949463,6554461.0023498535,2461081.5048217773,-9428215.980529785,-2176009.4165802,5957980.155944824
0.045,14901033.401489258,21139894.485473633,5716122.627258301,13543945.3125,14685115.814208984,2532229.9003601074,2881982.8033447266,1521423.9358901978,12968281.745910645,8717457.77130127,13145650.863647461,14496213.912963867,15036954.879760742,12614330.291748047,3404699.5639801025,5695121.288299561,3817994.8329925537,8034907.341003418,7607268.333435059,10235297.203063965,15060282.707214355,15301618.576049805,11278476.71508789,4278208.7326049805,-17319042.205810547,2196667.6712036133,-1766632.6761245728,-107332.0060968399,-2070760.0116729736,-4974652.290344238,12019608.497619629,12578904.151916504,4086010.9329223633,2697718.381881714,11441326.141357422,3977816.343307495,779850.3041267395,1251910.8057022095,-5911417.007446289,6392935.752868652,7745310.7833862305,784856.0214042664,-7072321.891784668,-7408848.285675049,-5902318.000793457,-17099155.42602539,-16240915.298461914,-6620322.227478027,-7596895.694732666,-7069655.418395996,-4186009.8838806152,-3690586.805343628,-5119146.347045898,-17143373.489379883,-7076714.038848877,-6339057.922363281,-7185731.887817383,-1461469.8886871338,-2666573.2860565186,-11143951.416015625,-6673577.308654785,-2744451.2844085693
0.05,16448238.372802734,19021255.493164062,197926.29778385162,12094644.546508789,13292605.40008545,1733227.3721694946,2226682.662963867,882625.162601471,11216104.507446289,9061384.201049805,11678315.162658691,11000340.461730957,11521896.362304688,9052012.44354248,4934769.630432129,7514711.380004883,6750812.05368042,10456003.189086914,8214039.8025512695,10972058.296203613,13273851.39465332,13578988.075256348,7673120.021820068,4672705.65032959,-19489212.036132812,3948014.259338379,792357.325553894,186463.56463432312,-857410.2520942688,-4178349.018096924,15060673.713684082,8738394.737243652,4955729.4845581055,3502486.7057800293,12893821.716308594,6784658.908843994,799079.7162055969,117420.44985294342,-6069563.865661621,4516368.389129639,6042183.876037598,1502745.509147644,-6759815.216064453,-7265426.6357421875,-6283254.623413086,-23796726.22680664,-22181671.142578125,-8793883.323669434,-9774669.647216797,-9468180.656433105,-3066707.6110839844,-2579180.7174682617,-4044017.3149108887,-24093923.568725586,-9056790.351867676,-8872238.159179688,-9437973.022460938,-2969907.283782959,-1309414.267539978,-5997671.127319336,-8968666.076660156,-5167786.121368408
0.055,18187465.66772461,19623065.948486328,2259064.9127960205,12028118.133544922,15950740.814208984,1306841.1350250244,1785656.9290161133,639813.3039474487,10980588.912963867,11828638.076782227,13374736.785888672,12863733.291625977,13414687.156677246,10516680.717468262,4089352.1308898926,7402819.633483887,5613296.031951904,9563697.814941406,9733472.82409668,11849371.910095215,16040769.577026367,16003751.754760742,9214048.385620117,5397060.394287109,-22279981.61315918,534597.9928970337,1268197.1788406372,705728.1136512756,2812060.3561401367,-1974695.6825256348,18560146.33178711,10042805.671691895,5335592.269897461,1843807.8165054321,7074321.746826172,5431585.788726807,900425.374507904,-631077.1107673645,-4967660.903930664,6722114.086151123,8306003.570556641,2540436.5062713623,-8174173.355102539,-8681022.644042969,-7978617.6681518555,-29853841.78161621,-22529123.306274414,-8903191.566467285,-10021409.98840332,-9769022.941589355,-1803523.6597061157,-1489324.0928649902,-2836531.162261963,-30207525.2532959,-9190756.797790527,-9210702.896118164,-9716551.780700684,-19701.164215803146,2425526.6189575195,-1621934.413909912,-9049985.885620117,-1965039.1340255737
0.06,19843935.012817383,20969314.575195312,9479247.093200684,13090262.413024902,19387514.114379883,2091066.837310791,2430778.5034179688,1367508.4114074707,11968126.29699707,14280746.459960938,16456064.224243164,18248317.71850586,18915040.969848633,14090770.721435547,-318844.40779685974,5604416.370391846,2316382.40814209,6420100.688934326,10649505.615234375,11447139.739990234,20927907.943725586,20313285.82763672,12819272.0413208,3917842.149734497,-23412029.266357422,-4375967.025756836,344746.3810443878,713816.0467147827,7997567.653656006,-366125.85186958313,17518049.240112305,13647590.637207031,2550204.9922943115,-1179453.2537460327,740562.4389648438,1844300.1508712769,957418.7397956848,-1634042.6206588745,-4346844.19631958,9667618.751525879,11095759.391784668,454450.96492767334,-9779289.245605469,-10108629.22668457,-7770845.413208008,-29535579.681396484,-15528502.464294434,-8634197.235107422,-9835076.332092285,-9464402.198791504,-3630987.4057769775,-3486118.0782318115,-4656163.692474365,-29830907.821655273,-9020231.246948242,-8780763.626098633,-9524147.987365723,1203727.7221679688,3239891.290664673,-2764461.9941711426,-8650201.797485352,1572915.1964187622
0.065,22208478.927612305,21423986.434936523,14340843.200683594,14479513.168334961,19588302.612304688,4844930.648803711,5046238.422393799,3847628.116607666,12062381.744384766,13188922.882080078,16660861.96899414,22194583.892822266,22959304.809570312,16256460.189819336,-1867872.8342056274,5401565.5517578125,1501850.2473831177,4864110.946655273,9001461.98272705,9177411.079406738,23607742.309570312,22674045.56274414,14829833.030700684,4255525.1121521,-20665765.7623291,-4050855.1597595215,174789.84594345093,-353940.1590824127,12790279.388427734,2867.333823814988,14037666.320800781,15892717.361450195,1353293.6573028564,-476129.1444301605,1880890.130996704,1038656.2347412109,904964.3278121948,-2592269.6590423584,-2817463.8748168945,12224920.272827148,13548329.35333252,-683576.4646530151,-6867558.479309082,-7034387.111663818,-3284783.363342285,-22513866.424560547,-5611788.272857666,-6647863.388061523,-7760094.165802002,-7372948.169708252,-4156338.691711426,-4123054.9812316895,-5155920.505523682,-22737037.658691406,-7023725.509643555,-6492138.385772705,-7448441.982269287,1317059.5169067383,3295882.7018737793,-3118513.345718384,-6590164.661407471,4415678.977966309
0.07,24791307.44934082,21245468.139648438,12633062.362670898,15733830.451965332,16873796.463012695,9072858.810424805,9184021.949768066,7910465.240478516,11403871.536254883,9560670.852661133,13171690.940856934,21958896.63696289,22669641.494750977,16914348.602294922,5056438.446044922,9331097.602844238,4443969.7265625,6728460.788726807,5839435.10055542,6575340.747833252,22370208.740234375,21255289.07775879,15352580.070495605,11173580.169677734,-15472798.347473145,1769731.4023971558,1356002.688407898,-1790419.2209243774,15508821.487426758,514428.0195236206,13653258.323669434,16629014.96887207,7339096.546173096,5629601.955413818,8217861.175537109,4435299.396514893,833583.414554596,-1509583.4732055664,1579043.8652038574,16265331.268310547,17745784.759521484,4933948.040008545,743587.851524353,566751.8377304077,2681913.375854492,-15187731.742858887,157095.7899093628,-430514.78266716003,-1336615.0856018066,-1181315.8988952637,2038338.6611938477,1946431.5176010132,927974.9393463135,-15320590.97290039,-772833.9433670044,-236181.15484714508,-1078034.0433120728,6376613.616943359,8187374.114990234,4757061.48147583,-386049.5388507843,9806877.136230469
0.075,25720212.936401367,20898414.611816406,7335429.668426514,16866960.525512695,14476281.16607666,13173389.434814453,13235036.849975586,12097197.532653809,12035685.539245605,7366286.277770996,10084006.309509277,19820381.16455078,20361505.50842285,17657546.997070312,16569641.11328125,15689064.979553223,7651885.986328125,9776268.005371094,4320239.067077637,6326935.291290283,20892982.482910156,18580442.428588867,16187959.671020508,22062252.044677734,-11353637.6953125,6640832.901000977,2182210.2069854736,-1853066.8020248413,15884430.885314941,2005339.1456604004,17518884.658813477,17503408.432006836,17857147.216796875,12386045.455932617,11717929.84008789,7962005.138397217,858745.2173233032,1925528.2878875732,6509439.945220947,22063709.259033203,23805974.96032715,15498674.392700195,7377619.26651001,7063142.776489258,6041379.451751709,-12871126.174926758,-1703391.3135528564,7906227.588653564,7189592.8382873535,7075293.064117432,11973812.103271484,11771162.986755371,10678982.734680176,-12893511.772155762,7462656.021118164,7879345.893859863,7332861.90032959,16973842.62084961,17244667.053222656,16966365.814208984,7986730.098724365,17870090.48461914
0.08,24115850.4486084,19579074.85961914,3306717.872619629,17333345.413208008,13457929.611206055,15227541.92352295,15285799.980163574,14207304.954528809,13757648.468017578,7892787.456512451,10497113.227844238,18833457.946777344,19281822.204589844,18098848.342895508,23453641.891479492,19968914.031982422,7615353.584289551,10721512.794494629,5152013.301849365,8817945.48034668,23154573.440551758,18039529.80041504,16777572.631835938,28844978.33251953,-10061047.554016113,6178188.323974609,974893.0335044861,-25535.594671964645,14935403.823852539,3000065.565109253,21053474.42626953,18068790.435791016,24487588.88244629,14615097.999572754,10263181.686401367,7588222.980499268,951302.8860092163,4715303.421020508,7120730.400085449,25948699.951171875,27774110.794067383,23014265.060424805,8637104.034423828,8217662.811279297,7147034.168243408,-13245473.861694336,-7834566.593170166,12525094.032287598,11895972.25189209,11745847.702026367,17235113.1439209,17094558.715820312,16010658.264160156,-13228581.428527832,11924098.014831543,12367763.51928711,11929112.434387207,25450778.96118164,23507755.279541016,23209783.55407715,12737528.800964355,23495071.411132812
0.085,21566913.604736328,16990745.544433594,1579929.8286437988,16070058.822631836,12016388.893127441,13994597.434997559,14072378.158569336,12726694.107055664,13681033.13446045,8296307.563781738,12078001.976013184,18592115.40222168,19129001.61743164,17199039.459228516,22290563.583374023,19413619.995117188,4631221.771240234,8754723.54888916,5416021.347045898,10765311.241149902,27147689.819335938,19640062.33215332,15816936.492919922,27555782.318115234,-10997971.534729004,2350091.2189483643,-2054551.362991333,1584743.3805465698,13800036.430358887,2230584.144592285,20968801.498413086,17133014.678955078,23518789.291381836,12730661.392211914,8375825.881958008,4173511.9819641113,984977.0069122314,4456302.165985107,3586208.1050872803,25434846.878051758,27156251.907348633,23263595.581054688,6343291.759490967,5921670.913696289,9021021.842956543,-10510941.505432129,-10952002.52532959,11994176.864624023,11359801.292419434,11377088.54675293,15125421.524047852,15240386.962890625,14364464.75982666,-10595744.132995605,11392160.415649414,11957418.441772461,11377478.59954834,25923192.977905273,23257123.947143555,20984184.26513672,12272510.528564453,23263879.776000977
0.09,20762826.919555664,15552837.371826172,1318658.1134796143,13605077.743530273,9787498.474121094,10298459.05303955,10348243.713378906,8670731.544494629,10971504.211425781,6622007.369995117,11298078.536987305,18120342.254638672,18817642.211914062,17157421.112060547,17964862.823486328,15401473.045349121,1318818.211555481,5595790.386199951,3141645.1930999756,9231476.783752441,28141134.26208496,21911041.259765625,15593050.003051758,22216457.36694336,-13246638.298034668,-1386113.6436462402,-5503310.680389404,584848.5231399536,13137146.949768066,1768454.0748596191,20658382.415771484,16901105.880737305,19242784.50012207,10373408.317565918,8448879.24194336,1115028.0237197876,932551.0859489441,3039917.230606079,2695239.305496216,24416410.446166992,26073331.832885742,19703756.33239746,4486588.954925537,4086863.5177612305,10995121.955871582,-4531053.54309082,-7253610.610961914,11914172.172546387,11241288.185119629,11399840.354919434,11036714.553833008,11371694.564819336,10747200.012207031,-4789251.804351807,11483456.6116333,12041484.832763672,11322058.67767334,21608043.670654297,20226982.11669922,16841785.430908203,12071373.93951416,20359344.482421875
0.095,22861719.131469727,18260274.88708496,4161520.004272461,12838298.797607422,9599211.692810059,7411089.897155762,7362595.558166504,5707789.421081543,8982612.609863281,5212223.052978516,9540577.88848877,19908849.716186523,20677392.959594727,22032955.169677734,15791313.171386719,11761922.836303711,-593108.7732315063,3437111.8545532227,630583.4650993347,5928087.23449707,26781717.30041504,25741956.71081543,20444240.57006836,18876295.08972168,-15890628.814697266,-4537456.035614014,-8190888.404846191,-2350790.500640869,13300093.650817871,4767689.228057861,25310214.99633789,21644203.186035156,16976928.7109375,8781259.536743164,8030879.974365234,-541998.1479644775,905887.8421783447,3973734.140396118,9050518.035888672,28925033.569335938,30654169.0826416,17421030.044555664,3754942.6555633545,3333909.749984741,9236300.468444824,-1318255.066871643,-756374.5975494385,16920783.99658203,16232744.216918945,16419754.028320312,9837201.118469238,10162786.483764648,9515063.285827637,-1700297.7132797241,16637626.647949219,17065973.28186035,16316461.563110352,19422554.01611328,19398969.650268555,15228119.850158691,16919824.600219727,20132139.205932617
0.1,26106468.200683594,23937574.38659668,11492200.85144043,15697645.18737793,13298744.201660156,8252901.077270508,8117056.846618652,6776562.690734863,10690874.099731445,7012223.720550537,10925083.16040039,26188402.17590332,26913629.53186035,31287744.522094727,15662510.871887207,11409582.138061523,-907665.0738716125,3711087.465286255,1110296.8454360962,5334952.831268311,28248504.638671875,32122993.46923828,29844842.9107666,18844062.80517578,-17322101.593017578,-7258224.010467529,-9345543.86138916,-4185354.232788086,14345146.179199219,10407036.781311035,33466434.478759766,30978384.017944336,17163656.23474121,6664155.960083008,5700330.2574157715,-2028559.684753418,996832.4303627014,7420595.169067383,17984720.23010254,37985794.06738281,39761646.27075195,17257862.091064453,2607677.221298218,2192721.366882324,4339334.964752197,-3846067.190170288,1307724.118232727,23942462.921142578,23297349.92980957,23488447.189331055,10491197.58605957,10663570.404052734,9666974.067687988,-4259683.132171631,23680534.36279297,24071924.209594727,23246797.561645508,21124322.89123535,21012300.491333008,14483308.792114258,23985113.1439209,23242515.563964844
0.105,26942369.46105957,27004388.8092041,18536586.76147461,19426073.07434082,17939907.07397461,11420816.421508789,11302388.191223145,10119647.979736328,14021838.188171387,10480609.893798828,15095128.059387207,32810840.606689453,33441291.80908203,37983875.2746582,14699485.778808594,13951550.483703613,-175355.9559583664,6488170.623779297,3676930.1891326904,8865832.328796387,33193084.716796875,37328426.361083984,36634578.704833984,18992887.496948242,-16908414.840698242,-7670274.257659912,-8627098.083496094,-3640377.2830963135,15634202.95715332,14047513.008117676,37867565.1550293,37869682.31201172,17323652.267456055,3993427.515029907,3847418.5466766357,-3310226.2020111084,1175057.5304031372,10530722.618103027,21146226.88293457,43289363.861083984,44926998.138427734,16961395.263671875,1147021.4128494263,835982.2034835815,3173632.1449279785,-7183406.352996826,-2796925.0679016113,26739498.138427734,26199375.15258789,26392131.805419922,10364272.117614746,10431941.986083984,9159624.099731445,-7544784.069061279,26492998.123168945,27008539.1998291,26009622.57385254,22979698.181152344,22509447.09777832,13951244.354248047,27022459.030151367,25623462.677001953
0.11,23412672.04284668,23628358.840942383,17495580.673217773,18871099.4720459,18604707.717895508,12119518.280029297,12136365.89050293,10782711.98272705,14397627.830505371,11099647.521972656,16750135.42175293,32554576.873779297,33065177.91748047,36156288.146972656,12004643.440246582,16066223.14453125,481522.0534801483,9930719.375610352,4276902.198791504,13127564.430236816,35498062.13378906,35722976.68457031,34801063.537597656,16769283.294677734,-16648334.503173828,-4613146.3050842285,-6886014.938354492,-2774897.813796997,15878818.51196289,12927870.750427246,35065509.79614258,36148170.471191406,16375921.249389648,2453085.18409729,4328519.821166992,-2714745.9983825684,1366995.5730438232,11776630.401611328,17052129.7454834,39730674.743652344,41127002.71606445,15154013.633728027,797657.7877998352,558455.5864334106,10013028.144836426,-5528871.059417725,-7716899.871826172,24393182.7545166,23976797.103881836,24087697.982788086,9795951.843261719,9820364.952087402,8741931.915283203,-5751991.271972656,24278673.17199707,24903297.424316406,23834527.96936035,21797595.977783203,22807498.931884766,16475040.435791016,24882968.90258789,24056453.704833984
0.115,17706489.56298828,16305383.682250977,7832091.331481934,12898395.538330078,14348990.440368652,8252478.59954834,8460852.62298584,6904885.292053223,10771876.335144043,7301808.834075928,13016356.468200684,24841611.862182617,25225667.95349121,28070631.02722168,9096073.150634766,14851418.495178223,-124179.37815189362,11325177.192687988,1311599.9698638916,14340195.655822754,31033716.201782227,27865142.822265625,26789356.231689453,13025128.364562988,-18585559.844970703,-669168.5318946838,-5923165.321350098,-3755180.3588867188,14380289.077758789,9272430.419921875,29737144.470214844,28023653.030395508,15102961.540222168,2396205.186843872,5542736.053466797,-126818.98474693298,1516425.371170044,12317390.441894531,11742451.667785645,32185089.111328125,33461994.171142578,12467848.777770996,1199327.7072906494,815579.891204834,19096347.80883789,-607400.65574646,-8951949.119567871,21295602.798461914,20942468.643188477,20917346.954345703,9806715.01159668,9747204.780578613,9138189.315795898,-661689.4006729126,21345026.01623535,21932212.829589844,21002637.86315918,18023334.503173828,22076023.10180664,21454250.33569336,21805835.723876953,19607353.21044922
0.12,14457048.416137695,10629354.476928711,-1382371.6640472412,6398481.845855713,9409012.794494629,3700989.4847869873,4053174.4956970215,2520892.62008667,6582154.273986816,2502301.9313812256,7654420.375823975,17281696.319580078,17617464.065551758,21592411.041259766,7752838.134765625,11079881.66809082,-1845902.919769287,9981428.146362305,-2172060.251235962,12609411.239624023,23673015.594482422,21208208.084106445,20496574.40185547,10564796.447753906,-21099870.681762695,530385.6134414673,-6519503.593444824,-5665698.528289795,12345237.731933594,6815682.888031006,27765153.884887695,21482986.450195312,14461641.311645508,2286853.313446045,5557757.85446167,1995578.5274505615,1524247.8847503662,13342137.336730957,10029049.87335205,28922958.374023438,30304273.60534668,10459997.177124023,467937.8569126129,-164715.6924009323,20521387.100219727,987435.0428581238,-8873750.686645508,20386295.318603516,19979417.80090332,19936429.977416992,9161391.258239746,9005381.58416748,8500959.396362305,986109.733581543,20446319.580078125,20954122.54333496,20154901.5045166,14097588.539123535,20054121.017456055,22779991.149902344,20777860.641479492,16071647.644042969
0.125,16044559.478759766,9036785.125732422,-2073265.3141021729,4852099.418640137,8398800.84991455,3544001.817703247,3880919.2180633545,2448256.492614746,5119398.11706543,1053651.4520645142,6268963.813781738,16302700.04272461,16731378.555297852,21255762.100219727,8723198.890686035,8321523.666381836,-3156206.6078186035,8417125.701904297,-2400564.9089813232,10953794.479370117,19759569.16809082,21339912.41455078,20212440.490722656,11026459.693908691,-20841547.0123291,-1348248.839378357,-7424985.885620117,-5982971.19140625,12198242.1875,6510087.490081787,29225690.841674805,21165153.50341797,14976788.520812988,1424802.6609420776,5057396.411895752,1575216.1741256714,1282842.516899109,14497982.025146484,10840435.028076172,31371690.75012207,32951454.162597656,10459156.036376953,-1633636.1169815063,-2243651.866912842,12435276.985168457,-3121300.69732666,-12221320.152282715,20452024.459838867,19889884.94873047,20008937.83569336,6790961.265563965,6648188.11416626,5621558.666229248,-3262328.1478881836,20321271.896362305,20868026.733398438,19973247.528076172,12167591.094970703,17160587.310791016,17412269.592285156,20676500.32043457,16210435.86730957
0.13,20390197.75390625,9765546.798706055,3486093.044281006,8446530.34210205,11620789.527893066,7452182.292938232,7602828.025817871,6086681.842803955,6328431.129455566,3758535.385131836,9763763.427734375,20261054.99267578,20850883.48388672,24433250.427246094,11108215.33203125,8577005.386352539,-3121516.466140747,9212699.890136719,714790.1058197021,11327864.646911621,20403911.590576172,25992166.51916504,23149034.50012207,13167316.436767578,-18139673.233032227,-3750261.5451812744,-7328606.128692627,-4384695.529937744,14874999.046325684,6965579.986572266,30671031.951904297,24397890.090942383,16419570.922851562,888342.9765701294,5560158.729553223,-770014.5244598389,875799.6559143066,15092681.884765625,11329813.003540039,34008132.93457031,35654354.095458984,12206640.243530273,-3230707.883834839,-3416508.197784424,3089199.3045806885,-9118421.55456543,-18494276.04675293,19408748.626708984,18641756.057739258,18947700.50048828,4424417.495727539,4394184.589385986,2721918.1060791016,-9473029.136657715,19016027.450561523,19682962.41760254,18601058.959960938,12708467.483520508,15286643.028259277,10237718.58215332,19443389.892578125,19025674.81994629
0.135,23757848.739624023,10620758.056640625,7201337.814331055,12870418.548583984,15433085.441589355,10581447.60131836,10547721.862792969,8827594.757080078,8438296.3180542,7799881.935119629,14384429.931640625,23575786.590576172,24273624.420166016,25976152.420043945,12477774.620056152,10244925.498962402,-2348825.216293335,11364606.857299805,3974248.170852661,12770478.248596191,22549316.40625,29295305.252075195,24362319.946289062,14223590.850830078,-16836891.174316406,-4600530.624389648,-6922443.866729736,-3292481.8992614746,18031240.463256836,7069308.757781982,30604135.513305664,25932437.896728516,17364862.4420166,1410882.7114105225,7159567.356109619,-3030367.374420166,626330.2564620972,14855769.157409668,10963763.236999512,32680213.928222656,34161640.16723633,13447166.442871094,-3078970.6707000732,-2817766.4279937744,690798.0442047119,-13217985.153198242,-22655931.47277832,16800050.735473633,15815354.347229004,16193246.841430664,3978064.775466919,4027986.0496520996,2221322.2980499268,-13694437.026977539,16233360.290527344,16908872.604370117,15841347.694396973,14006099.700927734,15344322.204589844,6583915.233612061,16669202.80456543,20416746.139526367
0.14,24855209.350585938,11293622.970581055,6240906.715393066,14934343.338012695,16655992.50793457,10552589.416503906,10549365.997314453,8787533.7600708,10777742.385864258,10252994.537353516,16842531.204223633,24279989.24255371,25030254.364013672,24516017.91381836,11409979.820251465,11168710.708618164,-1208969.4738388062,11779046.058654785,4928730.010986328,13367993.354797363,24785903.930664062,29182979.583740234,22835361.48071289,13326931.953430176,-17999572.75390625,-3304633.855819702,-7502214.431762695,-4364081.382751465,18243623.733520508,6682762.622833252,29628931.045532227,24416179.656982422,16645662.307739258,2454425.096511841,9625796.3180542,-4123758.316040039,784195.1847076416,13379572.868347168,10292014.122009277,29286489.486694336,30509613.037109375,12437495.231628418,-1767882.227897644,-1483697.6528167725,5051359.6534729,-15298250.198364258,-22276157.37915039,13296675.682067871,12135979.652404785,12522231.101989746,4459616.184234619,4524243.8316345215,3088217.02003479,-15787306.785583496,12716078.758239746,13201972.961425781,12379083.633422852,13822536.46850586,15758676.528930664,4998573.780059814,13133213.996887207,17644273.75793457
0.145,25414972.30529785,12384757.995605469,5569338.798522949,15599363.327026367,15852851.867675781,10372625.350952148,10600992.202758789,9036446.571350098,13844586.372375488,10899908.065795898,17410411.834716797,24927377.700805664,25745121.002197266,23392919.540405273,10105805.397033691,11788813.591003418,1305822.253227234,10043683.052062988,4429168.224334717,13100567.817687988,28202486.038208008,28439277.64892578,21989253.997802734,13078160.285949707,-17678138.732910156,-31323.350965976715,-8315673.828125,-5986775.875091553,15407164.573669434,5895474.910736084,27917842.864990234,23293876.64794922,15773717.880249023,3875543.3559417725,13413661.003112793,-4157213.6878967285,1197655.0817489624,10814873.695373535,9290813.446044922,28273069.381713867,29404172.897338867,10928565.02532959,105394.60182189941,50870.31424045563,10595666.885375977,-15915819.16809082,-19811296.463012695,10494957.92388916,9320075.988769531,9729381.561279297,4257700.9201049805,4349535.4652404785,3278323.4119415283,-16363399.505615234,10042356.491088867,10289605.140686035,9693604.469299316,12557962.417602539,15417613.02947998,1834915.8763885498,10467353.820800781,13325796.127319336
0.15,27120429.99267578,14156835.556030273,9945142.74597168,17121751.78527832,15723692.893981934,13230229.377746582,13640486.717224121,12278674.125671387,17221214.294433594,11146434.783935547,17933475.494384766,27754198.07434082,28617101.669311523,25931898.11706543,12011238.098144531,13419108.390808105,5330631.256103516,8884578.704833984,4664455.413818359,13437970.161437988,32527465.8203125,29989549.63684082,24871015.548706055,16411968.231201172,-12987462.997436523,3722442.865371704,-7577527.5230407715,-5621081.352233887,13341424.942016602,4997993.469238281,25923658.37097168,25887790.67993164,17762458.80126953,6407102.584838867,17838630.67626953,-3453640.4609680176,1449535.9659194946,9063796.997070312,8616628.646850586,31275278.091430664,32587974.548339844,12406320.571899414,2993745.803833008,2699475.5268096924,14104794.5022583,-14171890.258789062,-17544275.283813477,10840028.762817383,9896032.333374023,10270159.721374512,4561129.093170166,4674630.165100098,3682928.8005828857,-14488811.492919922,10573992.729187012,10767324.447631836,10194979.667663574,13149229.049682617,16076543.807983398,-1447023.2725143433,10986295.700073242,12822797.775268555
0.155,29577062.606811523,16694335.9375,17628086.09008789,19291933.059692383,17097953.79638672,17634805.67932129,17998422.622680664,16632823.944091797,19019752.502441406,10999367.713928223,18625806.80847168,31704999.923706055,32472965.240478516,31140300.750732422,16701009.750366211,15351479.530334473,8478146.55303955,9750341.415405273,5551583.766937256,14239418.983459473,35052028.65600586,33434463.500976562,30151185.989379883,22562662.12463379,-6837216.854095459,5394783.020019531,-5780178.546905518,-3789202.928543091,14737014.770507812,4423319.8165893555,25720317.840576172,31054368.97277832,22982667.922973633,9818106.651306152,20398027.420043945,-2092207.670211792,1343223.4525680542,9769176.483154297,9551734.924316406,36083007.8125,37675411.224365234,17237846.37451172,6962102.890014648,6764392.852783203,16566247.940063477,-10522961.616516113,-14678470.611572266,14911757.469177246,14324649.810791016,14523612.976074219,7464670.181274414,7477615.3564453125,6440455.913543701,-10589298.248291016,14783672.332763672,15165306.091308594,14457002.639770508,16762153.625488281,19420883.178710938,-783501.9826889038,15101824.760437012,17257865.90576172
0.16,31120267.868041992,19429580.688476562,22875329.971313477,19781707.763671875,17849147.79663086,19736103.057861328,19919250.48828125,18421369.552612305,17798383.712768555,8649738.311767578,17906293.869018555,34050651.55029297,34608829.498291016,34675598.14453125,19794097.900390625,15975628.852844238,8330894.470214844,10690999.031066895,4521615.028381348,13147857.666015625,33995899.20043945,36136272.43041992,33430961.60888672,27548744.201660156,-4022611.141204834,4276490.688323975,-5624903.678894043,-3793333.2920074463,17183954.2388916,4361467.361450195,28539430.618286133,34398181.9152832,28110767.364501953,12166737.55645752,19569787.979125977,-132139.59336280823,1122093.4391021729,11196200.370788574,11472849.84588623,39324752.80761719,41042385.10131836,21844217.30041504,10441689.491271973,10437276.840209961,19251810.07385254,-7969554.901123047,-10877602.577209473,19204563.14086914,18836429.595947266,18831415.1763916,11845827.102661133,11667408.94317627,10601711.27319336,-7809733.3908081055,19121385.57434082,19733169.555664062,18865745.544433594,20582098.00720215,23497699.737548828,3631212.4729156494,19289756.774902344,21752561.569213867
0.165,30585395.81298828,20270236.96899414,22210968.017578125,17454751.96838379,16011255.264282227,18473966.598510742,18514734.268188477,16986450.1953125,14450339.317321777,3660612.106323242,14993285.179138184,33267532.348632812,33712238.31176758,33891723.6328125,18741806.030273438,15560160.636901855,5539265.155792236,9725444.793701172,376224.8754501343,9333403.587341309,30789676.666259766,36409111.02294922,32333606.719970703,28614135.7421875,-5238598.823547363,2802175.760269165,-8030172.348022461,-7065086.364746094,16183649.063110352,4694111.8240356445,32009746.551513672,33483943.939208984,30092126.846313477,11892367.362976074,17059574.127197266,2038194.6563720703,1121207.9524993896,9860541.343688965,11840750.694274902,39356788.635253906,41022354.12597656,23319486.618041992,11516854.286193848,11486376.762390137,21393877.029418945,-7808516.025543213,-8861170.768737793,19488382.33947754,19078998.565673828,19023630.142211914,14132652.282714844,13885132.789611816,12711933.135986328,-7620306.491851807,19415590.286254883,20053209.30480957,19090305.32836914,21542795.181274414,24874635.696411133,7630825.519561768,19456474.30419922,21955867.767333984
0.17,28443220.138549805,17482519.149780273,17422452.926635742,14130245.208740234,12700489.044189453,16189302.444458008,16123966.217041016,14734641.075134277,11730778.694152832,-893889.7848129272,11635672.569274902,30379167.556762695,30938282.012939453,30775442.123413086,16007465.362548828,15642754.554748535,2778190.1359558105,7913133.144378662,-4046664.237976074,6011622.428894043,28343093.872070312,35265136.71875,29152009.963989258,26783588.409423828,-7627048.492431641,3183584.690093994,-10330109.596252441,-10603712.08190918,11400324.821472168,5272519.588470459,32705478.66821289,30510427.474975586,29463399.88708496,9814329.147338867,15993547.439575195,3423704.6241760254,1310299.7541427612,5787600.040435791,9979785.919189453,37333633.42285156,38957805.63354492,22712223.052978516,10240447.998046875,9996808.052062988,22223125.457763672,-7074304.103851318,-10545664.78729248,16398593.90258789,15837008.476257324,15880433.082580566,13075687.408447266,12967864.036560059,11589712.142944336,-6979710.578918457,16362966.537475586,16814577.102661133,15851528.16772461,20635377.883911133,23498533.248901367,8660820.007324219,16369390.487670898,19735872.268676758
0.175,27463287.353515625,13692164.421081543,14401517.868041992,13157634.735107422,11334163.665771484,15392827.987670898,15175454.139709473,13926815.9866333,11943664.55078125,-1169368.3862686157,10704088.21105957,28390813.82751465,29152408.599853516,29551094.05517578,15286491.394042969,16588214.874267578,1695877.6712417603,7415955.543518066,-4728956.22253418,6735740.661621094,28336324.69177246,35377597.80883789,28117301.94091797,25041282.653808594,-8944082.260131836,4518079.2808532715,-9628159.523010254,-10572225.570678711,7331719.875335693,5621582.984924316,30935256.958007812,29553543.090820312,28921566.009521484,8422918.319702148,17858110.427856445,2974981.7848205566,1341620.3260421753,3145370.4833984375,8466419.219970703,36216125.48828125,37903469.08569336,22840333.938598633,9107022.285461426,8743859.29107666,23103162.76550293,-3181626.558303833,-12951581.954956055,15030680.656433105,14389574.05090332,14523358.345031738,11481647.491455078,11518645.286560059,10048778.533935547,-3070862.054824829,15001412.391662598,15303280.8303833,14406679.153442383,21450540.54260254,22887937.545776367,7422984.600067139,15107250.213623047,20289726.25732422
0.18,31784536.361694336,15567028.045654297,19263753.89099121,16698965.072631836,14635414.123535156,16938652.03857422,16601602.554321289,15328598.022460938,15207168.579101562,3194546.4611053467,13394577.026367188,30073976.516723633,30877424.240112305,32143898.010253906,16706470.489501953,17692733.764648438,2333703.04107666,8396883.010864258,-1308864.3550872803,10424966.812133789,30690383.911132812,38270217.89550781,30867343.90258789,24912874.221801758,-8770030.02166748,4972402.095794678,-6520949.840545654,-7243729.591369629,7710191.249847412,5015082.359313965,30277126.31225586,32173377.990722656,29697235.107421875,9168202.40020752,21479682.92236328,859961.4500999451,1055063.247680664,4386508.941650391,9294014.930725098,38000022.888183594,39731449.127197266,24227966.30859375,10338696.479797363,10092093.467712402,25805549.62158203,839308.7983131409,-11753817.558288574,18126691.818237305,17448530.197143555,17594078.063964844,12181887.62664795,12152596.473693848,10808226.585388184,1101052.8802871704,17972326.278686523,18355514.526367188,17500139.236450195,24836645.126342773,25086429.595947266,4843183.517456055,18262142.181396484,24901382.446289062
0.185,42602706.90917969,26235252.380371094,32267635.345458984,23460306.16760254,22198663.71154785,19913969.039916992,19676855.087280273,18274694.442749023,19499385.833740234,8870485.305786133,18027524.948120117,34827136.9934082,35442848.205566406,36283138.275146484,17175354.00390625,18457307.815551758,3990401.268005371,9539587.020874023,2675245.0466156006,12948303.22265625,33884975.43334961,41932006.8359375,34925369.26269531,24700912.475585938,-7970301.151275635,4593436.241149902,-4091114.9978637695,-4376535.415649414,11501285.552978516,3618885.5171203613,32101448.05908203,36036018.37158203,29946144.104003906,10330442.428588867,23631633.758544922,-1208149.0755081177,747376.5015602112,6643753.0517578125,10785678.86352539,40915470.123291016,42558639.52636719,24004909.51538086,12250813.484191895,12226756.09588623,29158124.923706055,-535661.5781784058,-8160726.547241211,21817178.72619629,21018407.821655273,21152095.794677734,13461452.48413086,13233591.079711914,12050770.75958252,-203881.45744800568,21454261.779785156,22028997.42126465,21151107.788085938,26536998.748779297,26947807.31201172,553602.9934883118,21839599.609375,28438695.907592773
0.19,54486286.16333008,39078487.396240234,44853412.62817383,28591428.756713867,29911178.588867188,21454982.75756836,21542396.545410156,20105211.25793457,22036451.33972168,12342922.21069336,21482513.427734375,38012275.69580078,38371421.813964844,37742374.420166016,14124152.183532715,17769510.26916504,4778807.163238525,10094363.21258545,4271383.285522461,13029291.152954102,35207302.09350586,41846790.3137207,36215267.181396484,20887168.884277344,-9203348.159790039,3617765.188217163,-4213775.157928467,-4162989.1395568848,14981359.481811523,2592267.7516937256,32982498.168945312,37268524.169921875,26362279.891967773,7901075.839996338,20850812.911987305,-1718524.45602417,786119.1630363464,6084608.554840088,10058427.810668945,40167968.75,41685924.5300293,18585180.282592773,9793065.071105957,9895355.224609375,29123153.686523438,-7512036.323547363,-8172113.418579102,19880002.975463867,18921869.2779541,19030145.6451416,10245583.534240723,9936792.373657227,8821988.105773926,-7297006.130218506,19406585.693359375,19998115.53955078,19143699.645996094,21138181.686401367,22836656.57043457,-5663913.249969482,19664976.119995117,24435731.887817383
0.195,58882186.88964844,42990657.806396484,46601932.525634766,27279268.264770508,32191642.76123047,18370561.599731445,18776603.69873047,17453872.680664062,21051271.438598633,12160246.849060059,21595724.10583496,35309795.37963867,35539318.0847168,34349124.908447266,7839279.651641846,13743000.984191895,2155438.6615753174,9669546.127319336,3759639.263153076,13029373.168945312,32409835.815429688,35710895.53833008,32848808.28857422,12320693.016052246,-15026416.778564453,646164.4172668457,-6203989.028930664,-5245471.954345703,15736163.139343262,2117416.1434173584,29073408.126831055,33952667.236328125,17875736.236572266,36559.16824936867,13275936.126708984,-1208129.5251846313,1076361.4177703857,3279457.3307037354,7005856.513977051,33163093.56689453,34677909.85107422,7937590.599060059,1000663.2804870605,1066027.5220870972,23782772.064208984,-13516554.832458496,-13857967.376708984,11498939.514160156,10521911.62109375,10539474.487304688,657791.9125556946,462021.02303504944,-512376.48725509644,-13452659.606933594,11092163.0859375,11459793.090820312,10781999.588012695,8857099.533081055,11569794.654846191,-12455109.596252441,11117529.86907959,12551330.56640625
0.2,53197395.32470703,34808563.232421875,37406219.482421875,19961875.915527344,27069597.244262695,11466122.6272583,11985789.29901123,10758684.158325195,17095184.326171875,8574154.8538208,18605648.040771484,28286045.07446289,28570434.5703125,28652242.66052246,1374605.2980422974,7271389.961242676,-3478087.902069092,7567197.322845459,2528975.486755371,13772907.257080078,26734088.897705078,27401004.791259766,27371862.411499023,3414801.836013794,-22722906.1126709,-4203634.738922119,-8287347.793579102,-6023144.721984863,13839751.243591309,843323.8863945007,22009668.350219727,28426160.81237793,8555591.583251953,-8988754.272460938,6900228.977203369,-1594336.1520767212,1152838.2301330566,1556342.2441482544,4319737.911224365,24169321.060180664,25788030.62438965,-2070644.8554992676,-7848877.429962158,-7913938.045501709,17439197.540283203,-12166765.213012695,-18868700.02746582,3497038.8412475586,2681693.3155059814,2589480.6385040283,-9415161.1328125,-9472400.665283203,-10091556.549072266,-12142213.821411133,3206765.4132843018,3361706.7337036133,2889005.8994293213,-1977876.901626587,266754.4484138489,-16452018.737792969,3162933.349609375,1147270.679473877
0.205,43969905.853271484,23234128.952026367,29182044.982910156,12868963.241577148,19392127.990722656,6522108.554840088,6967604.637145996,5667366.504669189,12698890.686035156,3264483.2134246826,14945066.452026367,23880847.930908203,24323617.935180664,26286170.959472656,-1610490.6797409058,3436496.2577819824,-7421711.444854736,4232369.899749756,755660.5339050293,12871738.43383789,23333625.79345703,24622709.274291992,25117153.16772461,820210.874080658,-24751867.294311523,-7170289.516448975,-9262651.443481445,-7203714.370727539,10877904.891967773,-1161570.0721740723,18538946.1517334,25994981.76574707,5115216.7320251465,-11903258.323669434,8297173.500061035,-4000537.395477295,818337.619304657,2052792.3107147217,4561100.006103516,21453029.63256836,23126049.041748047,-3576935.5297088623,-7437570.571899414,-7640770.91217041,17100793.838500977,-3732721.3287353516,-15584436.416625977,3950871.467590332,3310657.9780578613,3224358.7970733643,-10897003.173828125,-10960608.48236084,-11203262.329101562,-3678341.1502838135,3687494.5163726807,3882423.6392974854,3388977.05078125,-1539246.4399337769,-1032864.4514083862,-13573708.534240723,3811203.4797668457,590508.5206031799
0.21,39254047.39379883,18703868.865966797,32255664.825439453,11632225.036621094,16600379.943847656,8034109.115600586,8338606.834411621,6884163.856506348,10320571.899414062,-584959.4473838806,13475538.25378418,26807464.599609375,27393739.700317383,30225231.170654297,-321781.6948890686,5710871.21963501,-5849978.446960449,2151320.219039917,-1406450.629234314,9484180.450439453,26342248.916625977,30742355.346679688,28882659.912109375,5444034.576416016,-18142745.971679688,-5877548.2177734375,-9085957.527160645,-9576343.536376953,8785183.906555176,-1335002.3031234741,23028026.580810547,29691341.400146484,9484681.129455566,-7121926.307678223,16142253.875732422,-7786849.498748779,423727.6315689087,3327611.4463806152,7784116.744995117,27915571.212768555,29508693.69506836,4663900.852203369,3106860.399246216,2799144.506454468,23931669.235229492,5748772.621154785,-5250114.440917969,13110205.65032959,12507468.223571777,12558840.75164795,-2059987.7834320068,-2253921.7472076416,-2367222.309112549,5836709.499359131,12811988.830566406,13229587.55493164,12470699.310302734,10541507.720947266,9367403.984069824,-3505496.5019226074,13116232.872009277,11770804.405212402
0.215,39688064.57519531,21789144.51599121,42410392.76123047,14878131.866455078,20054208.755493164,12906457.901000977,13077248.573303223,11588868.141174316,10314085.006713867,-600797.4147796631,14830462.455749512,33266925.811767578,33909015.65551758,36081832.88574219,1426790.3566360474,10092227.935791016,-1198637.60471344,2981114.387512207,-2415943.145751953,6487166.881561279,33209419.25048828,39205947.87597656,34479633.33129883,9916690.826416016,-10391654.014587402,-4190689.5637512207,-8620584.487915039,-11494683.265686035,8121975.898742676,578634.9177360535,30883653.64074707,35446952.81982422,14964830.39855957,-2016973.0186462402,21855781.55517578,-11262472.152709961,381970.0479507446,4377375.12588501,10750703.811645508,35905406.9519043,37330093.38378906,13612120.628356934,13418584.823608398,13062019.348144531,30515872.955322266,9938200.950622559,2465646.266937256,21320556.640625,20622575.759887695,20803251.266479492,7389390.94543457,7107064.247131348,6944056.510925293,10105525.970458984,21011314.392089844,21584012.985229492,20599506.378173828,22241382.598876953,20347076.416015625,6521969.795227051,21313859.939575195,22519079.208374023
0.22,40154659.271240234,24825443.267822266,46642059.326171875,16557201.385498047,23627550.12512207,13993644.714355469,14098819.732666016,12731103.897094727,11301677.703857422,1960814.2375946045,16808000.564575195,35118927.001953125,35724033.35571289,35934707.64160156,-1005346.2982177734,9497942.924499512,704294.0258979797,4730242.2523498535,-1040338.7546539307,5969569.683074951,36835643.76831055,39574089.05029297,34285350.79956055,6911122.798919678,-10957020.75958252,-7426879.405975342,-8699675.559997559,-10861719.131469727,7044121.742248535,-204717.53180027008,32564380.645751953,35409919.73876953,13093059.539794922,-4585668.563842773,20268392.56286621,-12775068.283081055,635609.3287467957,5173290.252685547,9024410.247802734,35087482.45239258,36325431.82373047,12686285.018920898,13386086.463928223,13059953.689575195,29141742.706298828,6690783.977508545,457696.1100101471,18523042.678833008,17668941.497802734,17880157.470703125,6229982.852935791,6036124.706268311,5923684.120178223,6977533.340454102,18206777.572631836,18770566.940307617,17807811.737060547,20998062.133789062,18939609.52758789,7098174.571990967,18414104.461669922,19992557.525634766
0.225,38383266.44897461,23030082.70263672,40165039.0625,14135291.09954834,22599096.298217773,9564893.72253418,9743942.260742188,8495373.725891113,12319000.244140625,3649235.725402832,17238937.377929688,30338973.999023438,30855911.254882812,28429107.666015625,-6946391.1056518555,3505303.382873535,-1831909.8949432373,4183586.597442627,1586688.9953613281,6312030.31539917,34551086.42578125,30511302.947998047,26962276.458740234,-1560613.2745742798,-18998981.475830078,-14100679.397583008,-9044658.660888672,-8368467.330932617,3845331.1920166016,-6486042.022705078,25645488.739013672,27981231.689453125,4111485.481262207,-13451211.929321289,15654927.253723145,-11749620.43762207,827264.3685340881,5187605.857849121,2324550.8670806885,25591102.600097656,26678176.879882812,2185506.820678711,4641962.051391602,4407818.794250488,21017875.67138672,-833227.2171974182,-8285505.294799805,6354887.008666992,5351490.9744262695,5540541.648864746,-4925274.37210083,-4895306.587219238,-4797452.926635742,-526171.3266372681,6000723.361968994,6500155.925750732,5663497.9248046875,8157123.565673828,5802014.350891113,-1774375.4386901855,6197324.275970459,6458254.814147949
0.23,37441261.291503906,19487060.546875,31813159.942626953,11249573.707580566,20108158.111572266,5227594.375610352,5578286.647796631,4341687.202453613,13627388.000488281,3397307.3959350586,16916801.45263672,25837511.06262207,26265388.48876953,21859716.415405273,-10664106.369018555,-1174378.3950805664,-5181880.950927734,1414351.5825271606,3424381.971359253,6145196.914672852,32016159.057617188,22969068.52722168,20568563.46130371,-6754198.07434082,-25305870.056152344,-17815567.016601562,-8693505.28717041,-6360428.333282471,663861.870765686,-12070023.536682129,19170001.983642578,21328201.293945312,-3194939.136505127,-19982376.098632812,14401399.612426758,-9550485.610961914,820508.6588859558,4179287.910461426,-2915813.92288208,18779727.935791016,19825925.827026367,-7072814.464569092,-2876776.695251465,-3046612.9779815674,13893029.21295166,-6714099.407196045,-15493858.337402344,-2670713.9015197754,-3712563.5147094727,-3562619.209289551,-14422092.43774414,-14249510.765075684,-13965735.43548584,-6545738.697052002,-2994305.13381958,-2537409.3055725098,-3381113.7676239014,-2651504.2781829834,-5205544.948577881,-9156590.461730957,-2755015.6116485596,-3001553.535461426
0.235,40154094.69604492,19327472.686767578,32003879.54711914,12091046.333312988,21692628.860473633,6268751.14440918,6705246.925354004,5433311.462402344,15675070.762634277,3779188.394546509,18482671.7376709,28438150.40588379,28810085.29663086,24475730.895996094,-8265284.538269043,192049.36921596527,-5914899.3492126465,-464706.27188682556,4475153.44619751,7680295.944213867,35656833.64868164,27078355.78918457,23190309.524536133,-3795507.1926116943,-24648689.27001953,-16309427.261352539,-7592818.737030029,-5177228.4507751465,2087625.0267028809,-8880482.67364502,22119659.423828125,23878339.767456055,-2207028.1505584717,-19095026.01623535,16434389.114379883,-8492341.995239258,762257.8144073486,3622817.277908325,-239357.1436405182,22975578.30810547,24136705.39855957,-6851095.676422119,-3114801.8836975098,-3340136.5280151367,11791137.6953125,-7260498.046875,-17301277.16064453,47387.22741603851,-834150.3143310547,-769989.6693229675,-13859793.663024902,-13799592.971801758,-13445733.070373535,-7228670.120239258,-68834.64753627777,316976.4280319214,-633888.7214660645,-1691087.6035690308,-3939439.296722412,-6607640.266418457,107836.7531299591,481453.2995223999
0.24,45445533.752441406,23220598.220825195,40721393.58520508,16517425.537109375,26706342.697143555,11865504.264831543,12212869.644165039,10936453.819274902,18481412.887573242,7184580.8029174805,22609800.338745117,35951595.306396484,36306915.283203125,34082313.537597656,-1825071.5732574463,5722565.174102783,-3807210.683822632,357543.61748695374,6528369.903564453,12733200.073242188,43348644.2565918,38635089.87426758,32703876.495361328,4029711.7233276367,-20107198.71520996,-13023153.305053711,-6596742.630004883,-3179224.0142822266,8892508.506774902,-282306.5221309662,30421636.5814209,33602970.123291016,4686128.616333008,-13722948.07434082,18329120.635986328,-8887612.342834473,730142.4741744995,4533486.366271973,7310868.263244629,32533744.81201172,33887336.73095703,-27685.176581144333,1646722.7935791016,1269260.6449127197,11613839.149475098,-4382266.998291016,-16588666.915893555,8676906.58569336,8060365.676879883,8049202.919006348,-6985047.817230225,-7172075.271606445,-6766168.594360352,-4326305.866241455,8833041.191101074,9113925.93383789,8153953.552246094,7074458.599090576,4820713.996887207,1219868.3023452759,8845015.525817871,9249928.47442627
0.245,50883045.1965332,28002702.713012695,49784690.856933594,21801273.345947266,29877796.173095703,17718170.166015625,17978866.577148438,16701004.028320312,22041339.874267578,12677540.77911377,26897476.196289062,40467372.89428711,40823692.321777344,40868968.96362305,4143138.885498047,11794546.127319336,214045.34578323364,2623786.9262695312,10102814.674377441,18389919.28100586,46833110.80932617,44061046.6003418,39463504.791259766,10880233.764648438,-15795434.951782227,-9964768.409729004,-5561065.196990967,-377382.0102214813,15760205.268859863,1225686.3117218018,31653856.27746582,40577659.606933594,10772891.998291016,-8807640.075683594,20841363.90686035,-8103494.644165039,650828.3615112305,4763590.335845947,9283165.93170166,35145713.806152344,36620639.80102539,5370512.48550415,6768166.542053223,6276648.998260498,10119054.794311523,-3235810.2798461914,-17287345.88623047,10862552.642822266,10365193.367004395,10449677.467346191,-2519428.491592407,-2748415.946960449,-2261601.448059082,-3060190.439224243,11111652.374267578,11375825.881958008,10504359.245300293,13753661.155700684,10024087.905883789,4205133.91494751,11029602.05078125,11151843.070983887
0.25,54894664.7644043,30434909.82055664,52581539.154052734,25726459.503173828,29291944.50378418,20558099.7467041,20945535.65979004,19635730.743408203,25745031.356811523,17225662.231445312,28651903.15246582,38530765.533447266,38882472.99194336,39183151.24511719,7112185.478210449,16823747.634887695,4794234.752655029,4337825.298309326,13099934.577941895,20548419.952392578,42798831.939697266,37911285.400390625,37882492.06542969,13736561.77520752,-12439444.541931152,-5723991.870880127,-3351183.1760406494,538585.3052139282,17349256.51550293,-8252270.698547363,22131074.905395508,38939697.265625,12425630.569458008,-6008694.648742676,26642297.744750977,-4407734.8709106445,547056.9729804993,1866356.0152053833,1487154.245376587,27307809.829711914,28778869.62890625,5935680.866241455,10001117.706298828,9540365.219116211,8887939.453125,-6172454.357147217,-19742433.547973633,3291692.7337646484,2650340.5570983887,3011152.0290374756,-3119508.2664489746,-3043946.0277557373,-2561218.9769744873,-5917048.931121826,3397748.4703063965,3789167.4041748047,2915518.283843994,14458036.422729492,8560733.795166016,758674.6215820312,3380160.8085632324,5206864.356994629
0.255,55582099.91455078,28975698.471069336,48909172.05810547,26492860.794067383,27741771.697998047,19056222.915649414,19678844.451904297,18378084.182739258,27462343.215942383,18497800.827026367,27387748.71826172,34156486.51123047,34509162.90283203,32624065.399169922,6239314.079284668,18794149.39880371,6735629.558563232,4675391.674041748,12984237.670898438,19587858.200073242,36914402.00805664,29039627.075195312,31488811.492919922,12204692.840576172,-10972073.554992676,-1611997.127532959,-704658.8063240051,-2280497.7893829346,14382498.741149902,-17543777.465820312,12040523.529052734,32278556.82373047,10164454.460144043,-5514169.216156006,32831325.53100586,-795391.1423683167,555833.9357376099,-1993901.014328003,-7575890.54107666,17564250.946044922,18969274.520874023,3730909.3475341797,10331541.061401367,10020339.012145996,10009560.585021973,-10215363.502502441,-21743188.858032227,-5663531.78024292,-6543516.159057617,-5968325.138092041,-5278978.34777832,-4840146.541595459,-4532222.747802734,-9894907.95135498,-5747630.1193237305,-5229844.570159912,-6209436.416625977,11962696.075439453,5544553.279876709,-2352167.844772339,-5624984.264373779,-636660.099029541
0.26,51790828.704833984,24797803.87878418,43612892.150878906,23129608.154296875,27135055.541992188,14245296.478271484,14876353.26385498,13698042.869567871,25466747.283935547,16241548.538208008,24529485.70251465,32417579.650878906,32801433.563232422,28215663.90991211,1632901.7877578735,15134730.339050293,3538139.1048431396,3739464.282989502,9688438.415527344,18731752.395629883,35763565.06347656,27823148.727416992,27185121.536254883,7910979.747772217,-13367567.06237793,-2540019.0353393555,-798830.2707672119,-7066760.063171387,11586452.48413086,-16415302.276611328,11493100.1663208,27789810.180664062,6307145.595550537,-8015259.742736816,33268299.102783203,-2329867.362976074,646300.4946708679,-1803564.5484924316,-7855227.470397949,15228001.594543457,16547861.099243164,1348171.9493865967,7539365.768432617,7385762.2146606445,11431064.60571289,-11204637.52746582,-21501083.374023438,-7745352.745056152,-8716815.948486328,-8194430.351257324,-6479678.153991699,-6003108.501434326,-5952261.924743652,-10744479.179382324,-7912092.208862305,-7412775.51651001,-8370792.388916016,9187325.477600098,4545303.3447265625,-1495167.3746109009,-7654915.332794189,-2041045.904159546
0.265,46841091.15600586,22210874.557495117,42702213.287353516,18173377.990722656,26554264.068603516,10490573.88305664,10798151.016235352,9775760.650634766,21687936.782836914,12465075.492858887,21933353.424072266,33805759.42993164,34223262.786865234,29325613.021850586,-3691422.462463379,8169712.066650391,-1681973.8149642944,2489911.5562438965,5867247.581481934,18639890.670776367,38904544.830322266,33365756.98852539,28291332.244873047,5114288.330078125,-17463983.5357666,-8534237.8616333,-4896315.574645996,-10468150.13885498,11604414.939880371,-9777657.508850098,18261550.903320312,28967578.887939453,4031624.3171691895,-12135955.810546875,28484024.047851562,-9372176.170349121,606528.2225608826,3307097.1965789795,-903164.4463539124,20609165.19165039,21795204.162597656,51029.65608239174,4255894.184112549,4182912.3497009277,10451590.538024902,-9019589.4241333,-19102338.790893555,-3862155.4374694824,-4732654.571533203,-4431993.9613342285,-7418053.150177002,-7226047.515869141,-7358552.4559021,-8407376.289367676,-4041450.5004882812,-3616746.425628662,-4345693.588256836,6956294.059753418,4233192.920684814,-250685.6918334961,-3650543.212890625,-1102488.398551941
0.27,46705142.974853516,25041107.177734375,48157337.1887207,16692417.14477539,26063293.45703125,12151251.792907715,12106797.218322754,11112968.444824219,20332609.176635742,10360538.482666016,21000583.64868164,35988624.572753906,36361934.661865234,34478847.50366211,-4711067.199707031,5305520.534515381,-2533669.948577881,2647636.651992798,4228228.569030762,17700283.05053711,41541584.01489258,37648212.43286133,33417213.439941406,7427505.016326904,-17221824.645996094,-12023006.439208984,-9439927.101135254,-11381237.030029297,13396043.77746582,-8262209.892272949,23747516.632080078,34306636.810302734,5670580.3871154785,-13857026.100158691,25975236.892700195,-16201444.625854492,401243.74628067017,8434131.622314453,3784093.141555786,27271028.518676758,28287017.822265625,567714.8699760437,4163246.6316223145,4072403.907775879,8766818.046569824,-7070908.069610596,-16561223.983764648,-196576.47609710693,-901615.6792640686,-751413.3453369141,-8552054.405212402,-8618771.55303955,-8801442.14630127,-6431148.529052734,-385490.357875824,90523.55587482452,-477610.34965515137,5918582.916259766,3528650.999069214,-2034336.5669250488,115738.93576860428,530920.0286865234
0.275,52179729.46166992,31471448.89831543,55097072.60131836,20246713.638305664,27767906.188964844,17617750.16784668,17522281.646728516,16395244.598388672,22515693.66455078,11590124.130249023,22093128.204345703,37898406.982421875,38134464.263916016,39713497.161865234,-661178.8868904114,9590960.502624512,1854462.0275497437,4687854.290008545,4950980.186462402,16353723.526000977,41800186.15722656,37745468.13964844,38720893.85986328,12324937.82043457,-11544394.493103027,-8442494.39239502,-10276207.92388916,-11452119.827270508,15025446.891784668,-11415988.92211914,25389831.54296875,39707637.786865234,9342652.320861816,-11878110.885620117,28984056.47277832,-17573989.868164062,275262.326002121,9273494.720458984,2490172.3861694336,30004003.524780273,30921625.1373291,2047273.1590270996,6519262.790679932,6335508.346557617,9574522.018432617,-7320961.475372314,-16325572.967529297,98291.7919754982,-488548.6662387848,-347813.57645988464,-9101022.720336914,-9198894.500732422,-9352169.99053955,-6767905.235290527,-62397.7854847908,563772.439956665,-160935.49132347107,6137140.75088501,3768099.546432495,-5061286.926269531,447548.2702255249,3453653.573989868
0.28,56970329.28466797,35405853.271484375,56746833.80126953,24537328.720092773,31737997.05505371,20455585.479736328,20553604.125976562,19269052.505493164,24927200.317382812,14342771.530151367,24166007.99560547,40007408.142089844,40131427.76489258,41202770.2331543,2623853.4450531006,14669428.825378418,5148441.314697266,6382719.039916992,6035580.635070801,16651323.318481445,41622333.52661133,37678287.506103516,40347904.205322266,13326055.526733398,-7089996.814727783,-3858773.2315063477,-8276287.078857422,-12380619.049072266,15275892.25769043,-10644172.668457031,26672906.87561035,41210231.78100586,10057907.104492188,-10265100.479125977,31932857.513427734,-14313109.397888184,378042.0422554016,6873070.71685791,303073.61483573914,28511543.27392578,29476390.838623047,1710731.7447662354,6642330.169677734,6351438.045501709,11866505.62286377,-7748294.353485107,-18086763.381958008,-1309491.2767410278,-1851221.5614318848,-1685860.03780365,-9343920.707702637,-9406108.856201172,-9511044.5022583,-7284662.72354126,-1387251.7347335815,-706695.8546638489,-1725057.9595565796,5848056.793212891,5106947.898864746,-6196764.4691467285,-953128.0994415283,5996891.975402832
0.285,56301326.751708984,34154827.11791992,53078693.38989258,25386648.178100586,34564033.50830078,18172683.715820312,18386976.24206543,17069454.193115234,25093809.127807617,15456534.385681152,25569969.177246094,42094505.310058594,42264095.306396484,38160552.978515625,101994.73053216934,13714793.20526123,3202867.269515991,5600388.526916504,6114398.47946167,17887205.123901367,41986801.14746094,39767265.31982422,37325500.48828125,9089717.864990234,-8522820.472717285,-5900985.240936279,-7475646.495819092,-13946138.381958008,13597426.414489746,-5347073.554992676,28338455.200195312,38019859.313964844,6338994.026184082,-12442566.871643066,30111104.96520996,-10772310.256958008,532575.4284858704,4689534.1873168945,1134119.5106506348,25578880.310058594,26658021.926879883,-1519034.743309021,3314180.612564087,2968808.889389038,12225834.846496582,-5399455.0704956055,-17873479.84313965,-1777885.4370117188,-2329735.517501831,-2178872.82371521,-10452068.328857422,-10598440.170288086,-10619846.34399414,-5026120.185852051,-1815779.5667648315,-1221898.5557556152,-2290699.7203826904,4028577.8045654297,5595732.688903809,-4950057.9833984375,-1400702.5957107544,5057209.9685668945
0.29,53417362.213134766,31505762.100219727,50790298.46191406,24016473.7701416,33745334.62524414,15472965.240478516,15594227.79083252,14377651.21459961,24769369.12536621,14312702.178955078,25532917.022705078,42720291.13769531,43068027.49633789,34028030.39550781,-5430033.6837768555,9131154.06036377,-78039.5194888115,3837763.547897339,6036076.068878174,16943546.295166016,41151660.91918945,40612339.01977539,32985843.658447266,5509848.594665527,-11510698.318481445,-11843820.571899414,-8711235.046386719,-14746383.666992188,10793345.45135498,-4580229.759216309,27012001.037597656,33732482.91015625,2684119.22454834,-15666522.979736328,27357387.54272461,-8874417.304992676,535388.5293006897,3916462.4214172363,1935466.8855667114,23739807.12890625,24858659.744262695,-4562327.861785889,1263009.9058151245,918151.7958641052,11157296.180725098,-675109.9228858948,-12956662.17803955,-753204.345703125,-1338319.0631866455,-1202788.5913848877,-11940464.973449707,-12191559.791564941,-12043701.171875,-470648.6463546753,-860015.2730941772,-322835.14738082886,-1170371.413230896,2870593.0709838867,4922185.897827148,-2164822.578430176,-346320.89734077454,2196080.446243286
0.295,53562389.3737793,31374296.188354492,53339637.756347656,23348789.21508789,30779325.485229492,16202688.217163086,16225011.825561523,15125099.182128906,25761741.638183594,12778218.269348145,24392156.60095215,40953163.146972656,41451465.60668945,32768493.65234375,-7941317.081451416,7674258.708953857,138916.015625,3909856.7962646484,6904416.084289551,13384462.356567383,38156517.028808594,37282005.310058594,31439275.74157715,6492990.016937256,-10361803.05480957,-13081569.67163086,-9083326.33972168,-14182057.38067627,8981204.986572266,-11585805.892944336,22526639.938354492,32460708.618164062,2930963.2778167725,-15535604.476928711,29217510.223388672,-7234524.726867676,448269.21820640564,3808340.549468994,-685791.9692993164,23306892.39501953,24355630.87463379,-4266032.695770264,3789152.8606414795,3438460.8268737793,12546781.539916992,2858025.7892608643,-6850884.914398193,247860.47637462616,-366513.34166526794,-190417.8112745285,-12167957.305908203,-12350076.675415039,-11999946.594238281,2868602.991104126,67366.65219068527,666012.2871398926,-48442.404717206955,4553339.004516602,5205834.865570068,1313360.095024109,648191.2136077881,2637433.7673187256
0.3,55589584.35058594,32509971.618652344,56287719.7265625,22672519.68383789,28617410.65979004,17261672.973632812,17382658.004760742,16296752.9296875,25847709.65576172,11793996.810913086,22749338.150024414,37879531.86035156,38403457.64160156,34255077.36206055,-7035761.833190918,9636155.128479004,1605450.6301879883,4679054.737091064,7656312.942504883,10359392.166137695,35248168.9453125,32973209.381103516,32806335.44921875,8335118.293762207,-7348925.590515137,-8610350.608825684,-7664972.305297852,-13323158.264160156,8916189.193725586,-17498096.466064453,20214437.48474121,34011726.37939453,4929782.867431641,-13218359.94720459,33637233.73413086,-5147580.623626709,409047.1863746643,4287952.423095703,-3789539.8139953613,23204668.045043945,24176103.591918945,-1952407.4792861938,7611849.784851074,7228181.3621521,16859155.654907227,2862863.302230835,-5514977.931976318,-273812.6814365387,-924268.901348114,-647474.5273590088,-11070711.135864258,-11068115.234375,-10665078.163146973,2822803.020477295,-392795.74155807495,229400.81357955933,-647993.5050010681,7422587.3947143555,7307604.789733887,3730170.0115203857,50636.76834106445,7137590.408325195
0.305,54738315.58227539,32247421.264648438,55342182.15942383,20277053.833007812,28330034.255981445,14777851.104736328,15094018.936157227,13910758.972167969,22587593.07861328,10519869.804382324,21125226.974487305,36057312.01171875,36540901.18408203,35396858.21533203,-6866811.752319336,9875818.252563477,-476893.27597618103,2212560.8921051025,6240622.043609619,9551429.748535156,35154605.865478516,33001987.45727539,34060764.31274414,7185184.478759766,-7875117.778778076,-5573535.919189453,-7144913.196563721,-13744069.09942627,8588043.212890625,-15073872.566223145,23563388.82446289,35105197.90649414,5316778.659820557,-12967411.041259766,35029941.55883789,-4181969.165802002,364686.4593029022,5785907.26852417,-2510869.9798583984,23420639.038085938,24427230.834960938,-657170.5341339111,8742688.179016113,8367851.257324219,20088685.989379883,1161081.5525054932,-8659367.561340332,-1552854.5379638672,-2258757.8296661377,-1888497.9486465454,-9730293.273925781,-9664526.93939209,-9444044.11315918,1251676.082611084,-1503418.0879592896,-1032247.3049163818,-2123040.4376983643,8834191.32232666,9674976.348876953,3924844.0265655518,-1341387.0334625244,10550182.342529297
0.31,50975238.80004883,31305934.90600586,53317581.17675781,18358762.741088867,29174917.221069336,11682636.260986328,12040675.163269043,10754747.39074707,18582729.33959961,8818388.938903809,19966142.654418945,36993675.231933594,37475448.60839844,35049716.94946289,-7966814.994812012,7698230.743408203,-4305717.945098877,-3217901.2298583984,2807231.1878204346,8905484.199523926,37461818.69506836,37353870.3918457,33918571.47216797,6522950.649261475,-10189733.505249023,-6960938.930511475,-8490214.347839355,-15548825.26397705,6704735.75592041,-9985983.848571777,28801986.694335938,34608165.7409668,5659207.344055176,-14247290.61126709,34281883.239746094,-5172145.843505859,217710.01815795898,7730234.146118164,2125102.758407593,25261320.114135742,26428674.697875977,-27529.140934348106,9164271.354675293,8884172.439575195,20281782.150268555,1250936.6273880005,-9780820.846557617,-1064300.4179000854,-1784876.4657974243,-1459733.009338379,-7973038.196563721,-8021095.275878906,-8011351.585388184,1492647.7670669556,-900242.9842948914,-608770.0128555298,-1638206.3627243042,9677863.121032715,11246254.920959473,4034413.3377075195,-901903.9869308472,9919100.761413574
0.315,49044860.83984375,31308132.17163086,54517730.712890625,20254323.959350586,30081371.307373047,13398168.563842773,13623643.87512207,12327163.696289062,18502180.099487305,8051808.3572387695,19228157.04345703,39200271.60644531,39733398.4375,35004440.30761719,-6406131.267547607,8044484.1384887695,-3536164.9990081787,-5759173.393249512,28262.47364282608,6957179.546356201,39442512.51220703,40778289.794921875,34032985.68725586,11228315.353393555,-7831738.471984863,-7615563.869476318,-8457995.414733887,-16926269.53125,5951297.283172607,-11516723.6328125,29790468.215942383,34554737.09106445,8861509.323120117,-12422297.477722168,37149032.59277344,-6310400.485992432,75373.39627742767,9041125.297546387,4566514.96887207,28503124.237060547,29837343.215942383,1966345.3102111816,12581376.075744629,12399145.126342773,20179964.065551758,3776071.071624756,-6007023.334503174,1776926.1598587036,1155883.9082717896,1235815.405845642,-5351623.058319092,-5500890.731811523,-5435001.850128174,4033284.1873168945,1914838.3140563965,2244420.051574707,1483450.6511688232,12074674.606323242,12353199.95880127,6868451.118469238,2044053.316116333,8554414.749145508
0.32,51348506.927490234,31021997.451782227,57089130.40161133,24461324.69177246,30242918.014526367,18894176.483154297,19056253.43322754,17813306.80847168,22088300.704956055,8806653.022766113,18477769.85168457,39885520.935058594,40467823.02856445,36262134.55200195,-1517074.1081237793,12157390.594482422,2296128.749847412,-2018857.0022583008,18849.989399313927,5946096.420288086,39874572.75390625,40146976.470947266,35360523.22387695,18060939.78881836,-1124946.2366104126,-4823884.010314941,-5340409.755706787,-16180032.730102539,9335092.544555664,-17995613.09814453,25941938.400268555,36040519.71435547,12313333.511352539,-7521379.9476623535,43413619.99511719,-6029025.554656982,121035.59076786041,9200268.745422363,2623342.990875244,30345861.434936523,31697467.803955078,3790795.5646514893,16503530.502319336,16308546.06628418,21362525.939941406,6002496.719360352,-2399201.6315460205,3665871.3817596436,3192346.5728759766,3002989.0537261963,-4007461.5478515625,-4127790.927886963,-3757273.6740112305,6136088.3712768555,3700238.4662628174,4265552.043914795,3635567.9035186768,14127294.540405273,12228261.947631836,10209736.824035645,4156690.5975341797,9649633.407592773
0.325,55764743.80493164,29308094.024658203,56796504.974365234,26460731.506347656,29750556.94580078,22471557.6171875,22784736.63330078,21550003.051757812,24566318.51196289,9838735.580444336,17899501.80053711,38661933.89892578,39264961.24267578,37803005.21850586,2134001.7318725586,14964134.216308594,6499454.498291016,3458163.022994995,2091739.4161224365,7984326.362609863,39998405.45654297,38328659.05761719,36850166.32080078,19918920.516967773,2484905.004501343,-3605767.9653167725,-2920487.16545105,-13998731.61315918,14250802.993774414,-19929309.844970703,22322549.81994629,37770908.35571289,11420659.065246582,-5319411.277770996,46184226.989746094,-5575411.796569824,344543.2186126709,7802021.9802856445,-162336.42399311066,29397331.23779297,30591207.50427246,2360191.1067962646,15405998.229980469,15117311.477661133,20991048.81286621,6101245.880126953,-3395958.90045166,1766155.481338501,1312456.1309814453,1120671.9875335693,-6320568.084716797,-6406800.270080566,-5809746.742248535,6056641.101837158,1725476.622581482,2439778.3279418945,1681264.9965286255,12314976.692199707,9625337.600708008,8948816.299438477,2431514.7399902344,11385451.316833496
0.33,59976776.123046875,28804367.065429688,54817310.33325195,25534076.690673828,29955209.732055664,22727964.401245117,23226064.682006836,21927003.860473633,23705223.083496094,10015384.674072266,18316669.464111328,38058750.15258789,38666378.021240234,39297340.393066406,2369510.4122161865,13994074.821472168,5404947.280883789,4359901.905059814,3947678.804397583,10956770.896911621,40726245.88012695,39515007.01904297,38154987.33520508,17621738.43383789,429893.04661750793,-6920859.813690186,-4801880.836486816,-12793232.917785645,14787635.803222656,-14628254.890441895,22860569.00024414,39120002.74658203,8534871.101379395,-7696494.102478027,43512710.57128906,-6572969.913482666,605588.3169174194,4406807.899475098,-113975.66646337509,28740304.946899414,29769279.47998047,-259037.584066391,10549208.641052246,10238262.176513672,17406194.68688965,5906954.288482666,-5417678.8330078125,-1169957.2801589966,-1783392.071723938,-1685280.442237854,-9707432.746887207,-9886725.425720215,-9347302.436828613,5717319.488525391,-1223407.6261520386,-626517.5342559814,-1528004.8847198486,8419989.585876465,6670533.180236816,3795259.952545166,-530129.611492157,11545114.517211914
0.335,63257984.16137695,31928426.74255371,55116287.23144531,24799785.614013672,31639015.197753906,23314458.8470459,23779846.19140625,22445535.65979004,22077474.59411621,9480211.25793457,19365701.67541504,39496612.548828125,40075870.513916016,41675109.86328125,3302758.9321136475,14019093.51348877,3508606.195449829,1292817.1157836914,4046459.197998047,11266373.634338379,40666446.685791016,42929210.6628418,40316925.048828125,19193664.55078125,-837053.3585548401,-8548852.920532227,-8083930.015563965,-13723555.564880371,10232793.807983398,-9228105.545043945,25869085.31188965,41137676.23901367,11009649.276733398,-8349073.41003418,42702999.114990234,-7527889.728546143,849163.4130477905,-11145.655065774918,1969004.75025177,31842153.549194336,32884254.455566406,1865637.0639801025,9591187.477111816,9414019.584655762,14502055.168151855,7921226.978302002,-3076458.9309692383,223633.70656967163,-574380.2189826965,-210879.05764579773,-8366120.338439941,-8678377.151489258,-8357396.125793457,7705867.767333984,169625.05877017975,522018.7306404114,-293178.4689426422,8385733.604431152,7889373.779296875,2009304.7618865967,665424.5853424072,12264292.71697998
0.34,64358207.70263672,35694145.20263672,56769027.70996094,25177911.75842285,33140262.603759766,25419788.360595703,25681661.60583496,24425794.60144043,22070299.14855957,8586071.968078613,19175037.384033203,40962444.30541992,41438236.236572266,44205810.546875,8309978.485107422,18763563.15612793,5800611.0191345215,13545.090332627296,2659144.401550293,9129153.25164795,38408325.1953125,44003688.81225586,42800121.30737305,27002256.393432617,3394753.4561157227,-2843283.176422119,-7601742.744445801,-15388100.624084473,6824116.230010986,-9156081.199645996,26723630.905151367,43483272.552490234,19489564.895629883,-2307261.9438171387,48871246.337890625,-5796227.931976318,1046737.0748519897,-3131379.8427581787,2911884.069442749,36748222.35107422,37953128.814697266,9175107.955932617,15318981.170654297,15340010.643005371,16071640.014648438,10835453.033447266,1308457.0169448853,5839238.64364624,4966490.745544434,5339999.198913574,-1731047.7495193481,-2057813.8828277588,-1922937.3931884766,10749956.130981445,5721912.384033203,5961813.449859619,5384250.164031982,13474537.84942627,13610065.460205078,6639724.7314453125,6084986.686706543,15972522.735595703
0.345,62015991.2109375,35413619.99511719,55500354.7668457,24348014.83154297,32190269.470214844,25730133.056640625,25887262.34436035,24779979.705810547,22680360.794067383,7414567.947387695,17162771.224975586,40205642.70019531,40520118.713378906,44171661.376953125,13442116.737365723,23314708.709716797,9787791.25213623,2513796.56791687,1453295.4692840576,7853394.031524658,35216999.05395508,40922222.13745117,42936843.87207031,33126319.885253906,7917979.717254639,3975496.768951416,-4455529.689788818,-15901079.177856445,9213228.225708008,-11257515.907287598,23173189.163208008,43578517.91381836,24882286.071777344,4964770.793914795,55459995.26977539,-2694187.641143799,1042960.7629776001,-4134138.1072998047,1527027.8453826904,37985328.674316406,39305183.41064453,13755898.475646973,20697801.58996582,20812734.603881836,18943094.25354004,10476089.477539062,1042675.4951477051,8994006.156921387,8097229.957580566,8382941.246032715,2803549.5281219482,2553749.7997283936,2597512.96043396,10567166.328430176,8742247.581481934,9073693.27545166,8628661.155700684,17338684.08203125,17667749.404907227,10460220.336914062,9177098.274230957,19640426.635742188
0.35,58213691.71142578,32013195.037841797,51879665.37475586,22039369.583129883,29420288.0859375,22971214.294433594,23202219.009399414,22222917.556762695,22450029.373168945,6749166.011810303,15691420.555114746,38312900.54321289,38518779.75463867,41125942.23022461,12647244.453430176,20738075.256347656,9517307.28149414,4659811.019897461,2116792.4404144287,8630793.571472168,33444412.231445312,37152988.43383789,40112174.98779297,30565778.732299805,5639481.544494629,1438017.0106887817,-4570771.217346191,-15259723.663330078,14072434.425354004,-10704379.081726074,17360221.86279297,40739933.013916016,20270709.991455078,4271919.250488281,53087635.0402832,-3149530.1723480225,724655.6878089905,-4761355.400085449,-593364.1195297241,34177616.119384766,35476737.97607422,9149694.442749023,18423538.208007812,18445474.62463379,17151027.67944336,5467538.833618164,-4071026.32522583,5183924.674987793,4216728.210449219,4549386.024475098,-1264233.946800232,-1494562.8643035889,-1375596.6424942017,5617500.305175781,4830639.362335205,5308424.472808838,4787051.200866699,14291770.935058594,14595227.241516113,5571690.559387207,5398252.010345459,18238243.103027344
0.355,57063171.38671875,30455675.12512207,51181201.93481445,21396987.915039062,27753332.138061523,21014690.399169922,21274852.752685547,20380575.18005371,22219762.802124023,7613347.053527832,16962476.73034668,37935546.875,38192459.10644531,38689243.31665039,7085656.16607666,13266801.834106445,5013368.129730225,3224586.248397827,4517644.40536499,9368152.618408203,33071594.23828125,36858230.59082031,37778450.01220703,23185775.756835938,-753358.9005470276,-8529113.76953125,-8834114.074707031,-14750695.22857666,14939844.131469727,-8424575.805664062,13531732.559204102,38376739.501953125,10791988.372802734,-3648805.618286133,44470355.98754883,-8780635.833740234,288495.12338638306,-6144693.374633789,-1360414.0281677246,29998680.114746094,31257396.697998047,-572288.5131835938,11177669.525146484,10987272.262573242,11384516.716003418,-210612.63978481293,-7306309.700012207,-1582843.6613082886,-2606437.2062683105,-2184689.521789551,-10599112.510681152,-10886967.658996582,-10429167.747497559,-111586.42172813416,-1885671.3771820068,-1366196.7515945435,-2053318.2621002197,7035604.953765869,6942097.187042236,-4684322.834014893,-1373790.6217575073,12681936.264038086
0.36,59414047.24121094,31616319.65637207,54454624.17602539,23514995.574951172,28260641.09802246,22701442.71850586,22788948.05908203,21954364.776611328,23011116.02783203,9271987.915039062,19472024.91760254,39353485.107421875,39798130.03540039,39856868.743896484,3791376.1138916016,9874349.594116211,2186866.044998169,666171.9083786011,6259226.322174072,8920050.621032715,32340103.149414062,40066429.138183594,38943630.21850586,19714895.248413086,-2356894.016265869,-13078785.89630127,-11087075.233459473,-14865208.625793457,10618284.225463867,-7398799.419403076,14510528.564453125,39556705.474853516,6874885.082244873,-8457659.721374512,41840000.15258789,-14434690.475463867,62712.92269229889,-6427400.1121521,80491.95259809494,29574760.43701172,30858459.47265625,-5747618.675231934,7694923.400878906,7333232.879638672,8432675.3616333,-1597033.143043518,-5451464.653015137,-4050387.382507324,-5008560.1806640625,-4679581.165313721,-15767143.249511719,-16082086.563110352,-15183096.885681152,-1463360.4288101196,-4189859.390258789,-3740284.4429016113,-4527200.222015381,3130142.2119140625,2383194.6849823,-9394162.17803955,-3936781.406402588,9498128.890991211
0.365,61391578.674316406,30950437.545776367,55928676.60522461,24640890.12145996,28788309.09729004,24543737.411499023,24453548.431396484,23645084.381103516,23427061.080932617,9278744.6975708,19714807.510375977,40381374.35913086,40993602.75268555,42422588.34838867,5073806.7626953125,12865142.822265625,3546057.2242736816,501290.4405593872,4982636.451721191,8976210.594177246,31291797.637939453,43312713.623046875,41490638.732910156,21229059.21936035,2195443.1533813477,-7547391.891479492,-8003432.273864746,-15090384.483337402,5304080.963134766,-6358552.4559021,19370838.165283203,42189075.4699707,10249588.966369629,-5020000.457763672,49322868.34716797,-14494230.270385742,83506.46495819092,-3823790.3118133545,2939478.874206543,31126722.33581543,32402626.037597656,-3607748.7468719482,10568645.477294922,10205313.682556152,10966263.771057129,1382458.9252471924,-3062608.242034912,-1113924.3841171265,-1949765.3245925903,-1807592.9880142212,-13175951.957702637,-13474585.53314209,-12420312.881469727,1738979.1011810303,-1177613.0199432373,-812663.0187034607,-1584442.0194625854,5541402.816772461,4309030.532836914,-4651156.425476074,-1118123.8889694214,11828849.792480469
0.37,59715824.127197266,26228853.225708008,51817512.51220703,21610589.9810791,27492431.640625,21645915.985107422,21663984.298706055,20852619.171142578,21733526.2298584,6608514.785766602,16979223.251342773,39688220.9777832,40307876.58691406,41739208.22143555,5017098.903656006,14211994.171142578,4554525.375366211,1627090.334892273,1275645.8520889282,10424925.804138184,31710756.301879883,43683712.005615234,40776218.41430664,20836299.896240234,4313073.15826416,-2659043.073654175,-5007441.997528076,-15278374.671936035,2152009.4871520996,-2810876.1310577393,23705236.434936523,41528625.48828125,12614903.450012207,-630607.3665618896,56621082.3059082,-10503362.655639648,115091.62932634354,-623469.0546989441,5032190.322875977,30306705.474853516,31454338.07373047,-916177.7496337891,13319247.245788574,13111722.946166992,13606854.438781738,4002521.03805542,-4502112.38861084,1626079.5593261719,796189.01014328,956942.3198699951,-9077775.001525879,-9419287.68157959,-8571315.76538086,4614625.930786133,1418351.7694473267,1747046.3514328003,1068554.6398162842,9872813.22479248,8302491.188049316,1533962.9650115967,1567444.920539856,14943532.943725586
0.375,55884994.50683594,21924686.431884766,46969371.7956543,17220272.064208984,25725181.579589844,15692104.33959961,16046773.910522461,15258600.234985352,19241052.627563477,3531023.9791870117,14329334.259033203,38426937.103271484,38915889.739990234,37457374.572753906,-1337116.2414550781,7680871.00982666,1086663.842201233,714968.2641029358,-1567253.3512115479,11042462.348937988,33747043.60961914,41463924.407958984,36409698.486328125,14945757.865905762,-1653408.2889556885,-8203637.12310791,-8244029.0451049805,-15778016.090393066,822689.4736289978,564634.7403526306,23246461.868286133,37102550.5065918,7925506.114959717,-3811739.206314087,53794021.60644531,-8899459.838867188,87800.08554458618,-1081484.5561981201,4377487.1826171875,26877029.418945312,27897773.74267578,-3844391.345977783,10158637.046813965,10123286.247253418,11136458.396911621,2445054.769515991,-7581312.17956543,-95781.01336956024,-1060919.6424484253,-660776.2575149536,-10737131.118774414,-11174913.40637207,-10442651.748657227,3135279.893875122,-547508.5973739624,-227519.36316490173,-794620.9907531738,10646620.750427246,8306026.458740234,90899.25140142441,-132036.83495521545,12930434.226989746
0.38,53702976.22680664,23420869.827270508,48546363.830566406,16926362.991333008,26139053.344726562,13687546.730041504,14238371.849060059,13520057.678222656,19156988.1439209,3191012.382507324,14564303.398132324,38461021.423339844,38833343.505859375,34451164.24560547,-9538596.153259277,-1322201.7288208008,-3895998.71635437,-1710486.2928390503,-1054265.1414871216,8976637.840270996,35296989.44091797,39385463.71459961,33305152.893066406,9033770.561218262,-9557381.629943848,-18068267.822265625,-14789045.333862305,-16248348.236083984,888686.9549751282,-1419226.884841919,18437345.504760742,33922790.52734375,708143.4726715088,-11433263.778686523,45271034.240722656,-11668024.063110352,201129.09376621246,-5544919.490814209,1466815.5908584595,25056303.024291992,26109777.450561523,-9644012.451171875,4090188.980102539,4107350.8262634277,5962104.797363281,-1845012.1879577637,-8366963.3865356445,-4222787.380218506,-5296632.766723633,-4756157.875061035,-16982240.676879883,-17416383.743286133,-16341255.187988281,-1256430.983543396,-4770099.16305542,-4469890.117645264,-4958508.491516113,7673496.246337891,3989873.170852661,-7765654.563903809,-4191604.1374206543,7078608.989715576
0.385,54139041.900634766,29268774.032592773,55128902.435302734,21162742.614746094,28805965.423583984,18587663.650512695,19001314.163208008,18317308.42590332,22025499.34387207,5725326.5380859375,16736566.543579102,39837940.21606445,40218246.45996094,36310626.98364258,-10668484.687805176,-2887006.998062134,-4691700.458526611,-1718107.2235107422,1685424.2086410522,6100959.777832031,35198795.318603516,39663391.11328125,35154384.61303711,10302581.787109375,-9565444.946289062,-18896198.272705078,-16278873.443603516,-15930082.321166992,3501816.2727355957,-7669317.245483398,14680615.425109863,35839607.23876953,-38783.639669418335,-12846071.243286133,43183410.64453125,-13300907.135009766,507832.22913742065,-9209853.172302246,-598424.0174293518,27566537.857055664,28749101.638793945,-10716829.299926758,2815577.983856201,2741140.842437744,4478986.2632751465,-3757228.6128997803,-7352283.954620361,-5896996.021270752,-6912462.7113342285,-6498856.544494629,-19959594.7265625,-20253818.51196289,-18656234.741210938,-3290130.615234375,-6293791.770935059,-6014130.592346191,-6470634.937286377,5432163.715362549,833738.1482124329,-12583963.394165039,-5766085.147857666,4501621.246337891
0.39,54280586.24267578,32065238.95263672,56632446.2890625,23958238.60168457,30645782.470703125,24407751.083374023,24582221.98486328,23831726.07421875,24303060.53161621,7922095.775604248,17412693.02368164,39926025.390625,40402000.427246094,40067611.69433594,-3233680.486679077,3411118.745803833,-1549386.3821029663,1672592.282295227,3075453.996658325,5270777.702331543,33895313.26293945,40863918.30444336,39040584.564208984,17777818.67980957,-1625328.0639648438,-8785200.119018555,-10560014.724731445,-15334223.747253418,8276939.392089844,-10599575.04272461,16035112.380981445,39886745.45288086,7523894.309997559,-4766885.280609131,50543128.967285156,-8556355.476379395,700173.0799674988,-7610633.850097656,570503.3540725708,31522005.081176758,32746452.33154297,-4772493.839263916,8598410.606384277,8361969.947814941,8894604.682922363,165262.99715042114,-6758776.1878967285,-3233360.767364502,-4059702.3963928223,-3826717.8535461426,-14984486.57989502,-15193767.547607422,-13421334.266662598,592906.8922996521,-3368157.386779785,-3078152.1797180176,-3519197.702407837,7475468.635559082,3687908.887863159,-7659570.693969727,-2982676.5060424805,9259649.276733398
0.395,51409088.134765625,27025135.040283203,46683567.04711914,20187589.645385742,29034782.40966797,23171375.274658203,23327367.782592773,22499624.252319336,22612436.294555664,7032663.822174072,14848075.866699219,35771587.37182617,36326377.868652344,40006038.665771484,4772959.232330322,8162405.014038086,-255605.7870388031,4502824.306488037,1060323.715209961,6107913.970947266,30958583.83178711,38835140.228271484,39213569.64111328,23533962.24975586,5016108.989715576,1343669.4145202637,-4127779.960632324,-15927104.949951172,11703239.440917969,-6129142.761230469,19836076.736450195,40069374.084472656,16262647.62878418,4698310.375213623,58576473.236083984,-74478.35057973862,520623.3859062195,-1612475.037574768,3872316.360473633,32049709.32006836,33215118.408203125,2664782.762527466,15837591.171264648,15482228.27911377,15826296.80633545,8429348.945617676,-5174987.316131592,2050141.5729522705,1414055.7050704956,1644558.310508728,-5688425.540924072,-5994589.328765869,-4424352.645874023,8888112.06817627,2099411.0107421875,2425561.1896514893,1994379.0435791016,13041698.455810547,11623751.640319824,4643867.015838623,2377742.7673339844,18125623.70300293
0.4,46694343.56689453,17799018.85986328,32135852.813720703,12202087.40234375,24925287.2467041,15215909.957885742,15557366.371154785,14780804.634094238,18043130.87463379,3922217.36907959,11064217.567443848,28346214.294433594,28931123.733520508,35776744.8425293,6284026.622772217,5312901.496887207,-3496564.3882751465,3471384.7637176514,-2667086.8396759033,6287319.183349609,25797832.489013672,32520256.04248047,35224105.83496094,22790552.139282227,4640064.716339111,3156949.520111084,-2863522.529602051,-17509464.263916016,10780622.482299805,724175.214767456,20356239.318847656,35849353.7902832,19275838.85192871,7406145.095825195,59943569.18334961,4564187.049865723,195963.3231163025,3762337.9230499268,6314237.117767334,29082355.499267578,30227573.39477539,5610726.833343506,18645483.016967773,18320911.407470703,21212436.67602539,16240329.74243164,289066.6127204895,7690212.249755859,7158527.374267578,7487062.931060791,830945.5513954163,420212.7754688263,1824254.2743682861,16768667.221069336,7775851.249694824,8143807.411193848,7663382.053375244,18977621.07849121,19332229.614257812,16347051.620483398,7988273.620605469,25501873.016357422
0.405,43872920.989990234,12493712.425231934,26557300.567626953,7216732.978820801,21594667.434692383,9034573.554992676,9470434.188842773,8836707.11517334,14597085.952758789,1701840.2814865112,9601312.637329102,23596735.00061035,24205831.52770996,33537113.189697266,3030691.385269165,-853408.4558486938,-7645410.060882568,275880.72419166565,-4637651.9203186035,5746291.160583496,21814224.243164062,27808860.778808594,33071628.57055664,18875709.533691406,1366357.3265075684,-810273.289680481,-5444192.886352539,-17590377.807617188,6858133.316040039,3063035.249710083,17528169.631958008,33480789.184570312,17257785.79711914,4623451.709747314,57151882.17163086,1927984.4760894775,201188.89212608337,4515811.920166016,6846659.6603393555,28246551.513671875,29427827.835083008,4252591.133117676,17658439.63623047,17538734.436035156,23708890.914916992,20068065.643310547,8085994.720458984,12498129.844665527,11974855.422973633,12296327.590942383,1719296.932220459,1423079.6098709106,2897063.732147217,20666618.34716797,12517572.402954102,12947981.834411621,12321110.725402832,23463056.564331055,22846261.978149414,21348148.345947266,12700182.914733887,29605392.456054688
0.41,44234806.060791016,14137738.227844238,33759986.877441406,8414947.509765625,20494113.92211914,10193669.319152832,10496904.373168945,9903305.053710938,13878113.746643066,1631230.2350997925,11269862.174987793,26278007.50732422,26909076.690673828,37505771.63696289,828895.7476615906,-3708582.878112793,-9160858.154296875,-1576103.925704956,-3577470.7794189453,6216292.858123779,24629280.09033203,31536085.12878418,36851615.90576172,17147258.758544922,1340375.542640686,-4498147.964477539,-7392402.648925781,-14769122.123718262,3864850.5210876465,1320237.636566162,17655069.35119629,37346553.802490234,15377936.363220215,2560405.0159454346,55976135.25390625,-3708127.26020813,646437.0489120483,1181079.9837112427,7108850.955963135,33450954.43725586,34582103.72924805,2738130.3310394287,17426054.000854492,17551376.342773438,24053314.208984375,20320676.803588867,12751323.699951172,15510855.674743652,14935503.959655762,15125077.247619629,-234079.68878746033,-291489.6011352539,1307535.2907180786,20901975.631713867,15423059.463500977,15941217.422485352,15156404.495239258,26493175.506591797,22741737.365722656,19321418.76220703,15654565.811157227,31770715.713500977
0.415,44914798.736572266,17360589.9810791,42609855.65185547,11516812.324523926,19807970.04699707,14604288.101196289,14749164.581298828,14008749.961853027,13770099.639892578,1883037.9247665405,13065123.558044434,32894256.591796875,33476791.381835938,43405586.24267578,1157812.8337860107,-3336217.6418304443,-9198882.102966309,-1569642.7822113037,-1632839.560508728,7134011.268615723,33258209.228515625,41297969.818115234,42373680.114746094,17794874.19128418,4203092.575073242,-6088043.212890625,-7351605.415344238,-11317058.563232422,3194373.13079834,858278.8109779358,23483535.766601562,43176780.700683594,15979942.321777344,3398758.888244629,57055740.35644531,-5828417.3011779785,1110626.9359588623,-2393828.1536102295,8160851.47857666,40472305.29785156,41433696.74682617,3118643.045425415,19630193.71032715,19834402.084350586,23779735.565185547,19605445.861816406,11300570.487976074,15552634.239196777,14912043.571472168,14983146.667480469,-1337697.982788086,-1328174.114227295,305254.34017181396,20029249.19128418,15355813.026428223,15899901.390075684,15097986.221313477,27844871.520996094,21917459.48791504,13824144.36340332,15681303.977966309,32182826.99584961
0.42,43524986.267089844,16122196.197509766,41409332.275390625,11454050.064086914,18053449.630737305,15426627.159118652,15613991.737365723,14693282.127380371,12873385.429382324,1022199.0346908569,12323616.981506348,34800968.170166016,35237071.9909668,43591823.57788086,1349317.4314498901,-3732559.4425201416,-9787088.394165039,-1178882.9565048218,-1219730.6156158447,6058065.414428711,38152069.091796875,46092136.38305664,42293010.71166992,17190759.658813477,5530882.835388184,-6299401.28326416,-6882187.843322754,-10430895.805358887,2694737.434387207,3002618.0744171143,28267299.65209961,43271381.37817383,17010612.48779297,4529330.253601074,57408611.29760742,-2899839.401245117,1128174.066543579,-3173547.5063323975,8459662.437438965,41105350.494384766,41943145.751953125,3722515.821456909,21365207.67211914,21427076.33972168,23777198.791503906,18797657.012939453,5910264.492034912,12298892.0211792,11596748.352050781,11654573.440551758,-1334107.518196106,-1474584.460258484,157412.17136383057,19028034.210205078,12035993.576049805,12438157.081604004,11784101.486206055,26360187.530517578,21349988.93737793,7726800.918579102,12345868.110656738,29511943.817138672
0.425,42592967.98706055,12427060.1272583,33462661.743164062,9793005.94329834,17397956.84814453,13333621.02508545,13691884.994506836,12747011.184692383,13426308.631896973,903206.9444656372,10956943.51196289,29808998.107910156,30091096.878051758,37734008.7890625,740839.7793769836,-5199021.816253662,-9657901.763916016,-199318.45366954803,-1728312.8499984741,3656390.66696167,33204360.961914062,40257637.02392578,36502254.486083984,14346954.345703125,4362397.193908691,-5096794.605255127,-6941850.185394287,-11737081.527709961,1192933.6786270142,4167001.247406006,24782287.59765625,37346771.240234375,16498126.983642578,4157412.052154541,56289722.44262695,616622.5075721741,713186.5620613098,-1409621.1194992065,6751566.8869018555,34193706.51245117,35069610.595703125,2639256.715774536,19805398.94104004,19664337.158203125,22766927.71911621,16346199.035644531,828540.3251647949,7446519.374847412,6672473.907470703,6826177.12020874,-2648583.41217041,-2882081.2702178955,-1284016.9668197632,16519590.377807617,7223803.0433654785,7383964.538574219,6877197.742462158,22015203.47595215,19549350.73852539,1217537.1646881104,7336240.768432617,24647701.263427734
0.43,46066051.4831543,13291157.722473145,31817476.272583008,11987473.487854004,20820405.960083008,14801875.114440918,15223606.10961914,14397134.780883789,17574260.711669922,3962760.4484558105,13076270.10345459,25955150.604248047,26194881.439208984,33971736.907958984,1700020.7901000977,-4612349.033355713,-7117152.214050293,2612320.4231262207,-863572.6571083069,3989156.96144104,25387182.235717773,32227108.001708984,33034805.297851562,12459869.384765625,4172298.9082336426,-3211410.7608795166,-7254494.190216064,-11906250.953674316,1632807.970046997,3359373.092651367,17270235.061645508,33620498.65722656,15478131.294250488,3602155.6854248047,55621711.73095703,-46714.24999833107,314467.6387310028,837955.9516906738,5432988.64364624,28539417.266845703,29510667.80090332,428907.1559906006,16236263.275146484,15994783.401489258,18712915.420532227,11914158.821105957,-807543.7545776367,4194834.232330322,3364169.5976257324,3693147.1824645996,-6361130.714416504,-6479042.530059814,-5028148.651123047,12182728.76739502,4162077.4269104004,4212303.638458252,3686591.863632202,17394021.98791504,15928892.135620117,-5920360.565185547,4058584.213256836,21572181.701660156
0.435,52321956.634521484,20036891.93725586,40620002.74658203,18636768.341064453,26867559.4329834,21563394.54650879,21900346.755981445,21164579.391479492,22894021.98791504,8893810.272216797,18815736.770629883,30809661.865234375,31129096.98486328,38532157.89794922,4876251.220703125,-1405460.3576660156,-4013442.5163269043,6152956.485748291,1660593.2712554932,8230241.775512695,26092744.827270508,34298046.11206055,37811614.990234375,14367053.031921387,7562805.652618408,-2935161.352157593,-7735739.231109619,-9582168.579101562,7342555.999755859,4450602.5314331055,17290569.305419922,38277496.337890625,16082189.559936523,4654051.303863525,56529575.34790039,-4393003.940582275,287759.2742443085,2478799.819946289,8199907.302856445,32293994.903564453,33268791.19873047,-703388.2141113281,14751066.207885742,14497021.675109863,13077384.948730469,8648564.338684082,2079895.7347869873,4939355.850219727,4140990.734100342,4647319.793701172,-9864503.860473633,-9879678.726196289,-8592916.488647461,9011347.770690918,5200830.936431885,5389268.398284912,4697525.978088379,16167055.130004883,13053051.948547363,-11855874.061584473,5078789.710998535,23216186.5234375
0.44,55165836.334228516,26007028.579711914,50189220.4284668,24217502.59399414,30543352.127075195,28090303.421020508,28379196.166992188,27610147.47619629,25145618.438720703,11937821.388244629,23591201.782226562,40807289.123535156,41226249.69482422,47856399.53613281,8154037.4755859375,2218039.9894714355,-2518018.2456970215,7964290.618896484,3876904.249191284,11774296.760559082,35115661.62109375,45956317.90161133,47105762.48168945,19803943.634033203,13979720.115661621,-3810887.575149536,-8048273.086547852,-7243764.400482178,15753214.836120605,8671015.739440918,27204666.137695312,47656288.146972656,19241470.336914062,8016179.084777832,59159774.78027344,-7103378.2958984375,501269.6385383606,3403599.500656128,13967107.772827148,42132724.76196289,43037582.39746094,1269094.8247909546,18325683.59375,18051946.64001465,11362035.751342773,9753182.411193848,7436680.316925049,8729981.422424316,8042721.748352051,8623386.38305664,-8942867.279052734,-9119264.602661133,-7804787.158966064,10107535.362243652,9232806.205749512,9632862.091064453,8783439.636230469,20117219.924926758,14392742.156982422,-14327648.162841797,9283892.631530762,28131261.825561523
0.445,52851875.30517578,26456840.51513672,51985378.26538086,25431339.263916016,30184335.708618164,30705301.28479004,31078487.396240234,30223196.029663086,24756521.224975586,12478377.342224121,24495363.235473633,46113845.82519531,46551258.0871582,53538089.752197266,11274202.346801758,6633845.806121826,-263129.8899650574,8756731.986999512,5011580.467224121,10436120.03326416,40922691.345214844,53966129.302978516,52609775.54321289,27384117.126464844,22164953.231811523,-1108856.0819625854,-6745572.090148926,-7345019.817352295,19299715.042114258,10366946.22039795,35287994.384765625,53354324.34082031,25001836.7767334,14030240.058898926,64380676.26953125,-3972594.2611694336,549479.9017906189,2773534.059524536,16216503.143310547,47105838.775634766,47980461.12060547,7162203.788757324,26371786.11755371,26070512.771606445,16541910.171508789,13770054.817199707,10086604.118347168,11586245.5368042,10940501.21307373,11475031.852722168,-2247304.4395446777,-2718414.783477783,-1258840.9185409546,14074029.922485352,12108885.765075684,12556201.934814453,11665517.807006836,27620031.356811523,20357269.287109375,-13878326.416015625,12334371.566772461,32734024.047851562
0.45,50837505.34057617,24809549.33166504,49369724.27368164,25374832.153320312,29545799.255371094,32253452.30102539,32709110.260009766,31824937.82043457,25877908.70666504,13488775.253295898,23774833.67919922,43158641.81518555,43513912.200927734,52221515.65551758,16253789.901733398,14085116.386413574,5541679.382324219,11612492.561340332,6342599.391937256,6359416.961669922,36709903.717041016,49248283.38623047,51159461.975097656,35325801.849365234,30328542.709350586,6890790.939331055,-3645938.6348724365,-8910552.024841309,14479498.863220215,4802146.434783936,30916093.826293945,52096271.51489258,32073009.490966797,21293645.85876465,71470642.08984375,2921304.225921631,319667.3095226288,-113710.85792779922,10638806.343078613,42023559.5703125,42931552.88696289,14922763.82446289,34380130.767822266,34091957.092285156,23684341.430664062,15965142.250061035,6397952.079772949,10381368.637084961,9606003.761291504,10070666.313171387,6144869.804382324,5607061.862945557,7004754.066467285,16261905.670166016,10689227.104187012,11035217.28515625,10209595.680236816,34152023.31542969,27125722.885131836,-13527548.789978027,10978253.364562988,35209224.700927734
0.455,52699222.564697266,25469230.65185547,48694179.53491211,26692876.8157959,31093179.70275879,34601802.825927734,35024456.02416992,34179927.825927734,28500791.549682617,15400147.438049316,23828258.514404297,36764858.24584961,36991878.509521484,47180362.701416016,21383127.212524414,21777629.852294922,10664097.785949707,15583489.418029785,7683166.50390625,4194213.8671875,28522583.0078125,37434352.87475586,46107334.13696289,39670814.514160156,33965015.41137695,13303555.488586426,-2128798.007965088,-9603610.99243164,7256001.4724731445,-3354864.1204833984,18769020.080566406,47137706.7565918,36287094.11621094,24986780.166625977,75352966.30859375,7005462.169647217,174019.76883411407,-3158921.718597412,1454213.9768600464,32596355.438232422,33530036.92626953,19226207.733154297,36388832.092285156,36121627.80761719,25188531.87561035,14794179.916381836,-93217.96149015427,6439471.244812012,5499775.409698486,5927481.174468994,9697275.161743164,9419525.146484375,10524210.929870605,15114462.852478027,6486757.278442383,6789186.000823975,6069966.793060303,34977882.385253906,29833129.8828125,-15023943.901062012,6772017.478942871,35743572.23510742
0.46,53604007.720947266,25899074.55444336,47941875.45776367,25835655.212402344,31134876.251220703,33218544.006347656,33604583.740234375,32795036.31591797,26871931.076049805,13886099.815368652,22394289.016723633,31401718.139648438,31550395.965576172,42285488.12866211,20274936.67602539,22171051.025390625,7372307.777404785,14713515.281677246,6101644.515991211,3841270.685195923,25108648.3001709,30141717.9107666,41256904.60205078,36359588.623046875,28790697.09777832,10034188.270568848,-5849097.728729248,-9502327.919006348,5696844.577789307,-5110558.032989502,12031078.338623047,42229476.92871094,33110355.377197266,20899251.93786621,71053321.8383789,4511232.852935791,454938.1732940674,-2767017.126083374,-3051193.952560425,27067192.07763672,27972906.1126709,15920277.59552002,30547966.00341797,30256704.330444336,20776412.963867188,14201797.485351562,-1188618.3023452759,4124503.6125183105,3210079.1931152344,3577988.1477355957,6058815.002441406,6080152.988433838,7087761.878967285,14535378.456115723,4083871.364593506,4466317.653656006,3831822.156906128,29577625.274658203,27234104.15649414,-17102436.065673828,4333713.531494141,34645477.294921875
0.465,47539539.3371582,21358739.852905273,41873989.10522461,18996698.3795166,25235471.725463867,24917392.73071289,25402523.040771484,24575424.194335938,18437824.249267578,6634283.065795898,16518636.703491211,26635513.305664062,26851184.844970703,38421329.498291016,10863698.959350586,13432141.304016113,-3602226.734161377,6572280.8837890625,527894.7949409485,1604893.3267593384,26489736.557006836,30779409.408569336,37389884.94873047,27393693.923950195,17684278.48815918,-565448.522567749,-13126352.310180664,-10509386.06262207,8855287.551879883,683955.6694030762,14867825.508117676,38234825.134277344,23938695.907592773,11949425.69732666,61293720.24536133,-1189491.9872283936,979225.8739471436,1051190.4954910278,-597964.8232460022,27105789.184570312,27953441.619873047,7706830.978393555,22456274.032592773,22168012.619018555,17577339.17236328,17796470.642089844,6049372.673034668,5521393.299102783,4812947.750091553,5073609.828948975,-129327.01408863068,-65611.77223920822,1321291.5658950806,18144458.770751953,5594443.798065186,6032167.434692383,5411224.365234375,23392284.393310547,22949962.615966797,-18107894.897460938,5745740.4136657715,32247158.05053711
0.47,37399097.44262695,13881448.745727539,33207248.68774414,10111436.84387207,16012313.842773438,15923081.398010254,16543180.465698242,15669450.759887695,9688260.078430176,-1271655.9171676636,8965420.722961426,21971271.514892578,22409708.02307129,35438388.82446289,998547.1367835999,4281409.26361084,-11303785.32409668,-1999609.8279953003,-4797789.573669434,-2508042.335510254,27213764.190673828,33592788.69628906,34345535.27832031,20845108.032226562,10064447.402954102,-7506685.733795166,-17877531.051635742,-12766271.591186523,8170066.833496094,6354484.081268311,19049343.10913086,35160663.60473633,16624500.274658203,6419202.3277282715,54852058.41064453,-3832749.843597412,1258632.779121399,3832772.731781006,3077938.7950897217,28815471.649169922,29623701.095581055,2146311.044692993,19757432.93762207,19608236.31286621,19441577.911376953,23056320.190429688,14771862.983703613,7865251.541137695,7300665.378570557,7502389.430999756,-2734834.4326019287,-2862375.7362365723,-936927.7954101562,23416339.874267578,8087949.752807617,8471280.097961426,7790152.549743652,22455875.396728516,21236463.54675293,-18698320.388793945,8109040.260314941,29655069.35119629
0.475,32242050.170898438,10413003.921508789,30203565.59753418,7112287.998199463,11336389.541625977,15100113.868713379,15683809.280395508,14781264.305114746,8828495.979309082,-2627154.82711792,6310971.260070801,20497404.098510742,21175416.946411133,34186252.59399414,-228808.52222442627,3781362.533569336,-7957701.683044434,-2165620.0885772705,-4541986.94229126,-3620290.0409698486,26200431.82373047,34058380.126953125,33069316.864013672,21759016.036987305,11305681.228637695,-5261672.496795654,-16934732.43713379,-13948602.676391602,395606.9052219391,6806656.837463379,17582311.630249023,33977592.46826172,16824966.430664062,8007156.3720703125,55937953.94897461,-1824093.5802459717,1153143.4059143066,2747945.0702667236,2753676.176071167,29385183.334350586,30210292.81616211,2808923.0060577393,22839448.928833008,22895204.544067383,21344985.961914062,24168161.392211914,16441596.984863281,7375827.312469482,6754070.75881958,7011924.743652344,-1417950.2725601196,-1727452.9933929443,375067.8598880768,24486093.521118164,7630812.168121338,7964451.789855957,7228890.895843506,26061893.463134766,22036064.14794922,-20433319.091796875,7606404.781341553,28065786.361694336
0.48,35972911.8347168,13523782.730102539,35179985.04638672,11497551.918029785,15381922.721862793,21415124.893188477,21806358.337402344,20909698.486328125,15289351.463317871,3123764.0380859375,11033632.278442383,24897539.138793945,25625492.095947266,35635330.20019531,5559498.310089111,9683704.376220703,690669.5365905762,5404403.6865234375,1066429.7342300415,988482.5944900513,27467596.05407715,34745822.90649414,34602325.439453125,26047664.642333984,16016307.830810547,-590737.3428344727,-13923126.220703125,-12522115.707397461,-6734667.778015137,6075770.378112793,14475116.729736328,35542114.2578125,21195602.416992188,11419780.731201172,59323493.95751953,439445.1677799225,998099.148273468,936514.3775939941,603510.9758377075,29808639.526367188,30696533.203125,5559066.295623779,24659456.253051758,24767601.013183594,17465188.98010254,19848035.81237793,11520815.8493042,4671543.121337891,3921518.087387085,4266639.232635498,-784851.07421875,-1099898.338317871,738717.9136276245,20088718.41430664,4849041.938781738,5227545.738220215,4537377.35748291,27970205.307006836,21953742.98095703,-22726974.487304688,4890501.499176025,27903024.673461914
0.485,43725482.94067383,19273031.23474121,42648914.3371582,17026620.864868164,24457349.77722168,25565189.361572266,25826362.60986328,24974496.841430664,21057239.532470703,9882585.525512695,18724925.994873047,32852870.94116211,33376529.693603516,39587188.720703125,8420969.009399414,12641897.201538086,3293873.071670532,11209999.084472656,6545469.760894775,7525277.137756348,32638168.334960938,39926048.278808594,38666133.880615234,27057592.391967773,15807795.524597168,-2436947.3457336426,-14164911.270141602,-9938872.337341309,-5676907.062530518,9616873.741149902,17486673.35510254,39433639.52636719,22734596.252441406,10642395.01953125,58740608.21533203,-1050564.8851394653,1035405.5166244507,2704326.391220093,1826345.2053070068,32050266.26586914,32975303.649902344,5532304.286956787,21561737.060546875,21476890.563964844,10824136.734008789,15195544.242858887,8355600.357055664,4136660.099029541,3344265.937805176,3715407.133102417,-2736515.998840332,-2907978.5346984863,-1391509.4137191772,15460410.118103027,4225326.061248779,4634264.4691467285,4064680.576324463,25604825.973510742,19970495.223999023,-23410930.633544922,4328801.63192749,29329412.46032715
0.49,48873199.462890625,23207813.262939453,47262413.024902344,18453022.003173828,31352195.739746094,23269014.358520508,23543977.737426758,22795242.309570312,20982397.079467773,12361070.63293457,23108552.932739258,38762207.03125,38992496.490478516,44290477.75268555,3694305.181503296,9918163.299560547,-2216968.059539795,9243949.890136719,7660552.501678467,10292278.289794922,37659729.00390625,47892265.31982422,43375293.73168945,24957490.921020508,10853444.09942627,-9306795.120239258,-17749263.763427734,-8754741.668701172,-766687.81042099,15186342.239379883,26099515.914916992,43875732.421875,20537910.46142578,7773590.087890625,56040523.529052734,-4384590.148925781,1057386.1598968506,6638835.430145264,6272168.159484863,35822898.864746094,36694660.18676758,3907215.118408203,19244607.92541504,18884450.912475586,9667133.331298828,15025706.29119873,11604717.254638672,7867345.333099365,7066406.726837158,7467571.73538208,-3744853.973388672,-3757698.7743377686,-2263111.352920532,15469827.651977539,7898922.443389893,8201573.371887207,7685170.1736450195,23516819.00024414,19082050.323486328,-22163846.969604492,7995776.653289795,32016254.425048828
0.495,49328311.920166016,23871246.337890625,47661994.93408203,16726379.39453125,31738794.326782227,19743360.51940918,20026309.967041016,19431110.382080078,17379997.25341797,10393802.642822266,21594429.01611328,38893150.329589844,38969032.287597656,46684040.06958008,-2729629.5166015625,8158433.91418457,-7502174.854278564,3979352.2357940674,5163756.370544434,8204548.8357543945,37842098.236083984,51796226.501464844,45693519.592285156,24928171.157836914,8571447.372436523,-11796212.196350098,-20201427.459716797,-9646115.30303955,-2433036.5657806396,16261402.130126953,32070407.86743164,46032730.10253906,19653959.274291992,9130234.718322754,57341072.08251953,-4409852.027893066,798862.099647522,7467193.603515625,8634939.193725586,38520442.962646484,39286026.00097656,4363086.700439453,23816999.435424805,23320331.573486328,15658049.583435059,17930068.969726562,16072120.666503906,12588268.280029297,11680824.279785156,12226960.182189941,-1233585.3576660156,-1192945.957183838,594018.0420875549,18524456.024169922,12559638.977050781,12705767.631530762,12091686.248779297,25308990.478515625,20804473.876953125,-21366952.896118164,12672350.883483887,33600139.61791992
0.5,47161762.23754883,21508035.65979004,44281978.607177734,15209712.982177734,27073879.24194336,20280317.306518555,20484865.188598633,19989551.544189453,14982802.391052246,6986974.716186523,16449586.868286133,34320888.51928711,34423164.36767578,44386402.13012695,-3732215.642929077,12296489.715576172,-6099294.185638428,3314084.29145813,2343475.341796875,4942743.301391602,33786651.611328125,48069042.20581055,43396183.013916016,28192075.729370117,12336095.809936523,-5730247.974395752,-19016691.207885742,-11154938.697814941,-12228523.254394531,12010802.268981934,30476924.896240234,43710758.209228516,22367252.349853516,15035101.890563965,62614963.53149414,38535.792380571365,420414.2987728119,3851305.0079345703,6299154.281616211,37818790.435791016,38528617.85888672,6096261.501312256,31286693.572998047,30834747.314453125,21305288.314819336,18716203.689575195,14222016.334533691,13703388.214111328,12628954.887390137,13374734.878540039,1370332.3602676392,1332507.2526931763,3469183.921813965,19218158.721923828,13588829.040527344,13687591.552734375,12936820.030212402,27122581.481933594,21536375.045776367,-22988132.47680664,13810544.967651367,30897930.145263672
0.505,45747955.322265625,18174343.10913086,39499374.38964844,15386722.564697266,23253637.313842773,23192661.28540039,23394643.783569336,22810066.22314453,15663200.378417969,5498823.165893555,12735642.433166504,30018064.498901367,30157632.82775879,38973793.029785156,-193032.83095359802,18149669.647216797,-812675.8337020874,8374949.4552612305,1399119.3771362305,4182959.0797424316,30947423.934936523,41507019.04296875,38085414.88647461,30432327.270507812,17273502.349853516,2578641.653060913,-16659309.387207031,-11722127.914428711,-21072078.704833984,8292323.112487793,25241500.854492188,38409862.51831055,24876691.818237305,19028863.90686035,65078849.79248047,4308530.330657959,313998.7289905548,116741.8584227562,2806890.4876708984,34326934.814453125,35072067.26074219,5199227.333068848,32444522.857666016,32090560.913085938,20155294.41833496,15311174.392700195,6742608.547210693,10714655.876159668,9579054.832458496,10395346.641540527,-579624.0568161011,-745214.8795127869,1499743.3423995972,15555792.808532715,10522274.017333984,10658427.238464355,9927545.547485352,23884286.880493164,17751142.501831055,-26140415.19165039,10848235.130310059,24595256.805419922
0.51,47706226.34887695,18415681.838989258,38760997.7722168,17652784.34753418,25555957.794189453,24852233.88671875,25265562.057495117,24418422.69897461,18819082.260131836,8206378.936767578,14555380.821228027,30903820.037841797,30949790.954589844,35729091.64428711,2074452.8770446777,19088500.9765625,2278792.6197052,13665394.78302002,2690922.0218658447,6439396.858215332,33935260.77270508,40066848.75488281,34879348.75488281,28989114.76135254,18106798.17199707,4998085.975646973,-16751157.760620117,-11029255.867004395,-22520229.33959961,9040942.192077637,22817096.710205078,35225711.822509766,23504976.272583008,17060354.232788086,61148502.349853516,4090239.5248413086,548813.5814666748,-111353.92636060715,2398804.6646118164,31365159.98840332,32197757.720947266,1441914.3199920654,26250259.399414062,25918397.903442383,14679231.643676758,10993755.340576172,1608017.6830291748,6829628.944396973,5802719.593048096,6497330.188751221,-5739253.997802734,-5979838.848114014,-3991801.7387390137,11120934.48638916,6618898.868560791,6736478.805541992,6217385.292053223,18386619.567871094,12354567.527770996,-28760236.740112305,6921630.382537842,20400388.717651367
