time,Fp1,Fpz,Fp2,AF3,AF4,F7,F5,F3,F1,Fz,F2,F4,F6,F8,FT7,FC5,FC3,FC1,FCz,FC2,FC4,FC6,FT8,T7,C5,C3,C1,Cz,C2,C4,C6,T8,TP7,CP5,CP3,CP1,CPz,CP2,CP4,CP6,TP8,P7,P5,P3,P1,Pz,P2,P4,P6,P8,PO7,PO5,PO3,POz,PO4,PO6,PO8,CB1,O1,Oz,O2,CB2
0.0,4774632.453918457,6368365.287780762,5884153.842926025,3892519.474029541,4745143.413543701,543436.586856842,1320768.7139511108,1726117.1340942383,1682933.6881637573,1845894.0982818604,2373034.715652466,2676672.2202301025,3716577.2914886475,4284804.344177246,-608129.3225288391,-265143.7520980835,501310.7657432556,547692.1796798706,853732.705116272,401464.64109420776,1403626.561164856,3361594.9153900146,1378621.1013793945,-734451.4727592468,607997.6558685303,305856.3768863678,1223127.6035308838,524751.603603363,573959.7678184509,696645.4386711121,2599460.3633880615,529976.6063690186,-1111986.8755340576,-551548.6598014832,868297.278881073,609101.3550758362,552659.6903800964,232075.7359266281,725670.4568862915,-4974309.44442749,-1043473.482131958,-1077734.8279953003,-1040950.1791000366,659370.8992004395,261981.45747184753,365363.06142807007,2052391.529083252,390131.2053203583,414401.7696380615,-1303759.217262268,-1076798.915863037,-1057322.2637176514,-1038680.1958084106,-923179.6264648438,-826781.7497253418,-798232.8534126282,-777475.118637085,-1074870.5863952637,-1054980.5164337158,-933234.7512245178,-781465.2919769287,-799341.4402008057
0.005,12609560.012817383,3336146.116256714,10588895.797729492,20977092.742919922,15522797.584533691,32094837.188720703,39617450.71411133,27608612.060546875,25740083.694458008,19152748.107910156,17748403.549194336,21221452.713012695,20848878.860473633,20084009.170532227,31227611.541748047,41862483.978271484,28941150.665283203,29980829.2388916,22840972.900390625,21470926.28479004,22320856.09436035,25483476.638793945,2765551.3286590576,29506818.771362305,37846420.28808594,26967355.728149414,25992019.653320312,17747499.465942383,18071722.03063965,14403501.510620117,33573173.52294922,-11928139.686584473,16790798.18725586,30135246.27685547,22777366.638183594,20363641.7388916,19017469.40612793,4822611.331939697,14218856.811523438,-141946594.23828125,-14386600.494384766,17057495.1171875,17494958.877563477,21944749.83215332,13406585.693359375,14252276.420593262,18063543.31970215,6804851.055145264,3754307.0316314697,6087081.432342529,17032487.869262695,17803297.04284668,17868242.263793945,14110424.041748047,25272735.595703125,26054023.74267578,27153350.830078125,17436491.012573242,17641082.763671875,14372724.533081055,26329902.64892578,26338802.337646484
0.01,16305686.950683594,3467071.771621704,13500802.040100098,26607517.24243164,19425966.262817383,40897911.071777344,52218910.217285156,35727989.196777344,33020774.841308594,24372421.264648438,22287836.0748291,27083316.802978516,27035478.591918945,23494165.420532227,39554378.509521484,54236579.89501953,37938419.342041016,39279010.77270508,29799364.08996582,27844316.482543945,28492197.036743164,32168697.357177734,-954738.8553619385,37188999.17602539,50113533.02001953,35485092.16308594,34403385.162353516,23394821.166992188,22745059.967041016,17905315.399169922,42589458.46557617,-22678630.828857422,20482297.897338867,36694477.08129883,28644559.860229492,26593059.539794922,25080526.35192871,6457609.176635742,16865528.106689453,-197314910.88867188,-26965295.791625977,20967323.303222656,21616674.423217773,27378376.007080078,17482378.005981445,18890018.463134766,22596336.364746094,7279242.515563965,2396821.4988708496,3705214.023590088,21070549.01123047,22121250.15258789,22243949.89013672,16781034.469604492,31866563.79699707,32981670.379638672,34336063.385009766,21611087.799072266,21854526.51977539,17211858.74938965,33369098.663330078,33346542.358398438
0.015,12810606.956481934,2263328.5522460938,11297980.308532715,19973360.061645508,14784660.339355469,27972457.885742188,40721302.0324707,27109144.21081543,24531608.58154297,17767282.485961914,16109491.348266602,20444791.793823242,21771556.854248047,15283584.594726562,26512493.133544922,39655437.46948242,29264217.376708984,30368087.768554688,23220821.380615234,21182077.407836914,21127798.080444336,24121078.491210938,-8432483.673095703,24392110.82458496,39722942.35229492,27470560.07385254,27952777.862548828,19059511.184692383,16519922.256469727,12529967.308044434,31604831.69555664,-29836692.810058594,11512248.992919922,23122642.517089844,20334663.39111328,21114231.10961914,20356367.111206055,5686691.761016846,10582516.67022705,-180144638.06152344,-35360446.92993164,12183805.465698242,12932525.634765625,19804744.720458984,14093858.71887207,16052608.489990234,17602910.9954834,3046016.6931152344,-2668829.6794891357,-5732637.882232666,12488918.30444336,13398248.672485352,13527020.454406738,9922665.5960083,21450323.1048584,22514043.8079834,23576211.92932129,12913059.23461914,13100103.378295898,10384380.340576172,22848434.448242188,22779018.40209961
0.02,4870988.368988037,-3879474.16305542,4925650.119781494,11095999.717712402,7523578.16696167,13656033.515930176,27938039.779663086,17630643.844604492,15395006.17980957,10161537.170410156,8999747.276306152,12717917.442321777,14742040.634155273,8074851.036071777,13753749.84741211,25020374.298095703,20267276.763916016,21237813.94958496,16622365.951538086,15068654.06036377,13845749.855041504,16013217.92602539,-12271038.055419922,11981311.798095703,29180229.18701172,18980543.13659668,21098875.045776367,15324405.670166016,11735459.327697754,8526779.174804688,21277233.123779297,-31133911.1328125,3397491.455078125,12677158.35571289,12753993.034362793,16242933.27331543,16141960.144042969,5270056.247711182,6606425.762176514,-159764587.40234375,-35558734.89379883,4171786.308288574,5071250.915527344,14194272.994995117,11656335.830688477,14324513.43536377,14285608.291625977,843911.5881919861,-5381315.231323242,-10348736.763000488,4534513.9503479,5304389.953613281,5361162.185668945,5660959.720611572,12557331.085205078,13522848.129272461,14551106.452941895,4810131.549835205,5023399.353027344,6086304.664611816,13752504.348754883,13703108.787536621
0.025,720158.5173606873,-8836777.687072754,1752472.8775024414,9768589.973449707,6039339.065551758,12468352.317810059,29027305.603027344,18144292.8314209,15976904.86907959,10012998.580932617,8928322.792053223,13068837.16583252,14992072.105407715,11884181.022644043,14939421.653747559,26695850.372314453,21301013.946533203,22446147.918701172,17988990.783691406,17424957.275390625,15637219.429016113,19211494.44580078,-6914404.86907959,13163471.221923828,32153831.481933594,19557418.823242188,22292251.586914062,17610055.923461914,15014829.635620117,12175982.475280762,25500511.169433594,-25687490.463256836,4918744.087219238,16947040.557861328,14518767.356872559,18429563.522338867,18406877.517700195,6343061.447143555,11204534.530639648,-169930847.16796875,-27926864.624023438,5677689.075469971,6720448.017120361,17457330.70373535,14045724.868774414,17299903.869628906,18358201.98059082,4647429.943084717,-1373991.60861969,-3763984.9185943604,5884654.0451049805,6752054.691314697,6764935.493469238,9058002.471923828,16250692.367553711,17235437.393188477,18588197.708129883,6136720.180511475,6525557.041168213,9485317.23022461,17442113.876342773,17443954.467773438
0.03,4441902.637481689,-5818213.939666748,6050687.789916992,15203045.845031738,11803430.557250977,19371223.44970703,37486141.204833984,24345615.38696289,22115598.678588867,15274032.592773438,14256868.362426758,19545877.45666504,21684116.36352539,23285644.53125,23076711.654663086,35871139.52636719,26653171.53930664,27945444.107055664,22932657.24182129,23495262.145996094,22560920.71533203,30241687.774658203,4281677.24609375,21186813.354492188,41329288.482666016,24012634.27734375,26777286.529541016,21762918.47229004,21311918.258666992,19311342.239379883,38535358.42895508,-16721807.479858398,12116249.084472656,25484472.274780273,20102622.985839844,23150129.318237305,22902282.71484375,7547809.600830078,19387844.08569336,-184409530.63964844,-18520805.35888672,12841854.095458984,13825839.042663574,23143989.56298828,17960485.458374023,21354345.321655273,24955766.677856445,11279406.547546387,6679059.028625488,7631361.961364746,12845378.875732422,13881286.62109375,13979476.928710938,14861158.37097168,26307296.752929688,27307390.213012695,28783878.326416016,13179963.111877441,13755220.413208008,15336436.27166748,27606237.411499023,27536294.93713379
0.035,9926353.454589844,201428.08556556702,11687887.191772461,18735118.865966797,17677827.835083008,21830776.21459961,39854801.177978516,26524631.50024414,24358747.482299805,18605178.833007812,18085630.416870117,24274753.57055664,26987882.614135742,30878240.58532715,25232362.747192383,37487617.49267578,27163438.79699707,28380641.93725586,24414808.27331543,25726123.809814453,26293025.970458984,37588848.11401367,11982945.442199707,23420131.68334961,44369594.57397461,24242357.25402832,27419338.22631836,22677633.28552246,23505479.81262207,22370914.459228516,46945701.599121094,-10675632.47680664,16497358.322143555,25435422.897338867,20774059.295654297,24644439.697265625,24103893.280029297,7602400.779724121,22986164.093017578,-177525619.50683594,-14030096.054077148,17340814.5904541,18080671.310424805,24127944.946289062,19939687.728881836,23346002.57873535,27552968.978881836,14903352.737426758,11888802.528381348,13260982.513427734,17291090.01159668,18333911.895751953,18565469.74182129,18046350.479125977,31699390.411376953,32634311.67602539,33848587.03613281,17733188.62915039,18320859.909057617,18505521.774291992,33036483.764648438,32717437.744140625
0.04,9187294.006347656,-656700.0150680542,10777194.97680664,15779311.180114746,17616348.266601562,17405052.185058594,34521751.403808594,22950593.948364258,20932558.059692383,17295272.827148438,17623800.27770996,24197130.20324707,26771871.56677246,29715618.133544922,20222042.083740234,30905498.504638672,23094289.779663086,24233432.76977539,22353282.928466797,23988554.000854492,25357192.993164062,36453907.01293945,11516176.223754883,18549512.86315918,40953586.57836914,20776277.542114258,24937725.067138672,21264415.740966797,21777582.1685791,20236045.837402344,46463314.056396484,-10648103.713989258,15687977.79083252,19008617.401123047,16279727.935791016,23645935.05859375,22707693.099975586,6965472.221374512,20732334.13696289,-163119430.5419922,-15431602.478027344,16779735.565185547,17356086.73095703,21666639.32800293,20656015.396118164,24655550.003051758,26402477.264404297,14180830.955505371,11247819.900512695,10924908.638000488,16852781.295776367,17778364.181518555,18020412.44506836,19694513.32092285,30639089.584350586,31569248.19946289,32582275.390625,17383209.228515625,17796638.48876953,19986968.994140625,31940303.802490234,31387924.194335938
0.045,3531660.318374634,-7501430.988311768,5676791.667938232,10910688.400268555,14454415.321350098,13200909.614562988,30066877.365112305,19516418.45703125,17564332.962036133,15003854.751586914,16241085.052490234,23290037.155151367,24973821.64001465,26287517.547607422,16012340.545654297,25721460.342407227,20563734.05456543,21799844.74182129,20947778.701782227,23102642.059326172,24641357.421875,32799804.6875,8042044.639587402,14325944.900512695,38800922.39379883,18943391.799926758,24135961.532592773,21031639.099121094,20894273.75793457,18153144.83642578,43403251.64794922,-12497384.071350098,13484496.116638184,15862960.815429688,12379687.309265137,23598619.46105957,22325883.865356445,6590434.551239014,17942264.556884766,-162724029.54101562,-17740400.314331055,14707953.453063965,15354619.979858398,20234477.996826172,21771471.02355957,27031551.361083984,26034305.572509766,13124588.966369629,8864132.88116455,7477964.401245117,14939819.3359375,15840266.227722168,15948677.062988281,22038230.895996094,29102462.768554688,30192537.307739258,31356298.446655273,15532449.722290039,15758174.896240234,22076225.28076172,30378925.323486328,29849409.103393555
0.05,446868.2110309601,-10861384.391784668,4434432.506561279,9891072.273254395,14232005.11932373,12811698.913574219,30917739.868164062,19787794.11315918,17796897.888183594,15043172.836303711,16950798.03466797,25019441.604614258,26282827.377319336,28111612.31994629,15974171.63848877,25789573.669433594,21197532.653808594,22546249.389648438,21297412.872314453,24543735.50415039,26731357.57446289,33315200.805664062,8893759.727478027,14273997.30682373,40383041.38183594,19493801.11694336,25397895.81298828,22171625.1373291,22245479.583740234,19453292.846679688,43627902.98461914,-10709407.806396484,13077676.773071289,17307704.92553711,11638703.346252441,24561897.27783203,23332895.278930664,6439739.227294922,18464500.427246094,-170235366.82128906,-16564405.44128418,14186014.175415039,14969388.961791992,20461360.931396484,22862096.786499023,29152181.62536621,28035434.72290039,15180397.033691406,9959683.418273926,8482338.905334473,14455846.786499023,15511209.487915039,15490053.176879883,24184740.06652832,30889032.3638916,32148509.979248047,33551063.537597656,15101935.386657715,15298803.329467773,24045791.625976562,32163726.806640625,31880065.91796875
0.055,1931313.6339187622,-8668506.622314453,7129209.995269775,11620674.133300781,16329092.025756836,12964708.32824707,33185779.571533203,21261491.775512695,19184263.229370117,15996255.874633789,17823312.759399414,26902629.852294922,28397636.41357422,32672225.952148438,16404188.15612793,26746503.829956055,21565181.732177734,22881828.30810547,21089443.20678711,25164028.16772461,28351587.295532227,36232360.83984375,13063632.96508789,14951144.218444824,41784667.96875,19078022.003173828,25289304.733276367,22248363.494873047,22707342.14782715,21349931.716918945,45645965.576171875,-7297232.151031494,14073214.530944824,17234704.971313477,11779557.228088379,24370889.66369629,23354963.302612305,6012267.589569092,20282588.958740234,-168622940.06347656,-13475243.56842041,15042953.491210938,15803054.809570312,20774421.69189453,22999679.565429688,29038839.34020996,29524976.73034668,18542238.235473633,13739293.098449707,11639369.96459961,15173258.781433105,16432716.369628906,16395782.470703125,24634084.701538086,33773708.34350586,35006973.26660156,36436504.36401367,15893731.117248535,16233324.05090332,24523164.749145508,35053207.39746094,34961334.228515625
0.06,3209056.615829468,-8376241.683959961,6180268.287658691,11976994.514465332,15262241.36352539,12973800.659179688,33840900.42114258,21397695.541381836,19196249.00817871,15306757.926940918,15810061.45477295,24682706.832885742,25457818.98498535,30989471.435546875,16070465.087890625,26397409.439086914,20646831.512451172,21915241.241455078,19676317.21496582,22886644.36340332,25699207.305908203,34992465.97290039,12696866.989135742,14948083.877563477,42057800.29296875,17608650.20751953,23400714.874267578,20564365.38696289,20083322.525024414,19807569.50378418,44490413.665771484,-9800586.700439453,14880695.343017578,14503487.586975098,11272684.097290039,22948757.17163086,21644433.975219727,5450177.6695251465,19235473.6328125,-160356948.85253906,-13535586.3571167,15959669.11315918,16584323.88305664,21370981.216430664,22485355.377197266,26794301.986694336,27554224.014282227,18430074.69177246,14654550.552368164,11375883.102416992,15847670.555114746,17192764.282226562,17218492.50793457,23491636.276245117,33745693.20678711,34809471.130371094,36139694.21386719,16641191.482543945,17180166.244506836,23616149.90234375,35073276.51977539,34966770.17211914
0.065,2522386.5509033203,-12304185.86730957,11214.460246264935,11949779.510498047,10736499.786376953,18345800.399780273,36086009.97924805,22127021.78955078,19796277.99987793,14062243.461608887,12328285.217285156,19213987.350463867,17501541.137695312,20658155.44128418,19369817.73376465,28378541.946411133,21698551.177978516,23039733.88671875,19264514.923095703,19743326.18713379,20044660.568237305,28366106.033325195,4788185.596466064,18164009.09423828,45494045.25756836,18996088.0279541,23301673.889160156,18850826.263427734,16156660.079956055,15617870.330810547,38926784.51538086,-19456867.218017578,14771348.95324707,14897186.279296875,11685857.772827148,22138414.38293457,19876903.533935547,5294316.76864624,14875975.608825684,-159755996.70410156,-18157346.725463867,16101291.65649414,16722875.595092773,22937994.0032959,21742681.5032959,23636398.315429688,22723957.061767578,13306053.161621094,10254152.297973633,6666244.029998779,15802384.376525879,17083278.65600586,17179197.311401367,20791419.982910156,29730228.424072266,30685556.411743164,31947265.625,16567457.19909668,17259332.65686035,21224042.892456055,31152832.03125,30967971.801757812
0.07,4269067.287445068,-12606316.566467285,-3373471.260070801,15966542.24395752,8881988.525390625,30899766.92199707,42688930.51147461,25828622.817993164,23469270.706176758,15174091.339111328,11572998.046875,15666694.641113281,11531147.003173828,9946914.672851562,27638715.744018555,34149085.998535156,26037450.790405273,27411544.799804688,20933124.542236328,18583311.080932617,16063642.501831055,22407354.3548584,-3974672.555923462,25801355.361938477,53341739.654541016,24143733.978271484,26506652.83203125,18365859.985351562,13944889.068603516,13241055.488586426,32889453.887939453,-27330875.396728516,13681924.819946289,20580421.447753906,14081094.741821289,22527849.197387695,19321020.126342773,5594001.293182373,11091091.15600586,-166822982.78808594,-22993963.24157715,15061032.29522705,15904937.744140625,24270242.69104004,20653013.229370117,20617305.755615234,18409410.47668457,7253027.91595459,4787226.20010376,1521667.3612594604,14754902.839660645,15905655.860900879,16067935.943603516,16514625.549316406,24173870.086669922,25104375.8392334,26238157.272338867,15341259.956359863,16105554.580688477,17116270.065307617,25622686.3861084,25464448.928833008
0.075,10360737.800598145,-5023368.358612061,775477.8265953064,23346271.514892578,12405890.464782715,42443271.63696289,49658477.783203125,30282226.5625,28030677.795410156,18228336.334228516,14153945.922851562,16460477.828979492,12235462.188720703,7254020.214080811,34257122.03979492,38532432.556152344,29861528.396606445,31026870.727539062,22629405.975341797,19340391.159057617,15973783.493041992,22055471.420288086,-6432756.423950195,31699264.526367188,59539489.74609375,28312124.252319336,29779930.114746094,18648939.13269043,14176914.21508789,14768547.058105469,30482875.82397461,-26197072.982788086,12382654.190063477,25653913.497924805,16744495.391845703,23111463.54675293,19573787.689208984,5965471.7445373535,11322772.026062012,-168721939.08691406,-23900690.07873535,13553078.651428223,14664624.214172363,24275411.60583496,19976646.423339844,19276256.561279297,17453092.575073242,5534852.027893066,3761056.1847686768,-830026.6861915588,13401740.074157715,14436404.22821045,14653184.89074707,13323883.056640625,20656190.872192383,21495212.55493164,22354131.6986084,13787178.039550781,14521448.135375977,13835942.268371582,21963542.938232422,21865423.20251465
0.08,15213464.736938477,2226378.4408569336,5940569.877624512,27577999.114990234,15902387.619018555,44280441.28417969,51218078.61328125,31301429.748535156,29186851.501464844,19624397.27783203,16083890.914916992,18438154.220581055,15932672.500610352,10770941.734313965,33048271.17919922,36989917.75512695,29583864.212036133,30451511.38305664,22317924.49951172,19985006.33239746,17481208.80126953,24791488.647460938,-4503089.904785156,30158395.767211914,58027069.091796875,27617733.001708984,29995866.775512695,19017852.783203125,15369544.982910156,17526115.41748047,31229482.650756836,-21204235.076904297,12530804.634094238,24935493.46923828,17782436.37084961,23445241.928100586,19978900.909423828,6258753.776550293,14461618.423461914,-162341064.453125,-22362871.170043945,13554656.028747559,14763749.122619629,24132389.068603516,21122234.344482422,20903261.184692383,19558593.75,8498738.288879395,6873738.2888793945,-1305776.2384414673,13579703.330993652,14533422.470092773,14751773.834228516,14736693.382263184,20645774.841308594,21334705.352783203,21954299.926757812,13924150.466918945,14504685.401916504,15034750.938415527,21745189.666748047,21586538.314819336
0.085,12975561.141967773,-591320.3954696655,3803232.431411743,25004753.11279297,13883946.418762207,38643863.677978516,48022159.576416016,28889608.38317871,26838119.506835938,17905256.271362305,14655344.96307373,17936244.96459961,16216232.299804688,12257475.852966309,27284397.12524414,32846702.575683594,27094182.96813965,27919677.734375,21080667.49572754,19799612.045288086,17570411.682128906,24972021.102905273,-4951555.252075195,24420625.686645508,50445877.07519531,24543357.849121094,28533731.46057129,19594533.920288086,16183818.817138672,17919448.852539062,31364866.256713867,-22162717.819213867,14702191.352844238,21338645.935058594,17592979.431152344,24078546.52404785,20608707.427978516,6591362.476348877,16412456.512451172,-158585769.6533203,-22469541.549682617,15840332.03125,16979763.03100586,25054420.471191406,23554988.861083984,24052541.732788086,21811851.501464844,11354852.676391602,8787016.868591309,-2319612.2646331787,15949563.980102539,16849777.221679688,17024040.22216797,19197570.80078125,22257759.09423828,22955804.8248291,23594217.30041504,16396055.221557617,16770927.429199219,19429101.943969727,23294868.46923828,23002746.58203125
0.09,5678472.04208374,-11117494.583129883,-4048876.7623901367,19472728.729248047,8759953.498840332,34553543.09082031,45648437.5,27132057.189941406,25076168.060302734,15869568.824768066,12169411.659240723,15856008.529663086,12645319.938659668,8782751.083374023,24996532.440185547,32626468.658447266,26711986.541748047,27785564.422607422,21417549.13330078,20028709.411621094,16458915.710449219,21894599.91455078,-8548645.973205566,22181509.017944336,43047283.17260742,23968372.344970703,28562845.23010254,20570087.432861328,16698863.983154297,15911508.560180664,29297454.833984375,-28404275.89416504,16775857.925415039,20701141.357421875,17484498.977661133,25125381.469726562,21585758.209228516,6893299.579620361,15332296.371459961,-164097274.78027344,-24069894.790649414,18062421.798706055,19148742.67578125,25941644.6685791,24722101.21154785,25309846.878051758,22136308.670043945,10496509.552001953,6757601.737976074,-3803892.3740386963,18185482.025146484,19055599.212646484,19224666.595458984,20639129.638671875,22853122.71118164,23785129.54711914,24624916.076660156,18670621.871948242,18955314.63623047,21011568.069458008,24032785.415649414,23696174.62158203
0.095,391911.41724586487,-18750892.639160156,-9358588.218688965,16543968.200683594,6786960.601806641,35322532.653808594,46401424.407958984,28115724.563598633,26014165.8782959,16177492.141723633,12053330.421447754,15591088.29498291,10208898.544311523,5834734.4398498535,27905010.223388672,36722534.1796875,28808891.29638672,30095125.198364258,23437326.431274414,21453788.75732422,16506540.298461914,20018770.217895508,-9506191.25366211,25029100.41809082,38669406.89086914,26126380.920410156,30101461.41052246,21512760.162353516,17575645.446777344,14463378.90625,27596048.35510254,-29963708.877563477,16343580.24597168,23456180.572509766,17654346.466064453,26013685.22644043,22477323.532104492,6921344.757080078,13621915.817260742,-171710952.75878906,-23005798.33984375,17512660.98022461,18684114.456176758,25694065.09399414,23675779.342651367,23759777.069091797,21605197.90649414,8032049.179077148,4436193.943023682,-3565006.0176849365,17678035.736083984,18521724.700927734,18769479.751586914,16919435.501098633,22477769.85168457,23604078.29284668,24576444.625854492,18030277.252197266,18411027.908325195,17383287.42980957,23851488.11340332,23538770.67565918
0.1,935274.064540863,-17929889.678955078,-8349304.19921875,17155076.98059082,9303099.632263184,37081466.67480469,47527759.55200195,29513179.779052734,27304016.11328125,17536899.56665039,13788906.09741211,17711345.672607422,11591510.772705078,8360956.192016602,30751264.572143555,39708923.33984375,29914216.995239258,31159767.150878906,24643749.237060547,22812377.9296875,18211849.212646484,21826036.45324707,-5658561.229705811,27824251.174926758,35813266.75415039,27235620.498657227,30639858.24584961,21861776.35192871,18671133.041381836,15344393.730163574,28718139.6484375,-23818233.489990234,14607665.061950684,25940248.489379883,17985923.767089844,26677150.72631836,22786605.834960938,6696591.854095459,14059243.202209473,-172355865.47851562,-18334537.506103516,15469147.682189941,16792383.193969727,26027809.143066406,22713050.842285156,22360239.028930664,22297744.750976562,8182052.6123046875,6303563.117980957,-1054929.9716949463,15741125.106811523,16515487.670898438,16853347.778320312,13266769.409179688,23014169.692993164,24055072.784423828,24984079.360961914,15918710.708618164,16417121.887207031,13567158.699035645,24479976.654052734,24092752.45666504
0.105,5420098.304748535,-12080237.38861084,-4552084.922790527,19117219.924926758,12219100.952148438,37873222.35107422,47401206.970214844,29090776.443481445,26753362.65563965,17266031.26525879,14255066.871643066,19402870.178222656,13921963.691711426,13302875.518798828,30587932.586669922,39165287.017822266,28586116.790771484,29679172.51586914,23524887.084960938,22407417.29736328,19283069.610595703,24210889.81628418,-2790041.68510437,27662118.911743164,33992736.81640625,26013662.338256836,29650169.372558594,21616632.46154785,18962612.15209961,16972391.12854004,30893850.326538086,-19238412.857055664,15161602.973937988,26998678.20739746,19204254.150390625,27654682.159423828,22551883.697509766,6536163.806915283,15713543.891906738,-167476425.17089844,-14943655.014038086,15851815.223693848,17239225.387573242,28938550.94909668,23896690.368652344,23465450.286865234,23745651.245117188,10754980.087280273,10612251.281738281,853486.5975379944,16220458.984375,16872415.54260254,17227205.276489258,14484786.033630371,24294656.75354004,25117235.18371582,25914045.333862305,16347028.732299805,16781726.837158203,14552188.873291016,25757417.678833008,25211153.030395508
0.11,10236743.927001953,-6702858.448028564,-2105956.792831421,21302232.74230957,12689753.532409668,40162319.18334961,48187427.52075195,28236562.728881836,25897111.892700195,15662639.617919922,12720688.819885254,18849916.458129883,13752344.131469727,14341666.221618652,30475727.081298828,38751296.99707031,27467456.817626953,28504482.26928711,21650810.24169922,20562355.041503906,18065217.971801758,23464715.9576416,-5923552.0362854,27489574.432373047,34987644.19555664,25352458.953857422,29328948.974609375,21229253.7689209,17914188.385009766,16812820.434570312,30726249.69482422,-23371614.456176758,18580839.157104492,28310161.590576172,21517206.1920166,28820049.285888672,22188110.3515625,6600449.085235596,15593738.555908203,-164657135.00976562,-16792566.299438477,19361385.345458984,20677675.247192383,32709274.291992188,25866493.225097656,25335817.337036133,23610977.172851562,11578103.065490723,11437520.027160645,-1061066.3890838623,19714927.673339844,20278295.516967773,20602066.040039062,17967782.974243164,23860321.044921875,24650001.525878906,25352474.212646484,19900117.874145508,20157857.89489746,18075942.993164062,25295278.549194336,24747404.098510742
0.115,13651100.158691406,-3653190.851211548,-897668.5404777527,23422294.61669922,12222205.16204834,43325653.076171875,50773658.752441406,28985391.61682129,26833414.07775879,15214591.026306152,11614169.120788574,17677406.311035156,11982028.96118164,11556470.87097168,32467346.19140625,41263870.23925781,28599941.25366211,29649700.164794922,21368642.807006836,19411014.556884766,16163125.991821289,20965845.108032227,-11170105.934143066,29339214.324951172,38155387.87841797,26835052.490234375,30544178.009033203,20973104.47692871,16467510.223388672,14879123.68774414,28614305.49621582,-29827400.20751953,20763153.076171875,29263830.184936523,22951383.590698242,28962778.091430664,21910247.802734375,6673967.8382873535,13333505.630493164,-165986389.16015625,-20961423.873901367,21709609.985351562,22919216.15600586,33430103.302001953,25739580.154418945,24840148.92578125,21600740.432739258,9189336.776733398,7338059.425354004,-6059745.311737061,21917911.529541016,22529277.801513672,22854970.932006836,18102731.704711914,21040430.068969727,22000617.98095703,22714389.80102539,22157085.418701172,22392955.780029297,18524066.925048828,22423667.907714844,22140306.47277832
0.12,16478645.324707031,-1176467.5378799438,1928973.67477417,24469316.482543945,13526061.058044434,41521831.51245117,51678493.49975586,30262128.829956055,28337163.9251709,16658485.412597656,12754582.405090332,18498785.0189209,12205559.730529785,11975221.633911133,32726123.809814453,43467254.638671875,29935670.852661133,30957881.927490234,22700374.603271484,20344766.61682129,16443746.566772461,21308164.596557617,-10711662.292480469,29551586.151123047,38953903.19824219,27479328.155517578,30931728.36303711,20631616.592407227,16092306.137084961,13770067.21496582,28367425.9185791,-28455860.137939453,17891593.93310547,26610603.33251953,20918170.928955078,27093173.98071289,21490707.397460938,6469233.989715576,11669177.055358887,-166344253.54003906,-21944868.087768555,18889379.501342773,20072610.85510254,30036705.017089844,22706207.275390625,21689584.732055664,20050769.805908203,7011176.586151123,3757712.6026153564,-9749947.547912598,18918071.746826172,19671192.169189453,20030946.731567383,14143969.535827637,18277824.40185547,19325542.449951172,20140367.50793457,19171609.87854004,19597417.8314209,14776690.483093262,19566146.850585938,19582546.23413086
0.125,20469909.66796875,3072943.687438965,7836971.282958984,24056240.08178711,16928203.582763672,32443649.291992188,48038581.84814453,29770959.854125977,27924106.59790039,18317913.055419922,15095743.179321289,21454820.63293457,15587304.11529541,19903144.83642578,27148746.490478516,41092781.06689453,28583017.349243164,29619609.832763672,23772371.292114258,22469699.85961914,19157354.3548584,25708265.30456543,-3575314.998626709,24135381.6986084,34525585.17456055,24164968.490600586,28399269.104003906,19847455.978393555,16901840.209960938,15113304.138183594,31341972.35107422,-20894353.86657715,11051354.40826416,19935398.10180664,15316994.667053223,23741832.733154297,20614860.53466797,5982960.7009887695,12134580.612182617,-162091064.453125,-19506944.65637207,12006124.496459961,13248229.98046875,25242700.576782227,18234098.434448242,18064455.032348633,20099328.994750977,7373567.581176758,5154016.017913818,-9206830.024719238,11954931.259155273,12764918.327331543,13109629.63104248,9594195.365905762,17162067.413330078,18069875.717163086,18971185.6842041,12220565.795898438,12765924.453735352,10083033.561706543,18360780.715942383,18442869.186401367
0.13,25301054.000854492,8622940.063476562,14502196.311950684,23513607.025146484,20341897.96447754,22534688.94958496,42529647.82714844,27923892.974853516,26013477.325439453,18968929.290771484,16549400.329589844,24150007.247924805,19327714.920043945,30337215.423583984,18505039.21508789,35744781.494140625,25332109.451293945,26573421.478271484,23625411.987304688,23838024.139404297,21537485.122680664,30141683.57849121,3377079.486846924,15737922.668457031,28085132.598876953,18680547.7142334,24510337.829589844,18793434.143066406,17519159.3170166,17141704.559326172,34141784.66796875,-17787155.151367188,4662047.386169434,13407439.231872559,8808097.839355469,20680881.50024414,19506057.739257812,5521406.650543213,12942641.258239746,-156824554.44335938,-18129179.000854492,5592444.41986084,6884437.561035156,21661884.307861328,14147026.062011719,15730183.601379395,20088401.794433594,7456966.876983643,8703119.277954102,-6299318.313598633,5620121.955871582,6310584.06829834,6560636.9972229,6719989.776611328,16397672.653198242,17128736.49597168,18003337.860107422,5900486.469268799,6280344.486236572,6878159.999847412,17562879.56237793,17519361.49597168
0.135,27331737.518310547,11126634.59777832,17213754.653930664,23466211.318969727,21416452.407836914,18973592.75817871,39760215.759277344,26943716.049194336,24979480.743408203,19060195.922851562,16383310.317993164,24545526.5045166,20244897.842407227,34925434.11254883,13651860.237121582,32690959.930419922,23297714.233398438,24830675.12512207,23106336.59362793,23662355.422973633,21454259.872436523,30803737.64038086,5089433.193206787,11068323.135375977,25188652.03857422,15399669.647216797,22475532.53173828,18279436.111450195,17147708.892822266,17008411.407470703,33758152.00805664,-22478494.64416504,1985998.1536865234,10499414.443969727,3985138.177871704,19358400.344848633,18983207.70263672,5438341.6175842285,12370853.424072266,-156347854.6142578,-19314491.271972656,2955103.3973693848,4193861.0076904297,19395009.994506836,11944762.229919434,15380753.517150879,19058977.127075195,4464710.712432861,9297086.715698242,-4482660.77041626,3150807.6190948486,3681397.4380493164,3825227.737426758,6060689.926147461,15724320.411682129,16456724.166870117,17235109.329223633,3445593.83392334,3566963.4342193604,6033687.114715576,16864936.82861328,16745187.759399414
0.14,23715761.184692383,7301152.70614624,14130303.382873535,22353876.1138916,19872035.98022461,20435991.287231445,39820617.67578125,26934278.48815918,25003477.096557617,18997598.64807129,15328865.051269531,23255914.68811035,18828054.428100586,32667011.260986328,14752317.428588867,33234550.47607422,23192384.719848633,24812929.153442383,22987628.936767578,22800033.569335938,20143886.56616211,29227310.180664062,4418189.04876709,12326971.054077148,27259279.251098633,15366120.338439941,22968847.274780273,18812425.61340332,16802469.25354004,15000742.91229248,32345287.322998047,-26437879.56237793,3032703.638076782,10012867.92755127,1519478.20186615,19599678.03955078,19516916.275024414,5808089.256286621,11926936.149597168,-159815734.86328125,-19319387.435913086,4096258.1634521484,5162589.550018311,17679546.356201172,12521937.370300293,17154434.204101562,18938606.26220703,1409726.858139038,7641809.463500977,-3862856.864929199,4420502.185821533,4938143.253326416,5043286.323547363,8611273.765563965,17918359.756469727,18768951.416015625,19527751.922607422,4775064.468383789,4869207.382202148,8664296.15020752,18969470.977783203,18895776.748657227
0.145,17203163.146972656,712528.0499458313,9599789.6194458,19274381.637573242,18121782.302856445,20096714.01977539,38905502.31933594,25730747.22290039,23873811.721801758,18198095.321655273,14420897.483825684,22787698.74572754,18708370.208740234,30613155.364990234,16843408.584594727,33273052.215576172,22666790.008544922,24104591.369628906,22667318.34411621,22368432.998657227,20403011.322021484,29954727.172851562,6698637.48550415,14633630.752563477,30850070.95336914,15609283.447265625,23837635.040283203,19683908.462524414,17711750.030517578,14585607.528686523,34153026.58081055,-22192523.956298828,5131723.403930664,8736207.962036133,802072.1673965454,19858802.795410156,20357069.01550293,6280006.408691406,14079121.589660645,-159801651.00097656,-15435366.6305542,6351190.090179443,7213483.810424805,16527822.494506836,14674949.645996094,19632051.467895508,21114999.771118164,3117566.8239593506,8539663.314819336,-1869282.2456359863,6699513.912200928,7345088.005065918,7477751.731872559,13451161.38458252,23354904.174804688,24252136.23046875,25112646.102905273,7170791.6259765625,7446443.557739258,13730000.495910645,24289642.333984375,24235712.0513916
0.15,13621501.922607422,-1373589.038848877,9522217.750549316,16227754.592895508,18720619.201660156,15321040.153503418,35360462.1887207,22635017.39501953,20838647.842407227,16357685.089111328,14170355.796813965,24514265.060424805,22011257.17163086,33747558.59375,14638190.269470215,29601682.662963867,20254682.540893555,21511268.615722656,21316337.58544922,22429506.301879883,22697193.145751953,34067710.876464844,11566905.02166748,12598407.745361328,32475906.372070312,13995200.157165527,23423400.87890625,19603733.06274414,19193946.838378906,17615169.525146484,38957675.93383789,-13547907.829284668,4605182.647705078,5884530.544281006,1083019.6142196655,19004529.95300293,20213323.59313965,6371274.471282959,18113946.91467285,-152511489.86816406,-10601504.3258667,6005467.414855957,6790749.073028564,16089944.839477539,15282441.139221191,19802164.07775879,23201025.009155273,8200960.159301758,12460559.844970703,1558132.7676773071,6307424.068450928,7063305.854797363,7219596.862792969,15139073.371887207,25910554.885864258,26769376.754760742,27733442.306518555,6845042.2286987305,7209340.572357178,15619376.182556152,26805410.385131836,26668891.90673828
0.155,14552014.350891113,2496883.3923339844,13648737.907409668,15365509.986877441,20992580.41381836,9845334.05303955,31570480.346679688,19690242.767333984,17933475.494384766,14219908.714294434,14261902.809143066,26840385.43701172,26407131.19506836,38512947.08251953,8928386.688232422,24073408.126831055,17435298.919677734,18737562.17956543,19335325.241088867,22164102.55432129,24409595.489501953,37731739.04418945,13832337.379455566,6842512.607574463,31974225.997924805,11838195.80078125,22272294.998168945,18391033.172607422,19357564.92614746,21332172.393798828,41818607.330322266,-9378647.804260254,-179765.34366607666,3031759.50050354,1603771.3289260864,17755235.67199707,18945047.37854004,6012074.947357178,20674238.204956055,-144301589.9658203,-9354646.682739258,1284278.7504196167,2226042.7474975586,16006147.384643555,12977421.760559082,16541742.324829102,22170396.80480957,10256984.71069336,14369733.810424805,2676233.2916259766,1530334.47265625,2307521.104812622,2421355.4859161377,9275972.366333008,19642730.712890625,20519336.700439453,21459314.346313477,1985931.7541122437,2254205.2268981934,9814273.834228516,20571283.3404541,20401439.666748047
0.16,16291007.995605469,6442152.976989746,16294033.05053711,15915296.55456543,21918155.670166016,7564653.8734436035,29928647.994995117,18756202.697753906,17014675.14038086,12675855.63659668,13996320.724487305,27132459.64050293,28000518.798828125,38861598.96850586,4773756.504058838,20424432.7545166,16193540.573120117,17645261.764526367,17954444.885253906,21109918.59436035,23269443.51196289,37575714.111328125,11252396.583557129,2498021.364212036,31395998.001098633,11163448.333740234,21597480.77392578,17379621.505737305,17715450.286865234,21749071.12121582,39567195.892333984,-12173809.051513672,-6304199.21875,1420763.373374939,1732398.6291885376,17800828.93371582,17921247.482299805,5651719.570159912,20034545.8984375,-144300506.59179688,-12129089.35546875,-5020390.033721924,-3774604.082107544,16123956.680297852,10436603.546142578,12982980.728149414,19114929.19921875,6885807.991027832,11444703.102111816,-1172773.838043213,-4816034.79385376,-4030721.664428711,-4012911.796569824,-112785.40641069412,8092690.467834473,9081408.500671387,9874007.225036621,-4498957.15713501,-4281086.444854736,320683.0620765686,9022662.162780762,9016350.746154785
0.165,16333118.438720703,6434793.949127197,15015291.213989258,15944569.58770752,20768280.029296875,7844995.498657227,29771623.611450195,19227243.423461914,17481924.057006836,12043101.31072998,13434730.529785156,25332220.07751465,26557155.60913086,35372558.59375,4482794.761657715,19383455.276489258,16312290.19165039,17779251.098632812,17817255.0201416,19941907.88269043,20498125.076293945,35259113.31176758,7695362.091064453,2174289.2265319824,32084659.576416016,11535117.149353027,21598522.186279297,17721986.770629883,15912015.914916992,18990064.62097168,35033824.9206543,-17094144.821166992,-8964361.190795898,780590.1765823364,1282688.9753341675,19365024.56665039,18294544.219970703,5671608.924865723,17878269.19555664,-152228790.28320312,-15988994.598388672,-8009155.2734375,-6556702.613830566,16418861.389160156,10727613.44909668,12817601.203918457,17725212.09716797,2633813.1427764893,7180439.472198486,-7495987.415313721,-7827533.24508667,-6986489.295959473,-7029879.093170166,-4441735.26763916,1272673.9645004272,2326866.865158081,2976572.5135803223,-7502561.092376709,-7160970.687866211,-4147166.2521362305,2153101.682662964,2378066.062927246
0.17,16074668.884277344,5188336.8492126465,13460953.712463379,15141921.043395996,20022123.336791992,6995600.22354126,28807315.826416016,19169483.184814453,17455455.780029297,12075578.689575195,13367950.439453125,23920217.514038086,25342962.26501465,33457862.854003906,4386558.055877686,18360586.166381836,15941358.56628418,17312110.900878906,18276540.756225586,19527111.053466797,19104070.66345215,34426582.33642578,7218556.880950928,2362547.8744506836,33026248.931884766,10787240.982055664,21621713.638305664,18718341.827392578,15328721.046447754,16709011.07788086,32996261.596679688,-19993494.033813477,-7871317.8634643555,-171224.37059879303,154144.7639465332,20454561.233520508,19346704.483032227,5851395.130157471,16431167.602539062,-157991882.32421875,-19187227.249145508,-7093700.408935547,-5690629.959106445,15900113.105773926,12607443.809509277,15146644.592285156,18771690.368652344,1866926.1932373047,5865434.646606445,-11562110.900878906,-6906149.864196777,-5991774.559020996,-5988694.667816162,-1884683.7282180786,2978313.684463501,3934085.3691101074,4581272.125244141,-6371274.948120117,-5945763.58795166,-1595675.9452819824,3873595.952987671,4087500.0953674316
0.175,16271596.908569336,5644257.545471191,14199445.724487305,14052926.063537598,20802993.774414062,2668827.533721924,26100450.51574707,17660924.911499023,16059864.044189453,11988470.077514648,13762559.89074707,24092622.756958008,25807563.78173828,34295059.20410156,-96012.62211799622,15252820.96862793,14116655.349731445,15483507.15637207,18105302.810668945,19528348.922729492,19696949.005126953,34939376.83105469,8127925.872802734,-1706194.1623687744,32177337.646484375,8080368.995666504,21171358.108520508,18656888.961791992,15205317.497253418,16632740.020751953,33848327.63671875,-21715129.852294922,-7817386.150360107,-2588282.1083068848,-1982503.890991211,19306863.78479004,19352794.647216797,5730435.371398926,15678320.88470459,-154689041.1376953,-22046670.91369629,-6885183.811187744,-5687067.031860352,13459627.151489258,12451632.499694824,15981559.753417969,19470108.032226562,3209604.7401428223,6933885.57434082,-11990335.464477539,-6683600.425720215,-5690534.591674805,-5579778.19442749,966735.0053787231,6841592.788696289,7615122.318267822,8414535.522460938,-5898325.443267822,-5636608.123779297,1364216.923713684,7870521.545410156,7713853.83605957
0.18,15447453.498840332,6084924.221038818,14546603.202819824,12926125.526428223,20836961.74621582,-2805981.397628784,23387125.01525879,15778264.045715332,14308646.202087402,10995196.342468262,13406373.023986816,24113927.841186523,25540521.6217041,33428394.317626953,-6929887.771606445,11549566.268920898,12106876.373291016,13580243.110656738,16932289.123535156,18868389.129638672,19953744.888305664,33536529.541015625,6053990.364074707,-8297063.827514648,29986055.374145508,5324459.075927734,20555786.1328125,17232339.85900879,14238758.087158203,16801900.86364746,34101917.2668457,-24242361.068725586,-10881657.600402832,-5459778.308868408,-4610347.747802734,17008798.599243164,17987552.642822266,5391494.7509765625,14485591.888427734,-147224243.1640625,-23962148.666381836,-9666987.419128418,-8609860.42022705,10407111.167907715,10125875.473022461,14349471.092224121,18408458.709716797,3350928.30657959,7547867.774963379,-11210759.162902832,-9497539.520263672,-8393628.120422363,-8241853.713989258,-391622.9009628296,6493850.231170654,7200940.132141113,8133882.522583008,-8615512.84790039,-8604303.359985352,28562.17883527279,7655948.638916016,7038851.261138916
0.185,14989650.72631836,5694792.2706604,12850528.717041016,13327054.023742676,19156570.434570312,-3155053.8539886475,24051855.087280273,15938368.797302246,14488409.996032715,9780373.573303223,12179527.282714844,22774309.158325195,23094816.207885742,29280193.328857422,-7930053.234100342,11339356.422424316,12372241.973876953,13865082.740783691,15984273.910522461,17757072.44873047,18665935.516357422,30149488.44909668,1505210.8764648438,-9305616.37878418,30608640.670776367,5499378.681182861,20881853.103637695,16174180.98449707,13221783.638000488,16050136.56616211,32673210.14404297,-26480403.900146484,-11974018.096923828,-4904266.357421875,-5559105.396270752,16435939.78881836,16936460.494995117,5425785.064697266,13299201.965332031,-144381698.60839844,-22738245.010375977,-10751499.17602539,-9711151.123046875,10050462.72277832,9283316.612243652,13416505.813598633,17767547.607421875,2772974.729537964,7792949.676513672,-10976449.012756348,-10664205.551147461,-9486669.540405273,-9403951.644897461,-2389241.933822632,3996782.5412750244,4847424.507141113,5680294.036865234,-9902336.120605469,-9916194.915771484,-2112366.6763305664,5164743.900299072,4400753.498077393
0.19,19182203.29284668,7830125.80871582,12637722.969055176,17562446.59423828,18896095.275878906,5488316.059112549,29902360.916137695,19656028.747558594,18070695.877075195,10363445.281982422,12103215.217590332,22116867.065429688,21394433.975219727,26806083.67919922,1509111.6428375244,16995279.31213379,16012311.935424805,17373939.514160156,16907373.428344727,17956506.729125977,18003408.432006836,29288764.95361328,-210392.96686649323,41769.07613873482,37391799.92675781,9540135.383605957,23047641.75415039,17049655.91430664,14327673.91204834,16688970.565795898,32976497.650146484,-25938129.425048828,-5971673.965454102,2043778.419494629,-3069394.588470459,18693702.697753906,17727109.909057617,6020967.00668335,14011028.289794922,-146683685.30273438,-17954362.869262695,-5117520.809173584,-4101152.4200439453,13582109.451293945,11555407.524108887,15187106.132507324,19595413.208007812,4368845.9396362305,9928238.868713379,-9949955.940246582,-5085938.930511475,-4018578.52935791,-4006385.8032226562,-363690.46568870544,4994954.586029053,6077637.672424316,6634174.823760986,-4585855.960845947,-4380302.906036377,-211755.4247379303,6099142.551422119,5596681.118011475
0.195,26620540.618896484,12434217.45300293,15615862.846374512,23795587.53967285,21955726.623535156,18175971.98486328,37954429.626464844,24976255.416870117,23209766.387939453,13048690.795898438,14310070.037841797,24240047.454833984,23233304.977416992,29281484.603881836,15257349.967956543,25643184.661865234,20857187.271118164,22136859.893798828,19433506.01196289,20044830.322265625,20014862.060546875,33084205.627441406,2660284.996032715,13804831.504821777,47118782.04345703,14669571.876525879,26051305.770874023,19045885.08605957,17517282.485961914,20162717.819213867,37042438.50708008,-23188737.869262695,3735906.6009521484,12263596.534729004,1171381.115913391,21730876.922607422,19571800.231933594,6538483.619689941,16999774.932861328,-147243423.46191406,-13120250.701904297,4224759.578704834,5099374.294281006,18002557.7545166,14114972.114562988,17554670.333862305,22486835.479736328,8335101.127624512,13963590.621948242,-6650856.494903564,4269434.928894043,5060869.6937561035,5109075.06942749,4206790.924072266,9987966.537475586,11178516.387939453,11632915.496826172,4523938.179016113,4926626.682281494,4434561.252593994,11112901.68762207,10954959.869384766
0.2,28554729.461669922,12365535.736083984,16504367.82836914,25678153.99169922,24621864.318847656,24429420.471191406,42065845.48950195,27454124.450683594,25613819.122314453,15017198.56262207,16585609.436035156,27339027.404785156,26243785.858154297,31936470.03173828,22349687.576293945,30983167.64831543,22940977.096557617,24333185.19592285,21139745.712280273,21838413.23852539,22897409.439086914,36878349.30419922,4830108.642578125,21042312.622070312,52010299.68261719,16557052.612304688,27138208.389282227,19822160.720825195,19584018.70727539,23011930.465698242,40965465.5456543,-22001234.05456543,8883352.279663086,18040836.334228516,3014267.921447754,22897266.387939453,20234649.658203125,6323133.945465088,19721488.95263672,-143100906.3720703,-12515543.937683105,9418340.682983398,10080319.40460205,19560009.002685547,14298267.364501953,17992588.04321289,23627296.447753906,11534335.136413574,16926540.37475586,-2986777.5440216064,9472702.026367188,10068657.875061035,10214176.177978516,7221356.391906738,14597167.96875,15702870.36895752,16390159.606933594,9650606.155395508,10069506.645202637,7634373.188018799,15851684.5703125,15758253.09753418
0.205,21696668.62487793,4889518.260955811,11642507.553100586,21080879.21142578,23306478.50036621,20291130.06591797,39780139.9230957,25497877.12097168,23735460.28137207,14232803.344726562,16477344.512939453,28186941.146850586,26471778.869628906,29220769.88220215,19401290.893554688,29713212.966918945,20908163.07067871,22460596.084594727,20512527.465820312,21270990.3717041,23471359.252929688,35443161.01074219,1801772.952079773,18204412.46032715,48904994.96459961,13934525.489807129,24968271.255493164,18506696.701049805,18128633.499145508,21146366.119384766,39793354.03442383,-24270425.79650879,7013379.096984863,15438261.985778809,727581.5606117249,21937377.9296875,18948041.915893555,5637987.13684082,19378309.24987793,-139687622.0703125,-16211832.046508789,7917857.1701049805,8421834.945678711,18009021.759033203,13396711.349487305,17314783.096313477,22522827.1484375,11544771.194458008,16402536.392211914,-2787847.2805023193,7922698.974609375,8562135.696411133,8752915.382385254,8338689.804077148,15982018.47076416,16969909.66796875,17866577.1484375,8183076.858520508,8545826.91192627,8830966.94946289,17345445.63293457,17055572.509765625
0.21,15871179.580688477,-155266.1657333374,7422469.139099121,17201622.009277344,21377319.3359375,13447781.562805176,35723834.99145508,23174161.911010742,21526630.401611328,13192915.916442871,15523691.177368164,27305768.966674805,24916296.005249023,24308311.462402344,13172802.925109863,24979248.046875,17940727.23388672,19510025.024414062,19300050.735473633,19781740.188598633,22186895.3704834,30854841.232299805,-2840624.5708465576,11838200.569152832,43168701.171875,10186432.838439941,21967451.095581055,16892782.21130371,15195988.655090332,16561767.578125,35104034.423828125,-26990005.493164062,3190468.7881469727,8722830.772399902,-2823524.9519348145,20741859.436035156,17491470.336914062,5342863.082885742,16531095.504760742,-142464340.20996094,-19712306.97631836,4328760.623931885,4828247.547149658,15997019.76776123,13736647.605895996,17690818.786621094,21091695.78552246,9371365.547180176,13194348.335266113,-6699596.881866455,4335943.698883057,5092150.688171387,5270668.506622314,9461693.76373291,15059246.063232422,16087421.417236328,16756227.493286133,4627010.345458984,4995503.902435303,9895641.326904297,16409427.642822266,15988891.6015625
0.215,20986093.521118164,6712834.358215332,11680780.410766602,21264148.712158203,24274888.99230957,13174111.366271973,35711643.21899414,25019887.924194336,23365749.35913086,15509935.37902832,17117256.16455078,27893392.56286621,25680709.838867188,24721427.91748047,10740201.950073242,22208269.119262695,17807670.59326172,19334070.205688477,20104429.244995117,20350271.224975586,22296155.92956543,29501417.16003418,-2587477.445602417,8994383.811950684,41372310.638427734,9273183.822631836,21740715.02685547,17064020.15686035,14757963.180541992,15087084.770202637,33207969.665527344,-26422721.86279297,1657405.0188064575,4826578.140258789,-3901262.2833251953,20779371.26159668,17809679.03137207,5744682.312011719,14534366.607666016,-148797988.89160156,-19229976.654052734,2675458.1928253174,3368358.612060547,15492973.327636719,14737150.192260742,19026826.858520508,20894895.553588867,7975743.770599365,10410588.264465332,-10441281.31866455,2872157.573699951,3574121.9520568848,3760462.0456695557,10044755.935668945,13692814.826965332,14882797.241210938,15076951.026916504,2979793.5485839844,3389005.422592163,10415872.573852539,14940150.260925293,14633022.30834961
0.22,31467422.485351562,18390256.881713867,20058689.11743164,29200523.376464844,29855340.9576416,18593641.28112793,39086296.08154297,29416229.248046875,27623878.479003906,19809850.692749023,20848951.33972168,30118661.880493164,28553390.502929688,30425363.540649414,11772788.047790527,22836311.34033203,19996042.251586914,21625411.987304688,22430078.506469727,22756122.589111328,24360670.08972168,32524253.845214844,2036579.6089172363,9632371.90246582,43184013.36669922,11020937.9196167,24419143.676757812,18674335.479736328,17177879.333496094,17642183.303833008,36023109.436035156,-23689567.56591797,1577008.1281661987,5751551.628112793,-2307634.3536376953,21779165.267944336,19432785.034179688,6252042.293548584,15156528.47290039,-151874053.95507812,-16104745.864868164,2395183.0863952637,3409599.781036377,16514587.40234375,14600653.648376465,19681272.506713867,21733142.852783203,9085694.313049316,10592718.124389648,-9560395.240783691,2849062.204360962,3374183.8932037354,3577970.7431793213,8726941.108703613,13255140.30456543,14490517.616271973,14560138.702392578,2718668.222427368,3124560.1177215576,9092046.737670898,14393254.280090332,14264421.463012695
0.225,34386905.670166016,20715726.852416992,21826091.766357422,31296583.17565918,31276342.391967773,21840446.47216797,40580390.93017578,30960544.58618164,29088737.48779297,21369024.2767334,23026456.832885742,30984718.322753906,29443937.301635742,34236682.8918457,12361618.041992188,24157379.150390625,21019042.96875,22839601.516723633,23449159.622192383,23833669.662475586,25474819.18334961,35063682.556152344,4694563.388824463,10181950.569152832,43919967.65136719,12225853.91998291,26679620.74279785,19553737.64038086,18793985.36682129,18994743.34716797,38838184.35668945,-23038173.67553711,1430212.6169204712,8671128.273010254,-512650.90703964233,22650947.57080078,20218820.571899414,6241735.458374023,16384136.199951172,-149281097.41210938,-14569345.474243164,2295395.3742980957,3536920.5474853516,18357477.18811035,13809927.940368652,19237327.575683594,22444263.458251953,11419365.882873535,13323670.387268066,-5122185.707092285,2763475.6565093994,3236299.2763519287,3380933.5231781006,7166614.055633545,14651763.916015625,15686935.424804688,16137016.296386719,2667324.7814178467,3025224.6856689453,7533736.228942871,15712896.347045898,15588484.764099121
0.23,29501422.882080078,14820339.20288086,17457248.68774414,27114753.72314453,28676029.205322266,20085058.212280273,38665378.57055664,28733850.479125977,27003480.911254883,19601579.666137695,22774734.497070312,30156682.96813965,28178333.282470703,33756568.908691406,11814906.120300293,24347949.981689453,19900156.021118164,21713069.915771484,22494028.091430664,22687168.12133789,24609455.108642578,34917808.532714844,3400511.0263824463,9879388.809204102,42413589.47753906,11600028.991699219,26527408.599853516,18685052.8717041,17413646.697998047,16307193.756103516,38328079.22363281,-24940557.4798584,1959953.4273147583,11039620.399475098,166006.59489631653,22732122.42126465,19284048.080444336,5809472.560882568,15575112.342834473,-143970809.93652344,-16002799.987792969,3043556.6902160645,4224084.854125977,20134160.9954834,13885966.300964355,18280942.916870117,22071645.736694336,11902057.647705078,15361003.875732422,-2739040.6131744385,3201648.473739624,3795110.4640960693,3829784.393310547,7549713.611602783,16846162.796020508,17606973.64807129,18449125.289916992,3455167.055130005,3744280.5767059326,7917962.551116943,17869403.839111328,17615640.64025879
0.235,28753152.84729004,15551089.2868042,18458168.029785156,25772836.685180664,29546916.961669922,17959247.589111328,37330429.07714844,27447444.915771484,25957248.68774414,18962324.142456055,23208877.563476562,31099866.86706543,29506927.490234375,34584728.2409668,11822364.807128906,24526851.654052734,19314964.294433594,20846628.189086914,21991821.2890625,22237312.31689453,24665090.560913086,35730663.29956055,2887648.582458496,9950521.469116211,41587329.86450195,11071633.338928223,25691343.307495117,17345638.275146484,15428861.618041992,13648949.62310791,37590595.24536133,-25259803.771972656,2786896.9440460205,12300935.745239258,375446.9156265259,22049411.77368164,17960470.19958496,5437763.214111328,13364179.611206055,-138782409.66796875,-17721559.524536133,3950257.3013305664,4879314.422607422,20526100.158691406,13993762.016296387,16562400.817871094,20518810.272216797,9205960.273742676,14105306.625366211,-5565681.934356689,3794219.970703125,4477506.637573242,4501280.307769775,7929824.8291015625,16494588.851928711,17178503.036499023,18015701.293945312,4369278.430938721,4561700.820922852,8340582.847595215,17538751.60217285,17227312.088012695
0.24,35496135.71166992,26326650.619506836,27561170.57800293,30421831.130981445,35546932.220458984,18524501.80053711,38953266.14379883,29319322.58605957,27877712.24975586,21007490.158081055,25225908.279418945,34529907.2265625,34223426.818847656,39179901.123046875,11913633.346557617,25682399.74975586,20699462.890625,21972640.991210938,23084390.64025879,24095115.661621094,27120393.753051758,39319091.796875,5550547.122955322,9671689.987182617,42305625.915527344,11902673.721313477,26198377.60925293,16981695.1751709,15800694.465637207,14917154.312133789,40127902.98461914,-22150539.39819336,1241748.2137680054,12039066.314697266,322348.05822372437,21077875.1373291,17611938.4765625,5268001.556396484,12425823.211669922,-134432281.49414062,-17606521.606445312,2276835.9184265137,3081716.775894165,18943830.490112305,12083958.625793457,13773304.93927002,18673349.380493164,5700454.7119140625,10848509.788513184,-10463165.283203125,2132308.9599609375,2761963.6058807373,2910779.2377471924,4971567.153930664,12066933.631896973,12903525.352478027,13528058.052062988,2701141.595840454,2808333.396911621,5439126.968383789,13198419.570922852,12942248.344421387
0.245,38286788.94042969,31868206.024169922,32196365.356445312,32704380.03540039,38068050.384521484,18850196.838378906,40379859.924316406,30205560.6842041,28562911.987304688,21168270.111083984,25036596.298217773,35684406.28051758,35917755.126953125,41120632.17163086,10473236.083984375,26628196.716308594,21630893.70727539,22933002.471923828,23387361.526489258,25367902.755737305,28573385.23864746,41080722.80883789,6962423.801422119,7763164.99710083,41965270.99609375,12450662.612915039,27072380.06591797,17276401.51977539,17456680.297851562,17118280.4107666,43441864.013671875,-19297365.188598633,-2651317.834854126,10244143.48602295,-823578.6557197571,20593805.31311035,17843471.52709961,5096989.154815674,13254026.412963867,-132193206.78710938,-16726066.589355469,-1723535.418510437,-784671.7834472656,16999704.360961914,8949959.754943848,11545127.868652344,17756828.30810547,4771074.295043945,9285223.007202148,-12247677.80303955,-1609485.7454299927,-1050746.202468872,-819582.6411247253,442231.8935394287,7276302.814483643,8260921.478271484,8832112.312316895,-1271597.0277786255,-1139041.543006897,902551.5913963318,8509322.166442871,8272101.402282715
0.25,30579692.840576172,22922910.690307617,24427385.330200195,27097871.780395508,32024135.58959961,16398502.349853516,38474136.35253906,26767274.856567383,24956430.435180664,16745683.670043945,20846282.958984375,31731983.184814453,31028686.5234375,36041316.986083984,8638485.9085083,26237787.2467041,19902954.1015625,21379907.608032227,21073669.43359375,23323219.299316406,26084575.653076172,37637748.71826172,4057077.8846740723,5819096.565246582,39738845.82519531,11119917.869567871,26414665.22216797,17185754.776000977,17473239.89868164,15581226.348876953,43467651.3671875,-19615840.911865234,-4477890.491485596,8907399.17755127,-2788458.1089019775,21121200.561523438,17651794.43359375,4892402.172088623,13833730.697631836,-133675109.86328125,-15998517.990112305,-3495417.1180725098,-2394301.8913269043,17034570.693969727,7741131.30569458,12046969.413757324,18235876.083374023,6678846.836090088,10982415.199279785,-9849388.122558594,-3211827.7549743652,-2632233.3812713623,-2509763.00239563,-343499.7797012329,7009459.972381592,7952229.976654053,8628335.952758789,-3020057.439804077,-2741713.762283325,44577.97855138779,8265800.476074219,7939726.35269165
0.255,23808597.564697266,13431859.970092773,15876553.535461426,21654502.868652344,25935995.10192871,14227176.666259766,35756504.05883789,23060714.721679688,21346504.21142578,13159271.240234375,17638799.6673584,27736349.10583496,26303859.71069336,31158123.016357422,9065270.42388916,25724502.563476562,17620162.963867188,19087835.31188965,18705619.81201172,20469005.584716797,22827548.98071289,33970127.10571289,1642275.094985962,6402120.113372803,38694446.5637207,9384412.76550293,25037513.732910156,16883707.04650879,16164403.915405273,12257321.35772705,41929416.65649414,-20164562.225341797,-1873461.8425369263,10216236.114501953,-3595672.607421875,22169443.130493164,17295089.721679688,4874350.070953369,13340103.149414062,-137036987.3046875,-13609576.225280762,-832849.383354187,208450.5707025528,19025094.985961914,9135121.34552002,14501389.503479004,19496938.705444336,8787820.816040039,14072882.652282715,-6354674.339294434,-596895.5159187317,13827.650807797909,-46555.07951974869,3286064.1479492188,10737282.752990723,11533120.155334473,12265020.370483398,-361698.06122779846,43227.121233940125,3601660.966873169,11889512.062072754,11469223.976135254
0.26,30979333.877563477,20784257.888793945,21875541.68701172,26503036.499023438,30409894.943237305,16213005.065917969,36776699.06616211,25104454.040527344,23622966.766357422,16815229.415893555,20813453.674316406,30350530.62438965,30104835.510253906,35921409.606933594,11443778.038024902,27035589.21813965,18332386.016845703,19574726.104736328,19949794.76928711,21257184.982299805,24012044.90661621,36934871.673583984,5448933.6013793945,8718473.434448242,40909267.42553711,9668813.705444336,25296115.87524414,17305704.11682129,16547645.568847656,12847742.080688477,43650184.631347656,-17328569.412231445,1348645.0910568237,13094814.30053711,-2288003.68309021,22502542.49572754,17720098.4954834,5061772.82333374,13408650.398254395,-137371475.21972656,-8597807.884216309,2255020.3800201416,3078866.958618164,20434450.149536133,10047821.044921875,15505403.518676758,20625080.108642578,9655858.993530273,16539970.397949219,-4215929.5082092285,2386172.5330352783,2964209.3181610107,2880729.1984558105,5957946.300506592,13730099.67803955,14476937.294006348,15208375.930786133,2712035.1791381836,3123805.522918701,6221717.357635498,14710707.664489746,14274765.014648438
0.265,45746761.322021484,38648956.298828125,37829669.95239258,37588237.76245117,41672561.64550781,20842710.494995117,41180000.30517578,31504058.837890625,30130197.525024414,24758890.15197754,27720478.057861328,37897994.99511719,39794990.53955078,47342258.45336914,13232241.6305542,30242341.995239258,21601190.5670166,22713628.7689209,23875617.98095703,25230941.772460938,28887266.159057617,44581047.05810547,12856906.89086914,10138700.485229492,44065269.470214844,11561162.948608398,27036613.46435547,18223171.23413086,19140249.252319336,17270978.927612305,48340278.62548828,-13148665.428161621,1415272.2358703613,14522336.00616455,-644680.7384490967,21694515.228271484,18665046.69189453,5123912.334442139,14955252.647399902,-132622650.14648438,-4046971.321105957,2072936.773300171,2736723.4230041504,19685499.19128418,8369296.073913574,13601890.563964844,21171270.3704834,10570729.25567627,18525386.810302734,-2856463.670730591,2154026.746749878,2737235.7845306396,2823018.789291382,4730493.068695068,14468800.54473877,15296353.340148926,16057207.107543945,2511531.8298339844,2886090.5170440674,4957731.7237854,15356330.871582031,14942349.433898926
0.27,50387176.513671875,44950981.14013672,44696578.97949219,41685142.517089844,46264846.80175781,23671436.309814453,44489997.86376953,35081916.80908203,33681812.28637695,27900089.263916016,30832515.716552734,42386505.126953125,45097171.783447266,53692985.53466797,14485770.225524902,33990955.3527832,23673250.198364258,24950582.50427246,25998855.590820312,27646514.892578125,31771976.470947266,48727474.212646484,16780834.197998047,11206467.628479004,45224414.82543945,12566072.463989258,27605642.318725586,18324398.040771484,20859855.65185547,19383045.196533203,50979061.126708984,-11640665.054321289,1046692.7289962769,14308737.754821777,-848898.1127738953,20930595.39794922,18822183.60900879,4832683.563232422,16183889.389038086,-126626510.62011719,-3137745.6188201904,1601476.1924743652,2185174.7035980225,18197542.190551758,6201862.335205078,11334497.451782227,21120563.507080078,12341745.376586914,20301698.684692383,-1152086.9731903076,1595777.988433838,2305394.411087036,2556985.1398468018,3700164.556503296,16217885.971069336,17098205.56640625,17806184.768676758,1976525.902748108,2363878.7269592285,3958693.9811706543,17197040.557861328,16822153.091430664
0.275,40685287.47558594,32985126.495361328,35510105.13305664,35111331.939697266,39932960.510253906,23505430.221557617,44637290.954589844,32955844.87915039,31578853.607177734,23517385.482788086,27976924.896240234,40333202.36206055,42131126.403808594,50909969.329833984,17491920.471191406,37252532.958984375,22943996.42944336,24485317.23022461,24556825.637817383,26388322.830200195,30299047.470092773,46642955.7800293,15885961.532592773,14537875.175476074,44895793.91479492,11930530.548095703,26002941.131591797,17313634.872436523,19715768.814086914,16329612.731933594,49716987.60986328,-11916326.522827148,4406618.595123291,15085172.653198242,-2583030.7006835938,21576776.5045166,17896806.716918945,4396780.014038086,15259915.351867676,-124252265.93017578,-4103835.5827331543,5107047.557830811,5555459.022521973,17962390.899658203,6539809.703826904,11629012.107849121,20687286.376953125,13227382.65991211,20455621.71936035,174587.1901512146,4923292.636871338,5741753.101348877,6002035.617828369,7070551.872253418,20320240.020751953,21139223.098754883,21585262.298583984,5364391.326904297,5742296.6957092285,7456054.210662842,21521722.7935791,21275066.375732422
0.28,30137132.64465332,18818792.34313965,23140869.140625,27638462.06665039,32047508.239746094,22577653.884887695,43769592.28515625,29562826.15661621,28291931.15234375,18114215.850830078,24054109.573364258,36071655.2734375,36779815.673828125,46255577.087402344,21351291.65649414,39270885.4675293,21530647.27783203,23130077.362060547,22307779.31213379,24144178.39050293,27733793.258666992,43360095.9777832,14544342.994689941,18869861.602783203,44698223.11401367,11273214.340209961,24346868.51501465,16517353.057861328,17509893.4173584,12235692.977905273,47715911.865234375,-10604745.864868164,8754873.275756836,16912569.046020508,-4010611.057281494,23210975.646972656,17145357.131958008,4157642.364501953,13132475.852966309,-125792022.70507812,-3342258.6917877197,9680230.140686035,9927956.581115723,18457748.413085938,8793553.352355957,13973583.221435547,20360557.556152344,11747239.112854004,18089056.01501465,-221923.75361919403,9377057.075500488,10117440.223693848,10275151.252746582,12066865.921020508,22902051.92565918,23666593.551635742,23832201.00402832,9846866.607666016,10089322.090148926,12559495.92590332,24267852.783203125,24224143.981933594
0.285,29339536.666870117,16785224.91455078,20135400.772094727,27125970.8404541,30564884.185791016,21957933.42590332,43443382.263183594,28832302.09350586,27611848.831176758,17030340.19470215,22669464.111328125,33959011.07788086,34187751.77001953,45353706.35986328,21520278.930664062,38813610.0769043,21029880.52368164,22483970.642089844,21595069.885253906,23177473.068237305,26647901.53503418,42328678.131103516,14146948.81439209,19095594.40612793,43564907.07397461,11348628.997802734,24316551.208496094,16806518.5546875,16472703.93371582,11038883.209228516,46762084.9609375,-8983033.180236816,7306668.281555176,15766338.348388672,-4791465.759277344,23862131.118774414,17374973.29711914,4137605.1902770996,11798362.731933594,-127756767.27294922,-1983607.530593872,8309324.264526367,8421831.130981445,17357923.50769043,9775545.120239258,15536831.855773926,20391443.252563477,9316250.801086426,14879034.996032715,-2171293.258666992,8085985.18371582,8653697.01385498,8715974.807739258,12724683.76159668,20503057.4798584,21344491.958618164,21520092.010498047,8486821.174621582,8575842.85736084,13174674.987792969,21824382.781982422,21880817.413330078
0.29,33329849.243164062,22102144.241333008,23216617.584228516,29593122.482299805,32111267.08984375,20497909.545898438,41983894.34814453,28728256.225585938,27474016.189575195,17601854.32434082,21731760.025024414,32937183.380126953,32637905.12084961,44988681.79321289,16509666.442871094,35324687.95776367,20007314.682006836,21359138.48876953,21117752.075195312,22133201.599121094,25397064.208984375,40998184.20410156,11705677.032470703,13728101.73034668,39815837.86010742,10743814.468383789,24595291.137695312,17211959.838867188,16015335.083007812,11148267.74597168,44865180.96923828,-11081640.243530273,-282039.5827293396,9670230.865478516,-6064904.21295166,22431678.771972656,17677087.783813477,4097980.02243042,11285758.972167969,-127561157.2265625,-4031222.343444824,592977.4045944214,672738.8501167297,14032894.134521484,8179124.83215332,14901741.027832031,20192697.525024414,8133814.811706543,12933750.15258789,-4262721.061706543,550126.3737678528,1092592.8354263306,1100294.828414917,8322319.030761719,15353013.038635254,16300662.994384766,16725702.285766602,850234.4489097595,984393.5370445251,8652173.99597168,16460210.800170898,16420558.92944336
0.295,33129516.6015625,23308166.50390625,23127271.65222168,28147634.506225586,30579277.03857422,18031085.968017578,38214984.89379883,26139392.852783203,24899860.382080078,15485750.198364258,18996343.6126709,30829412.46032715,29838098.526000977,41677268.981933594,11035118.103027344,30650665.283203125,17253322.60131836,18633682.250976562,19238636.016845703,19752418.518066406,22684547.424316406,37586990.35644531,7226294.994354248,7973269.462585449,35378433.22753906,8728327.751159668,23461791.9921875,16582309.72290039,14850481.033325195,9938415.52734375,41608547.21069336,-15368727.684020996,-6495646.4767456055,3148932.695388794,-7669712.066650391,20222200.393676758,17023300.170898438,3921048.402786255,10420090.675354004,-125477828.97949219,-8620876.31225586,-5842994.689941406,-5771734.714508057,10969446.182250977,5973025.798797607,13125390.05279541,19081106.185913086,8051054.000854492,11936553.955078125,-5684578.418731689,-5803814.888000488,-5105481.147766113,-5139304.637908936,3662693.0236816406,11888890.266418457,12770055.770874023,13338663.101196289,-5506347.179412842,-5138161.659240723,3970006.9427490234,12803914.070129395,12643103.59954834
0.3,30131935.119628906,20697177.88696289,20279478.073120117,24477752.685546875,27792161.94152832,16204078.674316406,34664417.2668457,23030372.619628906,21896354.67529297,12568893.432617188,16980640.411376953,29266456.604003906,28423517.22717285,39151485.443115234,9550832.748413086,27674032.21130371,14796466.827392578,16165594.100952148,17561546.325683594,18134893.4173584,21088985.443115234,35700714.111328125,5654737.47253418,6549396.03805542,33839771.27075195,7055218.21975708,21915878.295898438,15527883.529663086,13999566.078186035,8862321.853637695,40406497.955322266,-15285658.836364746,-6543900.966644287,1738276.720046997,-7946761.608123779,19322360.99243164,16049322.128295898,3700974.464416504,9465856.552124023,-123043571.47216797,-10049768.447875977,-6067455.291748047,-5967244.1482543945,10775291.442871094,5251184.940338135,11597002.029418945,17584440.231323242,7511248.1117248535,10441464.4241333,-6779541.492462158,-6077460.765838623,-5256991.863250732,-5302046.775817871,1681952.953338623,10387552.261352539,11048999.786376953,11539700.508117676,-5642649.6505737305,-5119401.931762695,2047251.7013549805,11289402.00805664,11165476.79901123
0.305,31562442.779541016,22589357.376098633,21689762.115478516,25115108.489990234,29310207.36694336,15449395.179748535,34299625.396728516,23575519.561767578,22509439.46838379,13773750.305175781,18928388.595581055,30748535.15625,30882579.803466797,41618381.50024414,9844235.42022705,26935827.255249023,15099129.676818848,16333890.914916992,18528917.31262207,19519630.432128906,22940666.19873047,38328197.47924805,9122929.573059082,7008639.812469482,34573612.213134766,7206867.694854736,22029104.232788086,15500020.027160645,15118370.056152344,10242450.714111328,42822193.14575195,-9210542.678833008,-4827020.168304443,4012977.123260498,-6996683.120727539,19957944.869995117,16126632.690429688,3552101.6120910645,9850427.627563477,-121492500.30517578,-6563381.671905518,-4395305.156707764,-4135584.3544006348,12515172.004699707,5570003.032684326,10622647.285461426,17089826.583862305,6557621.955871582,8996612.548828125,-7798679.351806641,-4464739.3226623535,-3700695.037841797,-3661398.410797119,281819.99921798706,7898949.146270752,8438416.481018066,8880579.948425293,-3842462.5396728516,-3418343.7824249268,603408.3962440491,8943731.307983398,8885770.797729492
0.31,37271278.381347656,29304962.158203125,27343093.872070312,30135047.912597656,34122810.36376953,13797664.642333984,35736057.28149414,27178775.787353516,26069984.436035156,18671178.817749023,22903768.53942871,33547000.885009766,33691238.40332031,45172874.450683594,6894027.7099609375,26096784.591674805,16764064.78881836,17949903.48815918,21064884.185791016,22097944.259643555,25746774.673461914,41872047.424316406,12584244.728088379,4057703.4950256348,32837028.50341797,7480496.883392334,23299781.799316406,16475362.777709961,17141204.833984375,12182816.505432129,45077003.479003906,-3979801.654815674,-7670802.593231201,3296407.461166382,-7770557.880401611,20322206.497192383,17181261.06262207,3523383.855819702,11546571.731567383,-121231498.71826172,-3695980.7872772217,-7133935.451507568,-6670387.744903564,12403736.114501953,5061495.780944824,10123806.953430176,17849937.438964844,6567771.911621094,9342615.127563477,-8158951.759338379,-7209795.4750061035,-6576127.529144287,-6358823.299407959,-2725273.847579956,4197764.3966674805,4833543.300628662,5458265.781402588,-6481815.338134766,-6279997.3487854,-2568500.9956359863,5372660.6369018555,5143529.415130615
0.315,39347824.09667969,31274574.279785156,29042623.51989746,32585319.51904297,35525455.474853516,10270037.651062012,35177768.70727539,28974803.924560547,27810338.973999023,21616460.8001709,23987743.377685547,33587314.60571289,31713865.280151367,42872253.41796875,1617234.230041504,23901964.18762207,16280141.830444336,17685813.903808594,21797761.917114258,22333421.70715332,25442255.0201416,40907577.51464844,10678216.934204102,-1275995.8505630493,27247396.46911621,5426691.055297852,23290718.07861328,17072753.90625,17419898.986816406,11045642.852783203,43481132.50732422,-5493985.652923584,-13116697.311401367,-2245798.110961914,-11843332.290649414,19237962.72277832,17842823.028564453,3680613.7561798096,12835678.100585938,-122059173.58398438,-5878887.176513672,-12392986.297607422,-11936067.581176758,8937068.939208984,3300455.5702209473,10372595.78704834,18548683.166503906,7697673.797607422,11234505.653381348,-6992350.101470947,-12461936.950683594,-11871417.045593262,-11523427.963256836,-4990447.998046875,3202226.8772125244,3953884.8400115967,4839533.32901001,-11774740.219116211,-11697046.279907227,-4918798.923492432,4359291.076660156,3778369.188308716
0.32,33820827.48413086,22999809.26513672,22744613.647460938,28776229.858398438,31102323.532104492,7566504.001617432,32565521.240234375,27032615.661621094,25877622.604370117,19813531.87561035,21111099.243164062,30438760.75744629,26159534.454345703,35741062.16430664,794219.6130752563,22933216.094970703,13542072.296142578,15245154.38079834,20080635.07080078,20223009.10949707,22441881.17980957,36211841.58325195,5310648.9181518555,-1936534.8815917969,23323040.008544922,2297993.8983917236,21546382.904052734,16749031.066894531,15707978.248596191,7461512.088775635,40053615.57006836,-11101109.504699707,-12869576.454162598,-5965884.208679199,-15939427.375793457,17884052.276611328,17546030.044555664,4037782.669067383,12859225.273132324,-123247116.08886719,-9620549.201965332,-12020010.948181152,-11816649.436950684,5835814.952850342,1956116.5571212769,11313796.043395996,18327159.881591797,8783991.813659668,12609671.592712402,-4348998.546600342,-12077683.448791504,-11445536.613464355,-11183740.615844727,-2467406.5113067627,7853032.112121582,8526642.799377441,9464715.957641602,-11526431.0836792,-11445255.279541016,-2313855.1712036133,8880670.547485352,8145101.547241211
0.325,25841941.833496094,10820881.843566895,14431975.364685059,23106897.354125977,25715400.69580078,8849833.488464355,31943401.336669922,24700714.111328125,23549087.524414062,16479137.420654297,17856990.814208984,27789731.979370117,23073415.756225586,31796302.795410156,7194972.991943359,26007429.122924805,12120605.46875,13853436.470031738,18615646.362304688,18899007.79724121,20669462.203979492,33265148.162841797,2493749.3801116943,4841104.984283447,26185974.12109375,1899460.5541229248,20224582.67211914,16341293.334960938,14320684.432983398,5602294.445037842,38905529.0222168,-14543478.012084961,-3868590.1165008545,-1831323.9812850952,-15550929.069519043,18103511.810302734,17078344.345092773,4385299.205780029,12602818.489074707,-123423530.57861328,-9118088.722229004,-3047263.1454467773,-2991996.2882995605,7990655.899047852,2707741.4989471436,12024999.618530273,18035392.76123047,9599713.325500488,12964573.860168457,-1562863.3499145508,-3039702.4154663086,-2394293.785095215,-2404142.6181793213,4455030.44128418,15718978.881835938,16230354.309082031,16948461.532592773,-2596690.1779174805,-2492176.294326782,4675572.872161865,16654180.526733398,16136831.283569336
0.33,21939857.482910156,4376446.723937988,11471321.105957031,20891090.393066406,23808376.31225586,12340517.9977417,34549945.83129883,24562141.41845703,23341957.092285156,14968524.932861328,16602195.739746094,27751018.524169922,24643028.259277344,34463012.6953125,13781197.547912598,30467782.974243164,13341528.89251709,14837693.214416504,18722843.170166016,19353469.848632812,21322706.22253418,34159339.904785156,3902967.2145843506,11721086.502075195,32250804.901123047,4772909.164428711,20556854.248046875,16344175.338745117,14355534.553527832,6905219.554901123,39625812.53051758,-14466666.221618652,6352867.126464844,6264801.502227783,-11176983.833312988,19814712.524414062,16978319.16809082,4415347.099304199,12942880.630493164,-121225082.39746094,-5137365.818023682,7082861.90032959,7427828.311920166,14961192.13104248,5377061.84387207,11782879.829406738,18670806.884765625,11138020.515441895,14000202.178955078,-382653.6536216736,7198266.983032227,7775325.298309326,7596879.959106445,10136779.78515625,20703987.12158203,21236444.4732666,21665792.46520996,7636704.444885254,7747918.605804443,10256788.25378418,21647792.81616211,21422567.36755371
0.335,21907899.856567383,5195989.13192749,13105197.90649414,20903173.446655273,23495302.200317383,12010538.101196289,35464645.38574219,23988519.6685791,22704793.93005371,13793262.481689453,15368795.394897461,27724849.700927734,26421632.766723633,37818271.63696289,11367642.402648926,29610357.2845459,13606823.921203613,14940617.561340332,18065065.383911133,18892158.50830078,21289079.666137695,35375000.0,5189084.053039551,9325007.438659668,32888153.076171875,6730000.4959106445,21161396.026611328,16152103.424072266,14275583.267211914,8195486.068725586,38306423.18725586,-14308485.03112793,7896657.466888428,9000597.953796387,-7791835.784912109,21331325.53100586,16760017.395019531,4094640.2549743652,13288488.388061523,-117533180.2368164,-3833143.472671509,8666476.249694824,9601200.103759766,21030796.05102539,8542078.018188477,11364504.81414795,19662252.42614746,13352746.00982666,16151508.331298828,-1838610.7683181763,8830887.794494629,9302641.868591309,9303510.665893555,9538236.618041992,18477199.55444336,19214853.286743164,19565612.79296875,9310735.702514648,9459231.37664795,9504035.949707031,19424009.323120117,19185882.568359375
0.34,21275064.46838379,7363546.371459961,13106134.414672852,18725805.282592773,20624887.466430664,5415799.140930176,30548038.482666016,19844781.87561035,18591672.897338867,10192726.135253906,11789428.7109375,24340997.69592285,23846891.403198242,34911602.02026367,729693.6511993408,21542222.97668457,9972290.992736816,11378300.666809082,14716931.343078613,15685790.061950684,18158330.9173584,33470294.952392578,2106560.468673706,-1452736.9737625122,26210941.314697266,4785583.972930908,20884210.58654785,15539276.123046875,12840315.818786621,6481381.416320801,33815887.451171875,-16221996.307373047,254079.669713974,4230187.41607666,-8040315.628051758,21907604.217529297,16210222.244262695,3743253.231048584,12822390.55633545,-116748138.42773438,-8006759.6435546875,1237852.2157669067,2610988.140106201,22251180.64880371,11351582.527160645,12362739.562988281,19878087.997436523,14478488.92211914,17113454.818725586,-5494188.30871582,1331733.4651947021,1738205.3136825562,2112323.522567749,3794755.458831787,10535486.221313477,11387170.791625977,12013827.323913574,1774399.995803833,1993030.5480957031,3722028.2554626465,11362443.923950195,10832557.678222656
0.345,19059761.04736328,6903566.837310791,9201963.424682617,15011399.269104004,15688153.266906738,-1215708.7326049805,24320894.241333008,15120645.523071289,13947492.599487305,6034684.181213379,7615872.859954834,18730627.059936523,18146186.82861328,26641340.255737305,-6940227.508544922,13916782.37915039,5798402.786254883,7281951.427459717,11133732.795715332,12115400.314331055,13813014.030456543,29329677.58178711,-4665150.165557861,-9239914.894104004,20498783.111572266,1952403.4261703491,21125980.377197266,15466762.54272461,11235745.429992676,2761739.96925354,29173566.818237305,-19185697.555541992,-7003448.009490967,49780.13411164284,-9145179.748535156,22471614.837646484,16146776.19934082,3662278.890609741,11898070.335388184,-122729507.44628906,-13989848.136901855,-5830787.658691406,-4372615.337371826,20878671.646118164,13705860.137939453,14824936.866760254,19443534.85107422,13333024.024963379,15326706.886291504,-9379513.74053955,-5861779.689788818,-5424831.867218018,-4912964.820861816,-1178322.196006775,3391350.030899048,4142025.4707336426,5271649.8374938965,-5564162.254333496,-5285868.167877197,-1211723.2084274292,4050639.6293640137,3289928.436279297
0.35,19191152.572631836,6278076.171875,5734319.21005249,15458953.857421875,13399707.794189453,729144.5136070251,25554090.49987793,16204465.866088867,15074585.914611816,6183112.144470215,6812371.730804443,15804082.870483398,14109128.952026367,19735490.798950195,-3023888.8263702393,15879543.30444336,6993638.038635254,8360518.455505371,11312551.498413086,11646669.387817383,11623130.798339844,25980325.69885254,-10962867.736816406,-5464010.238647461,23501560.21118164,3305875.539779663,23550275.802612305,16466506.958007812,11069497.108459473,35755.906254053116,26926568.98498535,-21748998.641967773,-5825717.449188232,3602072.238922119,-7752042.770385742,23634811.401367188,17006395.33996582,3837969.0647125244,11343748.092651367,-132055862.42675781,-17147241.592407227,-4681455.135345459,-3249803.7815093994,21111368.17932129,14907225.608825684,16411092.758178711,19216701.50756836,10996484.756469727,12814173.698425293,-11100188.255310059,-4788645.7443237305,-4236815.452575684,-3970314.0258789062,-1583474.1592407227,2602153.778076172,3249206.066131592,4767741.2033081055,-4624030.590057373,-4294354.438781738,-1619980.9312820435,3241685.8673095703,2514307.0220947266
0.355,23764892.578125,8713089.942932129,6665914.058685303,21832954.40673828,15987912.17803955,10707656.860351562,34909809.11254883,23523021.697998047,22420598.98376465,11209945.678710938,10002892.49420166,18444742.20275879,13966535.568237305,18221982.955932617,7984494.209289551,26272039.41345215,13458795.547485352,14681989.669799805,14991149.90234375,13960198.402404785,12057394.981384277,24690923.6907959,-13630237.579345703,5253427.505493164,32101192.474365234,8766308.784484863,26941501.61743164,17362365.72265625,11822979.927062988,-567783.9517593384,26104961.395263672,-23589752.197265625,753881.2756538391,11284493.446350098,-4879580.974578857,24540687.561035156,17721258.16345215,4053302.764892578,11061396.598815918,-135430618.2861328,-17366855.62133789,1742820.9781646729,3335279.941558838,22880096.435546875,13841567.039489746,14950877.18963623,19073711.395263672,9299013.137817383,12156677.24609375,-10150554.656982422,1640430.4504394531,2281601.1905670166,2290788.412094116,279540.7474040985,6768264.7705078125,7501079.082489014,9046041.488647461,1808203.935623169,2197736.0248565674,233318.65668296814,7563270.568847656,7035332.679748535
0.36,28004858.016967773,11490163.803100586,9383187.294006348,27333255.767822266,19835302.352905273,17721670.150756836,42290309.90600586,29313570.022583008,28303312.301635742,15387347.221374512,13258590.698242188,24125499.725341797,15576272.010803223,19876882.553100586,13894117.35534668,34127315.521240234,18285808.563232422,19562500.0,17590970.993041992,15479340.553283691,12874606.132507324,24563650.131225586,-12901033.401489258,10880634.307861328,36503841.400146484,12993543.62487793,28403799.057006836,16830444.3359375,11830332.75604248,-354677.55794525146,24569242.477416992,-24491670.608520508,3063905.4775238037,13993091.583251953,-3849814.6533966064,24385149.002075195,17120519.638061523,4097503.185272217,10287430.763244629,-129083435.05859375,-17763633.728027344,4036179.0657043457,5948218.822479248,22775373.458862305,11104310.989379883,11545705.795288086,18253536.224365234,8643969.535827637,12154041.290283203,-9072981.834411621,3992770.195007324,4582850.933074951,4712412.357330322,-166466.07220172882,8969584.465026855,9831291.198730469,11144606.590270996,4268714.904785156,4669597.148895264,-127205.59537410736,9865139.00756836,9512854.57611084
0.365,25035408.02001953,8509383.201599121,8058732.032775879,24423664.093017578,20079839.7064209,13357468.605041504,39350345.611572266,27063547.134399414,26218046.188354492,13742721.557617188,13058753.967285156,28149816.513061523,16058013.916015625,20443973.541259766,9372255.325317383,32006793.975830078,16470670.700073242,17868608.474731445,16271364.212036133,14320832.252502441,12688816.07055664,24475812.911987305,-11286694.526672363,6434285.640716553,32780887.603759766,12280508.041381836,27088514.32800293,15462171.55456543,10885871.887207031,-788733.8995933533,22271219.25354004,-24392791.748046875,-2506856.679916382,9259564.399719238,-5517428.874969482,23733766.555786133,15775520.324707031,3803399.085998535,8951550.483703613,-121217239.37988281,-20075546.264648438,-1335121.8700408936,794239.8190498352,19746276.85546875,9308345.794677734,9702412.605285645,17101579.666137695,8144598.007202148,9471035.00366211,-11012104.034423828,-1295085.5493545532,-850425.4817962646,-377662.89710998535,-3456025.6004333496,5294969.55871582,6076746.463775635,7205215.4541015625,-940206.8257331848,-644803.1067848206,-3287449.598312378,6034431.934356689,5726359.844207764
0.37,15442414.283752441,-343524.694442749,2217549.5624542236,15255113.60168457,17026475.90637207,2628981.113433838,30215717.315673828,19976337.432861328,19293827.056884766,8693174.362182617,10699216.842651367,29127035.14099121,15424494.743347168,18799468.994140625,795128.0474662781,24349962.23449707,10939006.805419922,12251338.005065918,13447923.66027832,12504343.98651123,12453848.838806152,24189395.904541016,-10886848.449707031,-1739877.2239685059,26401723.861694336,8490077.018737793,24889060.974121094,14915522.575378418,10335554.122924805,-1781410.2172851562,20895599.365234375,-24389324.188232422,-9768530.84564209,3127637.8631591797,-8056683.540344238,23274360.65673828,15215008.735656738,3144648.790359497,7973826.4083862305,-121874626.15966797,-23047201.15661621,-8411096.572875977,-6286615.84854126,16442552.56652832,9845441.818237305,10887522.69744873,16791603.088378906,7152988.433837891,4111140.251159668,-15850088.119506836,-8290941.23840332,-7895703.7925720215,-7342241.287231445,-6228985.786437988,-561539.8287773132,-18710.538744926453,1089985.3706359863,-7940486.907958984,-7804358.005523682,-6029760.837554932,-117852.44196653366,-540198.802947998
0.375,8140566.825866699,-7017293.930053711,-1945342.6599502563,9598049.16381836,15504013.061523438,-2804284.09576416,25224790.573120117,16494806.289672852,15887243.270874023,6815989.4943237305,10178635.597229004,29511915.20690918,15672118.186950684,16899314.880371094,-3809607.0289611816,19948652.267456055,7832229.137420654,8926441.192626953,13050681.114196777,12740597.72491455,13394314.765930176,23955005.645751953,-12057449.340820312,-6191409.587860107,23266696.92993164,5438158.03527832,23625087.73803711,15513593.673706055,10990851.402282715,-2052157.8788757324,21192562.103271484,-25863254.54711914,-12260140.419006348,587034.1062545776,-10163384.437561035,22384090.423583984,15743658.065795898,2477357.6259613037,8261318.206787109,-129410095.21484375,-24687902.450561523,-10954848.289489746,-8928160.667419434,14907350.540161133,10598599.433898926,12479845.04699707,17384107.58972168,5987592.2203063965,236074.34332370758,-20086116.790771484,-10798433.303833008,-10273894.309997559,-10021010.398864746,-6931248.188018799,-3175714.9696350098,-2735481.9774627686,-1631022.334098816,-10460329.055786133,-10385853.76739502,-6810910.224914551,-2850093.6031341553,-3478876.829147339
0.38,9759316.444396973,-4981428.623199463,189585.89434623718,12391063.690185547,18058815.002441406,-139378.8605928421,27059913.635253906,19266725.540161133,18577257.15637207,10164627.075195312,12666132.926940918,31088233.947753906,17343523.025512695,16350294.11315918,-4641826.152801514,20292818.069458008,8621149.063110352,9709770.202636719,15317998.886108398,14803202.629089355,15004133.224487305,23926755.905151367,-14005051.612854004,-7534137.24899292,22545352.935791016,4209940.433502197,23295202.255249023,16141294.479370117,12291158.676147461,-635026.0972976685,21974197.387695312,-28347114.56298828,-11470388.412475586,-209268.04840564728,-11719369.888305664,20394891.7388916,16356294.631958008,2420063.4956359863,9874936.1038208,-133919494.62890625,-24815977.096557617,-10366039.276123047,-8402647.972106934,14153986.930847168,8856163.024902344,11421724.319458008,17785179.138183594,5561065.673828125,785645.4849243164,-21215000.15258789,-10240496.635437012,-9572779.655456543,-9607072.830200195,-7691648.483276367,-2787571.430206299,-2198211.908340454,-1211684.9422454834,-9860922.813415527,-9711920.738220215,-7663637.161254883,-2275967.597961426,-3009294.033050537
0.385,15950354.57611084,1675014.0190124512,5006477.355957031,17784112.93029785,21250337.600708008,2377829.074859619,29149560.928344727,22782249.450683594,21859067.916870117,13923082.35168457,14996856.689453125,32095832.82470703,18457536.697387695,16630435.943603516,-6500675.678253174,20311937.33215332,9937088.966369629,11291733.741760254,17184827.80456543,16238607.406616211,15762417.793273926,24000984.19189453,-15783459.663391113,-10141869.54498291,20737234.115600586,3626521.8257904053,23174577.713012695,16219909.66796875,13383399.963378906,1833810.0910186768,21844890.594482422,-29430181.5032959,-12050620.079040527,-2380223.512649536,-12152177.810668945,18393114.08996582,16518064.498901367,3142570.2571868896,12057969.093322754,-131974075.31738281,-24633552.55126953,-11018075.942993164,-9144450.187683105,12916830.062866211,5587972.164154053,8574553.489685059,17752445.220947266,6632987.022399902,3830007.0762634277,-20465173.721313477,-10957151.412963867,-10328418.731689453,-10314489.364624023,-9510935.78338623,-2888898.6110687256,-2112620.3536987305,-1291625.738143921,-10541084.289550781,-10298974.990844727,-9566157.341003418,-2099668.264389038,-2671330.9288024902
0.39,17296691.89453125,3515468.5974121094,5494377.613067627,17929960.250854492,20453439.712524414,-424328.7146091461,27299760.818481445,22052314.75830078,20913892.74597168,13274149.894714355,14080343.246459961,30130241.39404297,17297681.80847168,16492404.93774414,-8995455.741882324,18452554.70275879,9706952.095031738,11243239.402770996,16819250.106811523,15762900.352478027,15179141.998291016,24163969.039916992,-16474559.783935547,-12840755.462646484,18711072.92175293,3327785.015106201,23133319.854736328,16292535.781860352,13996653.55682373,3564346.3134765625,21431968.688964844,-27426502.227783203,-12989688.873291016,-3992965.4598236084,-10905852.317810059,18028087.615966797,16681251.525878906,3941993.7133789062,13843744.277954102,-129478713.98925781,-24357749.938964844,-11810229.301452637,-10148933.410644531,11933476.448059082,4248732.089996338,7348487.854003906,18249271.392822266,8963616.371154785,5735814.571380615,-20010398.864746094,-11784292.221069336,-11325839.99633789,-11089232.444763184,-9460881.233215332,-2854600.429534912,-2081226.5872955322,-1367870.3308105469,-11418012.619018555,-11156167.984008789,-9617755.889892578,-1970898.151397705,-2221384.048461914
0.395,12237568.855285645,-1345136.6424560547,716690.4211044312,13752758.026123047,16255649.56665039,-1817342.4005508423,26031480.78918457,19147811.889648438,18063497.54333496,9491287.231445312,10831431.38885498,26050056.45751953,14707247.734069824,15191513.061523438,-6524121.7613220215,19441726.684570312,9649061.20300293,11036543.846130371,15474961.280822754,14344207.763671875,14035464.2868042,24505865.0970459,-16024578.094482422,-9984272.003173828,20308494.567871094,4145866.3940429688,23375453.94897461,16544456.481933594,14035346.031188965,3452277.421951294,22481542.587280273,-23911203.384399414,-9701323.509216309,-1225260.1385116577,-9112848.281860352,19003826.141357422,16965787.887573242,3946470.260620117,14547163.009643555,-129671310.42480469,-23026195.526123047,-8370358.467102051,-6948717.5941467285,12094298.362731934,5622942.4476623535,8628388.404846191,19255109.786987305,10912338.256835938,5635659.694671631,-19828226.08947754,-8328286.170959473,-7945230.007171631,-7632606.029510498,-5626962.184906006,870702.862739563,1491697.6690292358,2150850.772857666,-8056194.305419922,-7808125.972747803,-5835860.729217529,1647933.7215423584,1557919.3830490112
0.4,8141373.634338379,-5826245.7847595215,-4161735.5346679688,12252247.81036377,12958193.7789917,6232665.538787842,30456542.96875,18827241.897583008,18090173.721313477,7041465.759277344,8211457.252502441,22685346.603393555,12248117.446899414,11743554.11529541,1965868.1154251099,25896013.259887695,11346220.970153809,12467525.482177734,14783948.89831543,13027704.238891602,12622588.157653809,24388877.868652344,-16690309.524536133,-1308284.044265747,25487453.46069336,6105891.704559326,23866497.039794922,16226802.825927734,13154009.819030762,1985773.8018035889,24241714.477539062,-23069684.982299805,-3255744.457244873,4749517.917633057,-8364948.272705078,19546058.654785156,16678445.816040039,3192382.8125,13872117.99621582,-127986923.21777344,-21104290.008544922,-1990723.6099243164,-634967.5059318542,12526171.684265137,6798395.63369751,9775220.87097168,19074800.491333008,10676466.941833496,4781041.145324707,-19442873.001098633,-1919566.6313171387,-1437655.3297042847,-1209863.6627197266,-1670620.7990646362,6594331.26449585,7106996.536254883,7743406.772613525,-1667641.7589187622,-1413473.0100631714,-1792103.0521392822,7281764.030456543,7023949.146270752
0.405,9129469.871520996,-5725819.5877075195,-6521947.860717773,15246785.163879395,11895681.381225586,19093666.076660156,37268356.32324219,21044120.78857422,20609722.137451172,6926157.9513549805,6908453.941345215,20744153.97644043,9530411.720275879,5144982.33795166,9339855.194091797,32920368.194580078,13172635.078430176,14235670.08972168,14382436.752319336,11441897.39227295,10108070.373535156,22376464.84375,-21548351.287841797,5574675.559997559,29453870.77331543,8019435.882568359,24560531.616210938,15170442.581176758,11337692.260742188,224287.88244724274,22862340.927124023,-27432430.267333984,-335998.3563423157,8874603.271484375,-7843374.252319336,19375146.865844727,15681937.217712402,2611577.272415161,11994615.55480957,-122396072.38769531,-21070388.793945312,703038.3348464966,2187215.805053711,12546713.829040527,6087225.437164307,9183980.941772461,17076223.373413086,8661245.346069336,3583454.132080078,-20490690.231323242,781661.5700721741,1372402.548789978,1561537.504196167,-1987878.0841827393,7603892.3263549805,8133854.866027832,8807107.925415039,1108234.6439361572,1344432.1155548096,-1971221.685409546,8380122.184753418,7813414.573669434
0.41,9671723.365783691,-5928154.945373535,-9429993.629455566,16748212.814331055,10172051.429748535,24140853.881835938,38845920.56274414,21452913.284301758,20917974.4720459,6132451.53427124,5192828.65524292,18610733.032226562,5568267.822265625,-3142408.3709716797,9099346.160888672,34389724.73144531,12716274.26147461,13897730.827331543,13163599.014282227,9177595.138549805,6379941.940307617,18245353.69873047,-29814323.42529297,4680992.126464844,28973649.978637695,8979769.706726074,25490722.65625,14652291.297912598,9526386.260986328,-1324047.4462509155,16577632.904052734,-34177566.52832031,-2913870.096206665,9278413.772583008,-5288575.649261475,20297004.69970703,15135146.141052246,2883290.2908325195,9811936.378479004,-119802650.45166016,-23508359.909057617,-2016857.1472167969,-395289.8383140564,13721847.534179688,6030431.747436523,9152644.157409668,15584984.77935791,7779336.452484131,2003878.5934448242,-24180047.9888916,-1931276.4406204224,-1372601.7475128174,-1123908.7581634521,-4211497.3068237305,2742751.359939575,3345389.3661499023,4069300.1747131348,-1537123.0840682983,-1395770.6689834595,-4197023.391723633,3712352.752685547,2997216.7015075684
0.415,4089920.0439453125,-11305811.882019043,-14686532.020568848,12415748.596191406,6476868.629455566,18044063.568115234,33850822.44873047,18135520.935058594,17169658.660888672,3136208.0574035645,2602538.1088256836,16004037.857055664,1925281.1670303345,-8787649.154663086,4004862.3085021973,31116298.67553711,10340749.740600586,11544260.025024414,11519231.796264648,7330564.498901367,3390575.647354126,14557896.614074707,-35754001.61743164,-507621.169090271,26186313.62915039,9161426.544189453,26402339.935302734,15886835.098266602,9058497.428894043,-2456739.4256591797,9771025.657653809,-37303936.00463867,-4573220.252990723,9174299.240112305,-834894.1206932068,23424991.607666016,16143030.166625977,3691210.985183716,8741833.686828613,-126007789.6118164,-24716108.322143555,-3619791.5077209473,-1955041.527748108,17801235.19897461,9610655.784606934,12515974.998474121,17221595.764160156,10268139.839172363,1584790.7066345215,-27638601.303100586,-3496673.583984375,-3039643.5260772705,-2758909.9407196045,-1951240.1819229126,57673.659175634384,707079.2317390442,1355008.2445144653,-3099086.046218872,-3080385.208129883,-2099166.15486145,1131400.227546692,506203.47261428833
0.42,-3303434.371948242,-17565832.138061523,-18231035.232543945,6298884.868621826,4074127.197265625,11073105.812072754,28402013.778686523,14159107.208251953,12877940.17791748,567919.4331169128,1232670.3071594238,14977959.632873535,1514856.3385009766,-9194943.42803955,1713680.2673339844,28654573.440551758,8429201.126098633,9489326.477050781,10964198.112487793,7323894.97756958,3154204.3685913086,14158938.40789795,-35313564.30053711,-2439487.4572753906,24669105.529785156,9092761.039733887,26925258.63647461,18375162.12463379,10385741.233825684,-2835617.780685425,8240007.400512695,-34841678.619384766,-759055.3760528564,10960638.999938965,2624812.8414154053,27361310.958862305,18341434.478759766,4302410.125732422,9561934.471130371,-135908416.74804688,-21704868.31665039,314812.8390312195,2044102.668762207,23212882.99560547,15331785.202026367,18046922.68371582,21063032.150268555,14532918.930053711,3691829.6813964844,-27102853.775024414,468139.52922821045,913107.4547767639,1165370.3451156616,4600608.825683594,4872347.354888916,5525267.601013184,5963791.370391846,882669.5084571838,830047.4286079407,4294855.117797852,5874240.875244141,5417462.348937988
0.425,-4339088.916778564,-17673175.811767578,-16575145.721435547,4719964.981079102,5477620.601654053,11859644.889831543,26919660.568237305,12807618.141174316,11627419.471740723,1048096.8952178955,2295113.8019561768,16143615.72265625,3726376.533508301,-7454502.582550049,3799049.139022827,28763652.801513672,7881944.65637207,8846904.754638672,11789752.960205078,8497876.167297363,4588629.245758057,15873950.004577637,-32149063.110351562,-186424.46398735046,24113483.428955078,8857103.34777832,27109142.303466797,20410947.799682617,12340743.064880371,-2759897.7088928223,10891392.707824707,-31811563.49182129,2653485.059738159,11940338.134765625,3277709.722518921,29795907.974243164,20304985.04638672,4453834.056854248,11178024.291992188,-140238830.56640625,-18146629.333496094,3731948.3757019043,5638245.105743408,25688776.01623535,18497505.18798828,21425416.946411133,23254152.297973633,16455150.604248047,6132572.174072266,-24383739.471435547,3823936.2239837646,4347529.411315918,4619695.663452148,6576572.418212891,9838730.812072754,10466178.894042969,10795876.502990723,4342502.593994141,4257837.295532227,6193704.128265381,10684972.763061523,10311502.456665039
0.43,-239737.5851869583,-13883413.314819336,-13920693.397521973,6932655.811309814,7369207.859039307,15393052.101135254,26712306.97631836,13126336.097717285,12301025.390625,2802455.425262451,3391730.546951294,16517084.121704102,3854098.320007324,-9008647.918701172,4070823.6694335938,27633733.74938965,7099944.114685059,8177504.539489746,12223647.117614746,8244635.581970215,4112012.8631591797,15074300.765991211,-33380332.946777344,-88061.75738573074,21262958.526611328,8021201.133728027,26960308.074951172,20644508.361816406,12780729.293823242,-3706081.6287994385,10640102.38647461,-34252731.32324219,-3130890.6078338623,8157351.493835449,2062536.4780426025,29624652.862548828,20748071.670532227,4314730.644226074,11229892.73071289,-137489608.76464844,-20837255.477905273,-2161893.844604492,-109750.03242492676,22626216.888427734,16657220.840454102,20222105.026245117,21429416.65649414,13990756.034851074,4914556.980133057,-25573291.778564453,-2235567.808151245,-1680773.7350463867,-1301612.8540039062,-1993064.6419525146,4322639.465332031,4913652.8968811035,5415265.5601501465,-1592950.2248764038,-1723583.459854126,-2458642.7211761475,5066852.09274292,4666712.284088135
0.435,-656087.1601104736,-15698100.090026855,-17542903.900146484,6538417.816162109,4360634.803771973,12090913.772583008,23593645.095825195,11974948.88305664,11380901.336669922,1786362.4095916748,1050532.579421997,13044692.039489746,-1195607.9006195068,-14989511.489868164,-1457938.9095306396,23077426.91040039,4652944.564819336,5945929.050445557,10439120.292663574,5047213.077545166,8208.878338336945,9536119.46105957,-40071769.71435547,-5680368.423461914,15427809.715270996,6227849.006652832,25786388.397216797,18902460.0982666,10491297.721862793,-6793751.239776611,4520563.125610352,-41447631.8359375,-16211046.21887207,716708.8389396667,148447.46887683868,27183982.849121094,19234039.306640625,3958653.688430786,8807489.395141602,-132866394.04296875,-29416410.446166992,-15322297.096252441,-13331906.31866455,16031059.265136719,12129789.352416992,16407554.626464844,17348890.30456543,9639887.809753418,364374.42898750305,-31824474.334716797,-15561044.692993164,-15056759.83428955,-14596513.748168945,-14382047.653198242,-8804362.297058105,-8240560.531616211,-7455789.566040039,-14876255.03540039,-15043810.844421387,-14955036.163330078,-8065863.609313965,-8541243.553161621
0.44,-8371238.708496094,-25108730.31616211,-26634914.39819336,1698533.1773757935,-2813248.3959198,4130038.261413574,19424247.74169922,9292153.358459473,8646165.84777832,-2262126.4457702637,-4158698.558807373,7402712.821960449,-8265742.301940918,-21173553.466796875,-7114315.986633301,19364732.74230957,1858273.5061645508,3269236.8030548096,7231791.019439697,839435.338973999,-4833297.252655029,3057442.1882629395,-45875320.43457031,-11086762.428283691,10856992.721557617,4200158.596038818,23333385.467529297,16349845.886230469,6912273.406982422,-10702457.427978516,-1557211.7567062378,-46964984.89379883,-24279489.517211914,-4226675.033569336,-2356449.3656158447,23836303.7109375,16679349.899291992,3427124.7386932373,6153628.349304199,-129462936.40136719,-34721847.53417969,-23367792.1295166,-21563446.044921875,10975663.185119629,9267327.308654785,13943572.998046875,14857140.54107666,7814815.044403076,-1808577.8951644897,-36080398.55957031,-23664127.349853516,-23146368.0267334,-22740472.7935791,-17878498.077392578,-14579457.28302002,-14036249.160766602,-13177801.132202148,-22987356.185913086,-23125001.907348633,-18452781.677246094,-13806873.321533203,-14337584.495544434
0.445,-13074819.564819336,-31620040.893554688,-31533754.348754883,-1081820.4879760742,-6770262.718200684,4319295.883178711,20545257.568359375,8967654.22821045,8137295.722961426,-4495519.638061523,-7082705.020904541,4994936.466217041,-11118534.088134766,-23487903.594970703,-3465209.9609375,22561073.303222656,1882418.155670166,3252989.0537261963,5940053.462982178,-512035.4890823364,-5734730.243682861,1325127.0055770874,-45715690.61279297,-7228454.58984375,12760507.583618164,4084718.704223633,21464902.877807617,15163646.697998047,5428233.1466674805,-12399768.829345703,-863691.8067932129,-46598152.16064453,-19315156.936645508,-1761152.1482467651,-4179999.828338623,21863939.28527832,15362338.066101074,3169161.558151245,6518034.934997559,-127131652.83203125,-29958339.69116211,-18371183.395385742,-16661609.649658203,11305428.504943848,10341464.042663574,14856860.160827637,16015556.335449219,10319654.46472168,2468718.2903289795,-31989715.576171875,-18637359.619140625,-17937927.24609375,-17710599.899291992,-9253368.377685547,-5496874.809265137,-5002257.347106934,-4322628.498077393,-17917736.053466797,-17994770.050048828,-9681556.701660156,-4730517.864227295,-5239950.180053711
0.45,-4957515.716552734,-25730056.762695312,-25898094.177246094,4571869.373321533,-2379925.9662628174,18718070.98388672,29486759.185791016,13904931.06842041,12971153.259277344,-858656.108379364,-3712707.281112671,8747000.694274902,-7710649.9671936035,-22542917.251586914,10720532.417297363,32804378.509521484,6156435.966491699,7411690.235137939,8886472.702026367,2576344.2516326904,-1620166.301727295,5053514.48059082,-42051269.53125,6883227.825164795,21393627.166748047,7554521.083831787,22751581.1920166,16775749.206542969,7869007.587432861,-10548005.104064941,4914428.234100342,-42156078.33862305,-7190091.609954834,6417623.519897461,-2671173.095703125,22953306.198120117,17012256.622314453,3745613.8134002686,10028976.440429688,-126921028.13720703,-19798187.255859375,-6329073.905944824,-4622769.355773926,16065290.451049805,13742821.69342041,17536634.44519043,19291481.018066406,14775992.393493652,9814799.308776855,-22837675.094604492,-6578638.076782227,-5667115.688323975,-5649110.794067383,1098380.208015442,8050724.029541016,8468474.388122559,8985730.171203613,-5797547.340393066,-5871634.006500244,789731.9197654724,8721399.307250977,8327315.330505371
0.455,10527046.203613281,-12601557.731628418,-15701541.900634766,15537377.35748291,6312808.990478516,37471904.75463867,40915130.615234375,21524263.381958008,20621282.57751465,6192814.350128174,3463955.879211426,15339553.833007812,-2635583.8775634766,-22327653.884887695,25878999.710083008,43514579.77294922,12069044.11315918,13221616.744995117,14038471.221923828,7162388.801574707,3445813.4174346924,9091801.643371582,-40919673.919677734,21972003.936767578,30928249.35913086,13028262.1383667,26664718.627929688,19734920.501708984,11876639.366149902,-7391151.428222656,8341135.025024414,-37947490.69213867,-38085.926324129105,13581662.17803955,2174348.3543395996,25790739.059448242,20240594.8638916,4952545.642852783,12917794.227600098,-129800842.28515625,-14522898.67401123,641523.7188339233,2255115.270614624,20069978.713989258,15591567.993164062,18450271.606445312,21186193.466186523,17287618.63708496,13319062.232971191,-17533290.86303711,357454.5681476593,1279521.8229293823,1163496.2558746338,1923971.41456604,11391242.027282715,11781124.114990234,12335328.102111816,1072793.3645248413,974636.0182762146,1569441.6761398315,11895730.018615723,11652818.67980957
0.46,18020629.8828125,-6754065.990447998,-12700475.692749023,21724065.78063965,10201976.776123047,46221378.326416016,46735881.80541992,25688371.658325195,24860025.40588379,9867742.538452148,7456520.080566406,18509344.10095215,-2080696.3443756104,-25945400.23803711,31877193.450927734,48067974.09057617,14933213.233947754,16013767.24243164,16454349.517822266,8478218.078613281,4453828.33480835,8321797.3709106445,-44568828.58276367,28197221.755981445,34784481.048583984,16163318.634033203,29077686.309814453,20592555.99975586,13063585.28137207,-6447957.515716553,5981980.323791504,-36743511.19995117,-2035350.0843048096,14889719.96307373,6198983.192443848,26804512.02392578,21329696.655273438,5774209.499359131,11844367.027282715,-132496582.03125,-17466903.686523438,-1485898.0178833008,-51814.04948234558,19193914.41345215,13735306.739807129,15978261.947631836,19778371.810913086,16316699.981689453,11059494.018554688,-19406429.290771484,-1793257.5941085815,-1066731.2145233154,-1181904.4351577759,-5430492.401123047,4199874.401092529,4667079.448699951,5335377.6931762695,-1282259.8218917847,-1300092.6971435547,-5879949.09286499,4585292.816162109,4416737.5564575195
0.465,11253377.914428711,-14094108.581542969,-20114778.518676758,17941148.75793457,5652210.712432861,42128372.19238281,44202621.45996094,23439373.016357422,22642398.834228516,7089286.327362061,4665361.404418945,15857607.8414917,-7024631.977081299,-32377681.732177734,28460897.44567871,45715698.2421875,12719060.897827148,13736990.928649902,13839507.102966309,5157574.653625488,791185.7962608337,3279706.0012817383,-49813091.27807617,25106216.430664062,31995565.41442871,14427183.151245117,27089866.638183594,18009614.944458008,10185147.285461426,-8481167.793273926,1517568.826675415,-38881698.60839844,-6175650.119781494,12340358.73413086,6308358.669281006,24576185.22644043,18699819.564819336,5523865.222930908,8229154.586791992,-130681671.14257812,-22372442.2454834,-5589589.595794678,-4185958.3854675293,15385480.880737305,10509915.351867676,12650723.457336426,16814535.14099121,13971364.974975586,8020710.9451293945,-22941810.607910156,-5856021.404266357,-5272801.876068115,-5318765.640258789,-9711932.182312012,-1016277.7900695801,-442138.28444480896,225187.3016357422,-5491376.3999938965,-5327576.160430908,-10120389.938354492,-556737.8401756287,-800081.3126564026
0.47,504096.3292121887,-24606750.48828125,-28549066.5435791,10234686.851501465,-1204346.776008606,34635643.005371094,38179901.123046875,18555072.784423828,17750789.642333984,2290728.3306121826,-729210.0787162781,11463763.236999512,-11899260.520935059,-36401676.177978516,23872272.491455078,41024875.64086914,8299770.355224609,9250801.086425781,9464018.821716309,915028.2740592957,-3203688.859939575,-555786.4904403687,-51905853.271484375,20629741.668701172,27723024.368286133,10314538.955688477,22967803.955078125,14756820.678710938,6750066.28036499,-10572141.647338867,-57167.56731271744,-42077018.73779297,-4555438.995361328,12081893.920898438,5054213.047027588,21904836.654663086,15204551.696777344,4651405.811309814,6724129.199981689,-125172813.41552734,-22455797.19543457,-3818627.8343200684,-2226717.710494995,14627681.732177734,10291904.44946289,12385507.583618164,15655589.10369873,13449890.13671875,9431124.687194824,-21806850.43334961,-4014936.4471435547,-3346411.4665985107,-3412276.268005371,-4747578.6209106445,3113148.6892700195,3683441.8773651123,4259596.824645996,-3598125.93460083,-3351362.2283935547,-5016289.710998535,3821664.810180664,3403393.9838409424
0.475,-489424.2286682129,-24765556.33544922,-27367748.260498047,8637145.042419434,-1813267.707824707,33270027.16064453,35778770.446777344,17207853.317260742,16406030.654907227,1734636.5451812744,-1935518.8608169556,11007010.459899902,-10619345.664978027,-33276817.321777344,24994626.998901367,39018661.49902344,6262287.139892578,7146674.156188965,8076787.948608398,74040.487408638,-3273094.1772460938,1107254.8627853394,-48914043.42651367,21758703.231811523,27438343.048095703,8582069.396972656,21346200.942993164,14139811.515808105,6470386.028289795,-9723571.77734375,2078453.3023834229,-42035774.23095703,1802999.0196228027,16863744.735717773,6875564.5751953125,21861454.010009766,14406335.830688477,4057926.654815674,9410705.56640625,-119958778.38134766,-18153884.887695312,2627296.209335327,4338952.541351318,19133270.263671875,13755110.740661621,15226927.757263184,16997657.775878906,15390138.626098633,14580847.74017334,-16602001.190185547,2448826.313018799,3275021.3146209717,3072684.7648620605,2761728.048324585,9922819.137573242,10362986.56463623,10921623.229980469,2990933.1798553467,3108651.1611938477,2538873.9109039307,10801059.72290039,10257294.654846191
0.48,9572097.778320312,-13734664.916992188,-17554658.889770508,15379538.536071777,4582007.40814209,39415126.80053711,39642112.731933594,20960073.471069336,20161268.23425293,5754493.713378906,1996490.9553527832,14972542.762756348,-3964955.8067321777,-25297777.17590332,31567832.946777344,41636360.16845703,8031627.655029297,8847496.98638916,9973242.75970459,2263073.9212036133,-134792.67060756683,6316341.400146484,-43723796.84448242,28486537.93334961,31702903.747558594,10869565.963745117,23355884.552001953,15553963.661193848,8496846.199035645,-6775524.139404297,5115829.944610596,-36954597.47314453,5597644.329071045,22986684.799194336,11379363.059997559,23382949.829101562,15791433.334350586,3921046.018600464,13162873.268127441,-115839752.19726562,-14859395.980834961,6313900.947570801,7826387.405395508,24095724.10583496,16526788.711547852,16768835.067749023,17920320.510864258,17355239.868164062,18406064.987182617,-13037640.571594238,6051572.322845459,6843466.281890869,6588272.0947265625,2641640.1863098145,9783191.680908203,10116744.041442871,10762040.138244629,6583370.685577393,6545538.902282715,2313761.4727020264,10520563.125610352,10024971.961975098
0.485,19863409.0423584,-3552577.495574951,-10040864.944458008,22902990.341186523,10578211.784362793,48242542.2668457,46260112.76245117,25657039.642333984,24803371.42944336,9180418.968200684,5657021.999359131,18554147.720336914,1087957.501411438,-20569458.0078125,38973541.259765625,47259941.10107422,11020381.927490234,11757104.873657227,11376605.033874512,3428390.7413482666,1972478.0321121216,9317465.782165527,-41346168.518066406,36062484.74121094,36799587.24975586,14394180.297851562,25710802.07824707,15748014.450073242,9191222.190856934,-5215184.211730957,6571656.227111816,-30850481.033325195,3642949.5811462402,25377290.725708008,13915322.303771973,23095100.40283203,15972986.221313477,3721704.7214508057,13961236.953735352,-111113395.69091797,-15256734.848022461,4107056.140899658,5272808.074951172,24050867.080688477,14966619.491577148,14111536.026000977,16141944.885253906,17246267.318725586,18001436.233520508,-14073484.420776367,3680790.424346924,4273169.040679932,4187757.4920654297,-4923935.413360596,3996136.426925659,4370706.081390381,5077049.255371094,4079215.5265808105,4098454.475402832,-5377988.815307617,4395087.242126465,4089164.7338867188
0.49,21185359.954833984,-3698039.770126343,-11404922.485351562,23464607.23876953,10660956.382751465,53313560.485839844,49648330.68847656,26946601.86767578,25997644.424438477,8853592.872619629,5311222.553253174,18550733.56628418,676142.692565918,-21824352.264404297,42789733.88671875,51719772.33886719,12093257.904052734,12759037.017822266,10262709.617614746,1810301.3038635254,1326436.0427856445,8459174.156188965,-42216236.11450195,39761051.177978516,38967945.09887695,15623708.724975586,25444131.85119629,13791365.623474121,7651272.296905518,-6134089.946746826,6936028.957366943,-28567508.697509766,240460.3660106659,23483201.98059082,12242573.738098145,20371385.57434082,13901950.83618164,3225924.7303009033,12179627.418518066,-106587600.70800781,-16260129.928588867,513536.09561920166,1537240.1475906372,19868490.21911621,10999541.282653809,9983885.765075684,13399250.030517578,15833897.590637207,15390929.222106934,-16701070.785522461,-74586.33929491043,453107.5656414032,542574.7632980347,-10368355.751037598,1484177.2317886353,1983375.072479248,2627972.8412628174,265765.13051986694,474000.6923675537,-10858392.715454102,1713290.9297943115,1563602.089881897
0.495,15112881.660461426,-10116964.340209961,-15580788.612365723,17675519.943237305,8255054.473876953,49326328.27758789,46318241.119384766,24776344.299316406,23830446.243286133,7294564.247131348,3930001.0204315186,17878061.294555664,137360.14068126678,-19858991.622924805,40180240.631103516,50633869.17114258,10559543.60961914,11215447.425842285,8885149.955749512,403359.17472839355,1256408.929824829,9487561.225891113,-39184917.44995117,36892902.37426758,37038551.330566406,13820085.525512695,23297288.89465332,12199016.571044922,6868650.436401367,-6224358.558654785,9375628.471374512,-27842983.24584961,-300002.6345252991,20223011.016845703,9001094.818115234,17858469.009399414,12165940.284729004,2830117.702484131,11672334.671020508,-104152885.43701172,-13244383.811950684,14728.968031704426,1144970.417022705,16484457.015991211,8942957.878112793,8693840.026855469,12865782.737731934,15050981.521606445,14037632.942199707,-16433050.155639648,-640341.8183326721,103858.87324810028,44123.586267232895,-8629053.115844727,4757842.540740967,5302070.617675781,5809275.150299072,-201998.91924858093,25838.499888777733,-9077868.461608887,5148954.86831665,4985612.392425537
0.5,10048674.583435059,-11306977.272033691,-12000937.461853027,12431930.541992188,10560978.889465332,36114707.946777344,38045330.04760742,22120704.650878906,21353679.656982422,8091464.042663574,6316122.055053711,21384481.43005371,7499850.749969482,-4218994.140625,31159141.540527344,43431293.48754883,7958723.068237305,8674320.220947266,9793850.898742676,2510575.771331787,5593362.808227539,18658447.265625,-24978527.069091797,27956102.37121582,32439670.56274414,11028002.738952637,21875492.095947266,12913346.290588379,9196034.43145752,-1948534.607887268,16690040.588378906,-21332151.412963867,297282.874584198,17288028.717041016,7316407.680511475,17316812.51525879,12854048.728942871,2891480.4458618164,14376685.14251709,-101876815.79589844,-5639278.888702393,857394.2184448242,2076177.8354644775,15681261.06262207,9449331.283569336,10004204.750061035,14667373.657226562,15197464.942932129,14848430.633544922,-12694667.81616211,251092.3445224762,1268997.9076385498,819066.4649009705,-5266059.398651123,7130502.223968506,7588541.9845581055,7991799.354553223,802316.4868354797,823765.3970718384,-5642226.219177246,7770333.766937256,7495852.947235107
0.505,11695946.69342041,-2362570.7626342773,1010870.6951141357,12616399.765014648,18826158.52355957,21669818.878173828,30660413.74206543,21274114.60876465,20707168.579101562,10854168.891906738,12103311.538696289,29033479.690551758,22362638.473510742,21236923.217773438,20752294.540405273,35299087.52441406,6254877.56729126,7009316.921234131,12114780.42602539,7124936.103820801,13379861.831665039,34036746.978759766,-2756358.861923218,18053598.403930664,28144468.307495117,9754611.96899414,22279424.6673584,14698582.649230957,13236669.540405273,5746552.94418335,27871412.27722168,-7531359.672546387,-880242.109298706,14738274.574279785,7216163.635253906,17704648.971557617,14741452.21710205,3267792.7017211914,18332357.40661621,-96722396.85058594,2884198.6656188965,-65627.41100788116,1059709.5489501953,15220763.206481934,9923440.933227539,10497039.794921875,16567489.624023438,15813905.715942383,17028722.763061523,-8051256.17980957,-581899.9409675598,480912.446975708,-125246.24168872833,-5934555.0537109375,5138590.8126831055,5488674.640655518,5872477.5314331055,-44070.02031803131,-157180.35399913788,-6217162.609100342,5808007.24029541,5533486.366271973
0.51,18556947.708129883,10591238.975524902,14991431.23626709,16922452.926635742,27446893.6920166,16138803.482055664,28933280.94482422,22349987.030029297,21774196.62475586,12850045.204162598,16835800.170898438,36156768.798828125,35911911.01074219,41032382.96508789,16250354.766845703,32477569.580078125,6404221.057891846,7085986.137390137,13502935.409545898,10670778.274536133,20187629.69970703,47218471.52709961,15393054.008483887,14003616.333007812,26661760.330200195,10837047.576904297,23688842.7734375,15625754.356384277,16436719.89440918,12827019.691467285,38399887.08496094,6103983.402252197,-1011420.726776123,13975862.503051758,7477828.502655029,17909645.080566406,15767872.81036377,3734943.151473999,21411663.055419922,-91120811.46240234,9366831.77947998,-88430.0097823143,863255.4411888123,14456882.47680664,9983426.094055176,9988581.657409668,18320632.934570312,18280778.884887695,21130603.790283203,-3555444.9558258057,-539768.5766220093,352872.3418712616,54234.21040177345,-6364584.922790527,5632333.278656006,5973803.997039795,6400088.310241699,-105283.14113616943,-69791.23502969742,-6560596.466064453,6149192.333221436,6068579.67376709
