time,Fp1,Fpz,Fp2,AF3,AF4,F7,F5,F3,F1,Fz,F2,F4,F6,F8,FT7,FC5,FC3,FC1,FCz,FC2,FC4,FC6,FT8,T7,C5,C3,C1,Cz,C2,C4,C6,T8,TP7,CP5,CP3,CP1,CPz,CP2,CP4,CP6,TP8,P7,P5,P3,P1,Pz,P2,P4,P6,P8,PO7,PO5,PO3,POz,PO4,PO6,PO8,CB1,O1,Oz,O2,CB2
0.0,-1226490.2591705322,-348227.6499271393,-690717.875957489,-801774.1441726685,-484704.1964530945,-1559938.4307861328,-877205.9679031372,-925207.3764801025,-849586.1887931824,372849.0173816681,-233394.69730854034,-946340.2628898621,-445783.91313552856,-647150.8741378784,413046.56863212585,-251343.69730949402,-826435.2679252625,-814292.9673194885,-949219.7632789612,-1254568.4576034546,-1697842.7171707153,-1077588.677406311,-299118.42942237854,467158.13875198364,-184054.50880527496,-1234436.8696212769,-434615.93985557556,-978964.6863937378,-1221299.648284912,-1379818.2010650635,-1123593.6880111694,-144694.55182552338,467901.22985839844,1089879.5127868652,-2320160.6273651123,-1421295.8812713623,-914582.6101303101,-477103.20353507996,-2082504.9877166748,15489702.224731445,-788581.7885398865,442736.6256713867,343405.7831764221,-674174.7856140137,-1794892.5495147705,-1669462.5616073608,-2138461.8282318115,-724885.880947113,-1616419.9113845825,-1369736.4330291748,432652.0562171936,455955.47556877136,373138.6363506317,-728338.0627632141,-658985.3763580322,-652805.5667877197,-600708.6634635925,440364.807844162,442172.8849411011,-667990.1480674744,-649424.1952896118,-851503.0145645142
0.005,-20304517.74597168,-19417957.305908203,-23958021.16394043,-18324909.210205078,-26688453.674316406,-23327836.990356445,-22370288.848876953,-19970169.067382812,-19063663.482666016,-17893577.575683594,-27492197.036743164,-30730516.43371582,-28747024.536132812,-21824235.916137695,-2604702.949523926,-20774637.22229004,-18536842.346191406,-18546092.987060547,-22011362.075805664,-26658367.156982422,-28631765.365600586,-28967733.38317871,-21590181.350708008,579217.6127433777,-14168994.903564453,-14879179.000854492,-16872486.114501953,-18935478.21044922,-23366865.158081055,-30098751.068115234,-32686344.146728516,-26530237.197875977,-3255103.349685669,5015638.828277588,-16995901.107788086,-15170516.014099121,-18057447.43347168,-8876653.671264648,-26002607.345581055,235310928.34472656,-24108894.34814453,-3493135.452270508,-3578437.328338623,-7954503.536224365,-13587482.452392578,-16508441.925048828,-23019742.965698242,-14245576.858520508,-22271869.659423828,-27891483.306884766,-3226957.321166992,-2948822.7367401123,-4062394.142150879,-6691403.865814209,-14213820.457458496,-14138187.408447266,-13200433.731079102,-3154686.689376831,-2996622.323989868,-5966454.50592041,-13956919.67010498,-17437154.76989746
0.01,-27643442.153930664,-26459135.055541992,-32632488.250732422,-23929019.927978516,-34568004.6081543,-33169376.373291016,-30844337.463378906,-26398462.295532227,-25083322.525024414,-23271581.649780273,-36221027.37426758,-40868961.334228516,-38121974.94506836,-28818077.087402344,-3167030.8113098145,-28216348.64807129,-25131847.381591797,-25142654.418945312,-29881839.752197266,-36276065.826416016,-38658390.045166016,-39248153.68652344,-29641139.98413086,1273494.6012496948,-19745590.209960938,-20711574.55444336,-23493293.76220703,-26823646.545410156,-33443836.212158203,-42808666.22924805,-46456153.869628906,-37275505.06591797,-5680046.081542969,6042450.428009033,-23017391.204833984,-21375167.846679688,-25436012.268066406,-12456405.639648438,-37258167.2668457,332087951.66015625,-34292308.80737305,-6083188.533782959,-6314504.623413086,-12893711.09008789,-20805507.65991211,-25414241.790771484,-33675254.821777344,-22230028.15246582,-33889858.24584961,-40847991.943359375,-5705203.533172607,-5374633.312225342,-6808610.916137695,-10724263.191223145,-20948652.267456055,-21019298.553466797,-19799371.71936035,-5518085.479736328,-5404234.886169434,-9659353.256225586,-20727087.020874023,-25503858.56628418
0.015,-21267255.783081055,-19637792.587280273,-25332172.393798828,-17446392.059326172,-24994268.4173584,-27968868.255615234,-24679140.090942383,-19893877.029418945,-18673822.4029541,-16245862.96081543,-27143733.978271484,-31256877.899169922,-29593341.827392578,-21978223.80065918,-1537314.1765594482,-21761985.778808594,-20108049.392700195,-20105367.66052246,-23608268.73779297,-29020196.91467285,-30172080.993652344,-31050779.342651367,-23385837.55493164,2125687.36076355,-16120935.440063477,-17816289.9017334,-19857124.32861328,-23097629.54711914,-29229331.970214844,-36956935.88256836,-40100929.260253906,-31161527.633666992,-6015774.726867676,5652904.987335205,-21979740.142822266,-19061618.80493164,-21662038.803100586,-10687241.554260254,-33431453.704833984,289126495.3613281,-29745151.51977539,-6462892.532348633,-6896120.071411133,-14617860.794067383,-21471708.297729492,-24940370.559692383,-31734230.041503906,-22726816.177368164,-32660263.061523438,-36910804.748535156,-6109942.436218262,-5956421.375274658,-7005917.072296143,-10879776.954650879,-19207700.729370117,-19551841.735839844,-18552082.061767578,-5822181.701660156,-5901802.062988281,-9967976.570129395,-19178091.049194336,-23134477.615356445
0.02,-9412376.403808594,-7285054.683685303,-12454343.795776367,-8457002.639770508,-13169872.283935547,-15341279.029846191,-13377387.046813965,-10420452.117919922,-9543972.969055176,-7498622.894287109,-15600324.630737305,-17552074.432373047,-19380626.678466797,-13552021.980285645,-404617.8162097931,-11722589.492797852,-12110035.89630127,-12080778.121948242,-13161215.782165527,-16785324.096679688,-15835471.153259277,-18347043.991088867,-13410771.369934082,1796578.1688690186,-10031301.498413086,-12071608.543395996,-13680985.450744629,-14748287.200927734,-18738512.03918457,-23696350.09765625,-26559299.46899414,-20073732.376098633,-5363081.932067871,6569048.4046936035,-22052631.378173828,-13824587.82196045,-13628799.438476562,-7104774.951934814,-22863439.559936523,191979507.44628906,-20191780.09033203,-5725235.462188721,-6199434.280395508,-14578954.696655273,-18077550.888061523,-17517597.198486328,-23718009.94873047,-18607437.133789062,-23129388.8092041,-25031982.421875,-5427251.815795898,-5503334.522247314,-6036298.751831055,-7595547.676086426,-13768910.40802002,-14223419.189453125,-13427541.732788086,-5131092.071533203,-5332063.1980896,-7138584.613800049,-13766148.567199707,-16262409.210205078
0.025,-1768329.5011520386,1212229.84790802,-3918502.09236145,-4389269.3519592285,-8947292.32788086,-6090691.566467285,-6665929.317474365,-5897807.598114014,-5311275.959014893,-4199955.463409424,-11750228.881835938,-11626577.377319336,-18134883.880615234,-12415655.136108398,-1434820.532798767,-7262439.727783203,-8396131.51550293,-8317865.371704102,-7623661.518096924,-10274111.7477417,-8037070.274353027,-13308758.735656738,-9777003.288269043,-113441.29592180252,-7970096.588134766,-9438884.735107422,-11480513.572692871,-9563165.664672852,-11559864.044189453,-15650499.34387207,-19405773.162841797,-14823321.342468262,-5660056.114196777,8253884.315490723,-26347030.639648438,-11525288.581848145,-8832448.959350586,-5280180.931091309,-15569489.479064941,131150054.93164062,-15382359.504699707,-5937899.112701416,-6251938.343048096,-14952939.987182617,-15672992.706298828,-10737112.045288086,-18304973.602294922,-14943572.044372559,-14670131.68334961,-17292875.289916992,-5719245.433807373,-5872283.458709717,-6177762.508392334,-4426782.131195068,-10870351.791381836,-11152200.698852539,-10354275.703430176,-5468941.688537598,-5603553.771972656,-4252870.559692383,-10692763.328552246,-12421959.87701416
0.03,-1057156.9204330444,3251664.876937866,-1360960.0067138672,-4050838.4704589844,-8880710.60180664,-4237849.712371826,-5712329.387664795,-5407588.958740234,-4929768.085479736,-4059367.1798706055,-12120003.700256348,-11662313.461303711,-21445980.072021484,-15323334.693908691,-2664892.1966552734,-7889599.800109863,-8507391.929626465,-8385185.241699219,-7446718.692779541,-9938100.814819336,-8046780.586242676,-15037472.72491455,-11897623.062133789,-1433128.833770752,-9376860.618591309,-10287906.646728516,-12713786.125183105,-9466777.801513672,-10622084.617614746,-15719103.813171387,-20204235.076904297,-15252919.19708252,-6172951.221466064,9138062.477111816,-29749597.549438477,-12841137.886047363,-8956851.959228516,-5747068.405151367,-14485702.514648438,127402427.67333984,-15692282.676696777,-6515591.621398926,-6604345.798492432,-15638214.111328125,-16725624.084472656,-10457837.104797363,-18634052.276611328,-14484773.635864258,-12763979.9118042,-17175025.939941406,-6418432.712554932,-6476755.142211914,-6799807.071685791,-4324082.374572754,-11586088.180541992,-11618270.874023438,-10830149.65057373,-6192705.154418945,-6173678.398132324,-3986015.558242798,-11290551.18560791,-13082661.628723145
0.035,-3222784.2807769775,2517525.6729125977,-1027683.9733123779,-2729266.405105591,-6124075.412750244,-5500014.781951904,-5545578.956604004,-4210653.305053711,-3690567.0166015625,-2014658.6894989014,-9500980.377197266,-10314109.802246094,-20077440.26184082,-13793841.361999512,-509978.9500236511,-7566401.958465576,-8152337.074279785,-8053734.77935791,-7872576.713562012,-10231298.446655273,-9210981.369018555,-14922868.728637695,-11557746.887207031,980725.1691818237,-8804700.85144043,-10899127.006530762,-13162261.009216309,-11292071.342468262,-12243179.321289062,-17944971.084594727,-20967367.17224121,-14319375.038146973,-3738779.306411743,10579756.736755371,-27549175.262451172,-14500735.28289795,-10832410.81237793,-6745141.983032227,-15737384.796142578,147371032.71484375,-14772161.483764648,-4268628.5972595215,-4210224.628448486,-14515442.848205566,-19038854.598999023,-15324612.617492676,-21529067.993164062,-15896864.891052246,-14889823.913574219,-18538784.02709961,-4229006.290435791,-4192772.86529541,-4591571.33102417,-6402059.078216553,-11880483.627319336,-11856824.87487793,-11196919.441223145,-4047129.1542053223,-3947360.038757324,-5699188.232421875,-11655992.50793457,-13769402.503967285
0.04,-4480330.944061279,2688782.9303741455,-320594.75779533386,37753.067910671234,-657241.6424751282,-5540695.1904296875,-3888289.213180542,-1578166.2464141846,-936120.6889152527,2063914.5374298096,-3905639.410018921,-5959241.3902282715,-12838639.259338379,-6044518.947601318,5195583.820343018,-4408413.887023926,-6260985.851287842,-6250442.981719971,-6629824.638366699,-8528538.703918457,-7332275.390625,-9388247.4899292,-4712903.4996032715,6970196.723937988,-4253854.751586914,-9549082.75604248,-11575246.810913086,-12243619.918823242,-12544112.205505371,-17201021.194458008,-16786211.013793945,-8949385.643005371,1539291.0242080688,14005974.769592285,-22601657.86743164,-14698244.094848633,-11802575.11138916,-6963742.733001709,-15714892.387390137,163131637.5732422,-9724395.751953125,891371.9058036804,905047.4166870117,-11587072.372436523,-19866991.04309082,-19942710.876464844,-23297424.31640625,-16504457.473754883,-16236997.604370117,-16200990.676879883,1048643.8274383545,1042215.3472900391,524420.0229644775,-8040159.225463867,-9543179.512023926,-9676654.815673828,-9088514.32800293,1080930.7098388672,1146182.1794509888,-7210885.524749756,-9422518.730163574,-11734705.924987793
0.045,-5657696.723937988,3297237.3962402344,-1125.2891272306442,486370.17607688904,2569171.190261841,-6047848.701477051,-4050822.7348327637,-1086312.8900527954,-314137.16077804565,4162014.4844055176,-920493.4239387512,-3085601.568222046,-6553164.005279541,967847.3472595215,9920279.502868652,-2883031.8450927734,-5872279.644012451,-5912939.071655273,-6038578.033447266,-7306327.342987061,-5036322.116851807,-4001970.2911376953,2845233.917236328,11974035.263061523,-307636.2609863281,-8876624.10736084,-10861027.717590332,-12731710.433959961,-11871418.952941895,-15144052.505493164,-12192916.870117188,-3740894.079208374,4362173.557281494,16270364.761352539,-21144552.23083496,-15079311.37084961,-12327100.75378418,-6760864.734649658,-15329605.102539062,175031585.69335938,-5010664.463043213,3786521.6732025146,3496348.1426239014,-10320655.822753906,-19902542.114257812,-21701862.335205078,-23944662.09411621,-15634341.2399292,-16383144.37866211,-12968250.274658203,4130000.114440918,4010473.7281799316,3291548.728942871,-8333150.863647461,-7491521.35848999,-7795761.1083984375,-7119718.551635742,3976721.0483551025,3978348.0167388916,-7688115.59677124,-7362246.036529541,-9741174.697875977
0.05,-9176767.349243164,1743398.666381836,-1830746.8891143799,-3248196.3634490967,1064567.2082901,-10509989.738464355,-8874798.774719238,-4801788.330078125,-3970833.7783813477,1971813.0826950073,-3350373.7449645996,-5014052.867889404,-6610496.044158936,694652.1401405334,9541740.417480469,-6655061.721801758,-9064911.842346191,-9049912.452697754,-8669787.406921387,-9271098.136901855,-6587320.327758789,-5260419.3687438965,3145167.827606201,11930238.723754883,-1564261.3172531128,-11544227.600097656,-13343859.672546387,-14203159.33227539,-12828728.675842285,-16216962.814331055,-13858871.459960938,-4218260.288238525,1426094.0551757812,13266165.733337402,-24089599.609375,-17174844.74182129,-13756402.969360352,-7071181.297302246,-17028711.318969727,190384078.9794922,-5598847.389221191,1015859.9615097046,280257.61246681213,-12739510.536193848,-21101060.86730957,-21977979.66003418,-25093185.424804688,-14355315.208435059,-17620317.459106445,-13828034.400939941,1385069.6086883545,1233196.3777542114,341899.9910354614,-7607257.843017578,-8390906.33392334,-8738749.504089355,-7963276.386260986,1196888.5660171509,1214777.2312164307,-7135724.067687988,-8223471.641540527,-10620373.725891113
0.055,-14180991.172790527,-2055549.3831634521,-5661097.049713135,-8106389.045715332,-2694837.3317718506,-17502428.05480957,-15491030.6930542,-10068198.204040527,-9283398.628234863,-2206714.153289795,-8089106.559753418,-9673723.220825195,-10821606.636047363,-4729768.2762146,5498623.847961426,-12957587.242126465,-13638661.38458252,-13528911.590576172,-13387404.441833496,-13326441.764831543,-11416237.831115723,-11491097.450256348,-3076415.0619506836,8362500.190734863,-5832171.91696167,-15768117.904663086,-17194072.723388672,-16392457.962036133,-15926300.048828125,-20628149.032592773,-20447519.302368164,-8981163.97857666,-2555920.6008911133,7381770.610809326,-26195827.48413086,-19441728.591918945,-15741912.841796875,-8045924.186706543,-20261507.034301758,208018692.01660156,-9611631.393432617,-2892946.243286133,-3917720.5562591553,-15410621.643066406,-22664939.880371094,-22317401.885986328,-26419227.600097656,-13042520.523071289,-19605667.114257812,-17502075.1953125,-2681784.6298217773,-2770693.302154541,-3672951.4598846436,-5645971.775054932,-9753511.428833008,-10048836.708068848,-9301279.067993164,-2725682.9738616943,-2582050.561904907,-5108742.237091064,-9632538.795471191,-12086161.613464355
0.06,-17224895.477294922,-4769972.801208496,-8948834.419250488,-10014537.811279297,-4484165.191650391,-22482172.0123291,-18961616.51611328,-12854834.55657959,-12136139.869689941,-4067019.462585449,-10258912.086486816,-12347345.352172852,-12426029.205322266,-7130058.765411377,3159784.3170166016,-16336399.07836914,-15911253.929138184,-15776622.772216797,-16719074.249267578,-16190263.748168945,-14898215.293884277,-14672859.191894531,-6909947.395324707,6749970.91293335,-7121424.674987793,-17439439.77355957,-18757442.474365234,-18014293.670654297,-18997421.264648438,-24243490.21911621,-24007724.76196289,-10988581.657409668,-693905.4727554321,5776607.513427734,-23424911.499023438,-19651910.78186035,-17046728.134155273,-9135671.615600586,-22329168.31970215,229195007.32421875,-11055711.74621582,-1100006.8187713623,-2116165.6379699707,-13503458.976745605,-22453763.961791992,-23116077.423095703,-26681505.20324707,-11239916.801452637,-20412034.98840332,-19024316.787719727,-1005298.9721298218,-1043272.852897644,-1894657.4926376343,-3149060.2493286133,-8194751.739501953,-8416749.954223633,-7755265.235900879,-918994.2479133606,-628297.3289489746,-2432776.2126922607,-8115639.686584473,-10834843.635559082
0.065,-17361934.661865234,-4081655.0254821777,-9478932.38067627,-9159119.606018066,-2745120.7637786865,-24616106.033325195,-19209049.224853516,-12830298.42376709,-12048816.680908203,-2223424.9114990234,-8609948.15826416,-11290836.334228516,-8421311.378479004,-2694751.739501953,5168174.266815186,-15979146.957397461,-15527541.160583496,-15434351.921081543,-17276340.48461914,-16668121.337890625,-14738633.155822754,-10984346.389770508,-3058156.4903259277,9660581.588745117,-4182282.9246520996,-15893455.505371094,-17374103.546142578,-18978675.842285156,-20422527.313232422,-24783824.920654297,-20995569.229125977,-6517560.4820251465,5880291.938781738,10284885.40649414,-18168169.021606445,-18645854.949951172,-17707349.77722168,-9953907.012939453,-22655572.89123535,260727203.36914062,-8395132.064819336,5364806.175231934,4437031.7459106445,-7880568.027496338,-21335044.860839844,-25326446.533203125,-26831636.428833008,-9827436.447143555,-21330629.348754883,-18265689.849853516,5523707.389831543,5492361.545562744,4523189.067840576,-3296089.4107818604,-5966251.850128174,-6123668.670654297,-5486382.484436035,5601491.928100586,5912107.944488525,-2517705.6789398193,-5765928.268432617,-9049907.684326172
0.07,-17669111.251831055,-2264326.810836792,-8462094.3069458,-9447783.470153809,-302292.8535938263,-27265474.319458008,-20614276.885986328,-13359903.335571289,-12339062.690734863,10531.720705330372,-6541514.3966674805,-9845539.093017578,-3737973.213195801,2926874.1607666016,8417773.246765137,-16100496.292114258,-15576083.183288574,-15487276.077270508,-17248275.756835938,-16797157.287597656,-13948802.947998047,-6076506.1378479,3031052.589416504,13590506.553649902,-2037365.6749725342,-14745254.516601562,-15957849.502563477,-20215330.123901367,-21034843.44482422,-24842868.80493164,-17119729.99572754,-350925.2071380615,9157080.65032959,14222719.192504883,-15778326.988220215,-19118736.267089844,-18752912.521362305,-10522090.911865234,-23532096.86279297,296804840.0878906,-6633916.37802124,8567278.861999512,7559534.072875977,-4497767.448425293,-22435472.48840332,-29699670.791625977,-29045475.006103516,-11060172.080993652,-25614479.064941406,-20083047.86682129,8831665.0390625,8837750.434875488,7586285.591125488,-8449252.128601074,-8450984.001159668,-8595176.696777344,-7913946.628570557,8897464.752197266,9042005.53894043,-7758960.247039795,-8018883.70513916,-11935311.317443848
0.075,-20599645.614624023,-3223081.111907959,-9411838.53149414,-12950685.501098633,-1306128.978729248,-31821182.250976562,-25052749.633789062,-16602037.42980957,-15291501.04522705,-1414882.5407028198,-7908912.181854248,-12277439.11743164,-5370645.523071289,1736126.8997192383,8328878.402709961,-19459318.161010742,-18060291.290283203,-17887531.280517578,-19181444.16809082,-18716470.71838379,-16349742.889404297,-7633304.595947266,2504299.6406555176,13587103.843688965,-4525328.636169434,-16655019.760131836,-16841592.78869629,-21805429.458618164,-22384567.260742188,-27554033.279418945,-19139160.15625,-229706.12347126007,5302967.071533203,11464010.238647461,-17877189.63623047,-21461483.001708984,-20295885.08605957,-10885115.623474121,-26378475.189208984,315155731.2011719,-10289950.370788574,4628114.700317383,3486853.1227111816,-6771920.680999756,-26238386.154174805,-34338375.091552734,-32972419.73876953,-15504122.734069824,-32480419.158935547,-26262639.99938965,4863128.185272217,4939717.769622803,3541090.488433838,-16134292.602539062,-15977215.766906738,-16216835.021972656,-15444627.76184082,5072180.271148682,4996550.0831604,-15545744.895935059,-15419722.557067871,-19631265.64025879
0.08,-24104974.7467041,-6740678.310394287,-13207032.203674316,-16879922.86682129,-5724770.069122314,-35651912.689208984,-29219451.904296875,-20411417.00744629,-18928758.62121582,-5717932.70111084,-12013817.78717041,-17886907.57751465,-12666121.482849121,-6087572.5746154785,4465070.2476501465,-23871631.622314453,-21226255.416870117,-20945932.388305664,-22500410.079956055,-21700334.548950195,-21078699.111938477,-15038270.950317383,-5095060.8253479,9394954.681396484,-9160986.90032959,-19938127.517700195,-18937154.76989746,-22922952.65197754,-24463634.490966797,-31727577.209472656,-25528566.360473633,-7298221.111297607,-1066369.1759109497,4282036.781311035,-21177505.493164062,-23486944.1986084,-21458412.170410156,-11040180.206298828,-29464746.475219727,307182281.4941406,-17289014.81628418,-1883575.201034546,-2940178.632736206,-11949284.553527832,-29790004.73022461,-36351448.05908203,-35748603.82080078,-20367485.04638672,-37121536.25488281,-32727676.391601562,-1740992.784500122,-1675763.487815857,-2898526.906967163,-21444568.634033203,-22890270.233154297,-23279565.811157227,-22349002.838134766,-1347356.7962646484,-1481191.2775039673,-20847888.946533203,-22397529.60205078,-26464059.829711914
0.085,-24336086.27319336,-8306922.912597656,-16013158.798217773,-17120014.190673828,-8273963.928222656,-36842079.162597656,-29818939.208984375,-21118299.48425293,-19619550.704956055,-7600865.364074707,-13909961.700439453,-21058019.638061523,-16823413.848876953,-12107362.747192383,726497.4117279053,-25974679.946899414,-22244213.104248047,-21928197.860717773,-24376810.07385254,-23254177.09350586,-23754461.28845215,-20253108.978271484,-11551428.79486084,5587673.187255859,-11170195.579528809,-21567415.237426758,-19874284.744262695,-23583509.44519043,-26104633.331298828,-33596431.732177734,-29197776.794433594,-14777913.093566895,-4444882.392883301,-581509.8881721497,-22270317.07763672,-24254776.000976562,-22131889.34326172,-11235800.743103027,-30435581.20727539,297635437.01171875,-21661186.21826172,-5379930.49621582,-6201302.528381348,-15696125.984191895,-31247856.14013672,-36286830.90209961,-36146183.013916016,-22250560.760498047,-37524707.79418945,-35688766.47949219,-5200048.923492432,-5245216.846466064,-6209283.351898193,-22919162.75024414,-24981042.861938477,-25403909.68322754,-24293172.83630371,-4819759.845733643,-4790575.5043029785,-22172117.233276367,-24600992.20275879,-28440025.329589844
0.09,-20976507.18688965,-5298983.097076416,-14168099.403381348,-13403162.956237793,-4984354.019165039,-36452987.67089844,-27702121.73461914,-18054603.576660156,-16609275.817871094,-3958073.377609253,-10606590.270996094,-18324703.216552734,-12222980.499267578,-10623182.29675293,1153409.481048584,-25235027.313232422,-20723415.37475586,-20471210.479736328,-23340547.561645508,-22409484.86328125,-22416807.174682617,-18649753.57055664,-11119269.371032715,6594432.830810547,-9266923.904418945,-21015607.833862305,-19098306.65588379,-24612850.189208984,-26669824.600219727,-32156147.003173828,-27472822.189331055,-16348402.02331543,-4606910.228729248,-13236.83187365532,-21045608.520507812,-25083215.713500977,-23059434.89074707,-11776868.82019043,-29454729.080200195,313507080.078125,-20587165.83251953,-5521728.038787842,-6299642.086029053,-16755495.071411133,-31800350.189208984,-37477321.62475586,-36035648.345947266,-20803073.88305664,-36856700.8972168,-35971302.0324707,-5184035.301208496,-5263189.315795898,-6282713.413238525,-23028465.270996094,-23696123.123168945,-23968574.52392578,-22792163.848876953,-4989058.494567871,-4763778.209686279,-22057395.935058594,-23334899.90234375,-27261617.66052246
0.095,-17678237.915039062,-881843.7457084656,-9841475.486755371,-9419212.341308594,648065.5670166016,-34779285.4309082,-25041723.251342773,-13880831.718444824,-12487616.539001465,1773451.805114746,-5509671.688079834,-13375041.007995605,-4613420.486450195,-6015980.7205200195,6641204.833984375,-22674184.799194336,-18244947.43347168,-18092863.082885742,-20777021.408081055,-20722841.262817383,-19880065.91796875,-14640645.980834961,-7380682.468414307,12859168.05267334,-5132213.592529297,-19422122.955322266,-17458541.870117188,-25645715.713500977,-26445594.787597656,-30308498.38256836,-24708610.53466797,-13091687.202453613,-3191580.057144165,4304630.279541016,-19020503.997802734,-26123367.309570312,-23962348.93798828,-12434658.05053711,-28562377.9296875,343439758.30078125,-16754249.572753906,-3994592.6666259766,-4984764.575958252,-15725717.544555664,-32194931.030273438,-40344070.43457031,-36876964.5690918,-18433652.877807617,-37685539.24560547,-35672904.96826172,-3595224.8573303223,-3520477.533340454,-4929656.028747559,-23265886.306762695,-22125858.306884766,-22221902.84729004,-21137344.360351562,-3464898.109436035,-3244867.8016662598,-22159505.84411621,-21725208.282470703,-26035959.243774414
0.1,-17242767.333984375,115755.21528720856,-8716069.221496582,-8217905.044555664,1552063.226699829,-29724914.55078125,-21623785.0189209,-11128847.122192383,-9794237.13684082,3923398.733139038,-4504449.844360352,-12498828.887939453,-3660262.5846862793,-6338873.386383057,14736330.98602295,-18427913.665771484,-15793754.577636719,-15667178.1539917,-18929750.442504883,-20029750.82397461,-19624002.45666504,-14764892.578125,-7091433.048248291,21102008.819580078,101360.19438505173,-17027120.59020996,-15179577.827453613,-25038475.036621094,-25847612.380981445,-30660915.37475586,-24882905.960083008,-10386070.251464844,632052.481174469,9895927.429199219,-16721910.47668457,-25127693.17626953,-23373647.689819336,-12529604.9118042,-28754524.23095703,352281677.24609375,-14217640.87677002,-142750.91886520386,-1262569.0698623657,-12565890.312194824,-30816577.911376953,-41104988.09814453,-37266582.48901367,-16910301.208496094,-37866439.81933594,-34421955.10864258,123437.84421682358,360667.52672195435,-1359944.8204040527,-22144447.326660156,-20478752.13623047,-20554742.81311035,-19574913.024902344,433414.7870540619,438776.96990966797,-21117918.014526367,-20075351.71508789,-24724145.889282227
0.105,-18571285.247802734,-2752892.49420166,-12477417.945861816,-9356666.564941406,-3591753.4828186035,-21475355.14831543,-16886964.797973633,-10249141.693115234,-8989088.05847168,1488596.6777801514,-8568030.35736084,-16412979.125976562,-9767552.375793457,-12218202.590942383,21315744.400024414,-13170098.304748535,-13593866.348266602,-13360368.728637695,-18703081.130981445,-20435756.68334961,-21412334.442138672,-18752302.169799805,-10696084.976196289,27006204.60510254,5603086.948394775,-13889840.126037598,-12272020.33996582,-22541795.73059082,-25049764.63317871,-32292129.516601562,-26105098.724365234,-10214675.903320312,7139027.118682861,14981155.395507812,-14324243.545532227,-21297893.524169922,-21059419.631958008,-11824471.473693848,-28980928.421020508,331918365.4785156,-13883852.005004883,6260950.088500977,5308304.309844971,-7775623.798370361,-26895286.560058594,-37534767.150878906,-35445377.349853516,-15652681.350708008,-34602188.11035156,-31339866.638183594,6376845.359802246,6542314.529418945,4907726.764678955,-18404731.75048828,-17483592.987060547,-17650957.107543945,-16658058.166503906,6854556.560516357,6665855.884552002,-17588783.264160156,-17097888.946533203,-21814411.163330078
0.11,-19175500.869750977,-6007777.690887451,-16917217.254638672,-10899519.920349121,-8952640.533447266,-15061084.747314453,-13302526.473999023,-10934235.572814941,-9728230.476379395,-1948786.6163253784,-13099256.51550293,-19984249.114990234,-14120266.914367676,-16513734.817504883,23207231.521606445,-9904168.128967285,-12652398.109436035,-12264977.45513916,-19769727.70690918,-21052474.975585938,-22443817.138671875,-20945877.075195312,-12659593.58215332,28099552.154541016,8898960.11352539,-11845174.789428711,-10175311.088562012,-20375545.501708984,-24234493.255615234,-32611789.70336914,-24570756.912231445,-9718661.308288574,12608069.41986084,17648052.215576172,-13218671.798706055,-17686399.459838867,-19043794.631958008,-10952854.15649414,-27881729.125976562,311124938.96484375,-13564930.91583252,11679397.583007812,10946496.963500977,-3827513.2179260254,-22747732.162475586,-32511573.791503906,-32311767.578125,-13431177.139282227,-29354780.197143555,-27728965.759277344,11831391.334533691,11774719.23828125,10447435.37902832,-13107867.240905762,-13458828.926086426,-13644309.997558594,-12592199.325561523,12191895.484924316,12027961.730957031,-12402873.039245605,-13041815.757751465,-17635913.848876953
0.115,-19014225.006103516,-7556300.640106201,-18183610.916137695,-12355964.660644531,-9956852.912902832,-14906775.47454834,-13962718.963623047,-13128827.095031738,-11949753.761291504,-3955003.261566162,-14448383.331298828,-19836753.845214844,-11587182.04498291,-14618351.936340332,20684051.513671875,-11083186.149597168,-14024670.600891113,-13598094.940185547,-21559740.06652832,-21632343.292236328,-21557842.254638672,-18818052.291870117,-10055089.950561523,25404233.932495117,7959612.3695373535,-12830056.190490723,-10559114.456176758,-20338274.002075195,-23572206.497192383,-31046001.434326172,-20834152.221679688,-6951035.499572754,13560847.282409668,17160787.58239746,-14508512.496948242,-17239137.649536133,-19001852.03552246,-10640946.388244629,-25587993.621826172,311131225.5859375,-11548648.834228516,12805077.55279541,12028322.219848633,-2595051.050186157,-20574985.50415039,-29655248.641967773,-30062673.568725586,-10454263.687133789,-25687192.916870117,-25362396.240234375,13116183.280944824,13026875.495910645,11813553.810119629,-7790814.8765563965,-9868227.005004883,-9964954.376220703,-8957631.11114502,13198900.22277832,13223667.14477539,-7012032.508850098,-9407277.10723877,-13862050.05645752
0.12,-20218261.71875,-8635239.601135254,-17627296.447753906,-14358023.643493652,-8802906.036376953,-19374328.61328125,-17829416.275024414,-15992738.723754883,-14863422.393798828,-5472821.235656738,-13978695.8694458,-18471857.07092285,-7174625.396728516,-10345087.051391602,17176519.3939209,-14889745.712280273,-16627872.467041016,-16314321.517944336,-23462770.462036133,-22661041.259765625,-20493440.628051758,-16005130.767822266,-6632192.134857178,22299158.096313477,4697104.930877686,-15729050.636291504,-12606177.33001709,-21384416.580200195,-23195013.04626465,-29702026.3671875,-19016336.44104004,-4498251.914978027,11961040.496826172,15310761.451721191,-16641931.533813477,-18538219.451904297,-20023817.06237793,-10907733.917236328,-23756858.825683594,319845825.1953125,-9122231.483459473,11492744.445800781,10493028.64074707,-2728498.935699463,-19413288.116455078,-28582843.780517578,-29307844.161987305,-8173487.663269043,-24499395.3704834,-24309303.283691406,11854511.260986328,12035050.392150879,10630861.282348633,-3323597.4311828613,-7634885.311126709,-7697382.926940918,-6835801.124572754,11866633.415222168,12012518.882751465,-2452332.9734802246,-7228374.481201172,-11610363.006591797
0.125,-23324724.197387695,-10298411.36932373,-18402971.267700195,-16370731.353759766,-9590485.572814941,-23539657.592773438,-20576890.94543457,-17479553.22265625,-16415330.88684082,-7290429.11529541,-14538904.190063477,-19442094.802856445,-7452569.007873535,-9579908.37097168,15666855.812072754,-17192892.07458496,-17811941.146850586,-17615114.212036133,-24663589.477539062,-24110576.629638672,-20946617.126464844,-16383136.749267578,-6976987.838745117,21137876.510620117,3329934.1201782227,-17310165.405273438,-13538481.712341309,-21462669.372558594,-23261583.32824707,-30442676.544189453,-20712335.58654785,-5420471.668243408,12063561.43951416,14218672.752380371,-16874450.68359375,-18207509.994506836,-20211944.580078125,-11312878.608703613,-23736068.725585938,319757720.9472656,-8779770.851135254,11729323.387145996,10663385.391235352,-1795417.7856445312,-17512386.322021484,-27121402.740478516,-29146621.704101562,-7475365.161895752,-23797649.383544922,-23929407.119750977,11979968.070983887,12428671.836853027,10819717.407226562,-1178708.1956863403,-7096253.871917725,-7275215.625762939,-6531384.468078613,12215802.192687988,12294804.573059082,-355000.43630599976,-6846419.334411621,-11241885.1852417
0.13,-25442096.710205078,-10780359.268188477,-19912946.701049805,-16387504.577636719,-11615542.4118042,-24995588.302612305,-19831478.118896484,-16188583.374023438,-15077767.372131348,-7684984.20715332,-15681619.644165039,-21615539.55078125,-10947644.233703613,-11796521.186828613,16015703.201293945,-16570798.873901367,-16424295.425415039,-16218471.52709961,-24484558.10546875,-24879199.981689453,-21938055.03845215,-18491132.736206055,-9679964.065551758,21456289.291381836,5377252.578735352,-16222778.3203125,-12026108.741760254,-20462562.561035156,-23618349.075317383,-32260112.762451172,-22669939.041137695,-8098488.807678223,13896728.515625,13783711.433410645,-14909117.698669434,-16040569.305419922,-19316282.272338867,-11604125.9765625,-24718107.223510742,315573760.9863281,-10300088.882446289,13464423.179626465,12589890.480041504,141300.20141601562,-15692786.21673584,-25637229.919433594,-29018211.364746094,-7679572.105407715,-21702438.354492188,-23949188.232421875,13644419.67010498,14048592.567443848,12485072.135925293,-2877809.2861175537,-7934899.33013916,-8261954.307556152,-7539061.546325684,14065461.158752441,14027229.309082031,-2157672.643661499,-7805607.795715332,-12267455.101013184
0.135,-23320249.557495117,-8040482.521057129,-18898614.88342285,-13431328.773498535,-11148823.738098145,-24147857.666015625,-17063896.17919922,-13129364.013671875,-11782176.971435547,-5364329.814910889,-14943414.688110352,-21223096.84753418,-11589758.87298584,-11640986.442565918,16564556.121826172,-14951395.034790039,-13929429.054260254,-13657940.864562988,-23023778.915405273,-23908935.546875,-21236694.3359375,-18066606.521606445,-9351428.031921387,21877202.9876709,8638735.7711792,-14152738.571166992,-9459777.83203125,-19713237.762451172,-23522857.666015625,-32382087.70751953,-21259405.1361084,-8032289.505004883,14198540.687561035,13158380.508422852,-13098131.17980957,-14761417.388916016,-18412923.81286621,-11748204.231262207,-24385747.9095459,317384643.5546875,-10259914.39819336,13614327.430725098,12960795.402526855,1176227.331161499,-15713905.334472656,-25869213.104248047,-28865095.138549805,-7342402.935028076,-17758834.838867188,-23276624.67956543,13908201.217651367,14067865.371704102,12700006.484985352,-6952855.587005615,-8348512.649536133,-8693696.975708008,-7930452.823638916,14181682.586669922,14192394.256591797,-6209873.676300049,-8201795.57800293,-12629040.718078613
0.14,-17715904.235839844,-3261167.287826538,-14852939.60571289,-9421684.265136719,-7767985.3439331055,-21309627.532958984,-14579387.664794922,-10785014.152526855,-9164155.006408691,-2394882.6789855957,-12267921.447753906,-17864871.978759766,-8273449.897766113,-7143311.500549316,17092300.415039062,-13901656.150817871,-12315603.256225586,-12057851.791381836,-21252830.505371094,-21633289.337158203,-18686019.897460938,-14280840.873718262,-4280252.456665039,22481742.85888672,10815523.147583008,-13140609.741210938,-7684334.278106689,-19544069.290161133,-22437442.779541016,-29833309.173583984,-17237859.72595215,-4065168.857574463,12570741.653442383,12993578.910827637,-13054742.813110352,-15563316.345214844,-17922475.814819336,-11657007.217407227,-22001779.556274414,317531646.7285156,-6473197.937011719,11925988.19732666,11300560.95123291,642739.2363548279,-16961656.57043457,-27171680.450439453,-28332471.84753418,-5787966.251373291,-12814655.303955078,-20240003.58581543,12350948.333740234,12449052.810668945,11143142.700195312,-9265040.397644043,-6388012.409210205,-6627908.706665039,-5797093.868255615,12319995.880126953,12543287.27722168,-8375316.619873047,-6135631.561279297,-10275034.90447998
0.145,-13162978.172302246,227727.36847400665,-11020656.58569336,-7546498.2986450195,-4958431.720733643,-17305915.83251953,-13246344.566345215,-10666588.78326416,-8979645.729064941,-1892614.3646240234,-10303962.707519531,-15169404.983520508,-5711159.229278564,-2252848.3867645264,18247194.290161133,-13221535.682678223,-12255006.790161133,-12066715.240478516,-20422620.77331543,-19891561.50817871,-16720884.323120117,-10811295.509338379,1071802.7353286743,23728570.93811035,11524920.463562012,-13676958.084106445,-7176652.908325195,-19259908.67614746,-21150861.740112305,-26978004.455566406,-14687294.006347656,-11784.50882434845,11945224.76196289,13676430.702209473,-14179063.79699707,-16953081.130981445,-17570823.669433594,-11343384.742736816,-19956514.358520508,306126831.0546875,-1656202.4354934692,11261928.55834961,10486223.220825195,-692695.9156990051,-17554481.506347656,-27348220.825195312,-27374128.341674805,-3698578.8345336914,-9316421.508789062,-15854046.821594238,11558379.173278809,11910994.529724121,10472854.614257812,-8091618.537902832,-3231310.8444213867,-3369748.592376709,-2450875.759124756,11509939.193725586,11855111.122131348,-7111303.806304932,-2877979.516983032,-6616616.249084473
0.15,-12704442.977905273,1182858.943939209,-9652776.718139648,-8623693.466186523,-4645844.459533691,-15122576.713562012,-13150103.569030762,-12041522.979736328,-10508739.471435547,-3647356.9869995117,-10335859.298706055,-15459547.04284668,-6588264.942169189,-699274.3611335754,19060997.009277344,-13036524.772644043,-13285333.633422852,-13094125.747680664,-20963949.20349121,-19951444.625854492,-17087261.199951172,-10578987.121582031,2195920.22895813,24260566.71142578,10902673.721313477,-15352470.397949219,-7661470.890045166,-18961153.030395508,-21052701.950073242,-26712913.513183594,-15766376.495361328,752872.2286224365,13096224.784851074,13096920.96710205,-15714709.281921387,-17861558.91418457,-17638803.482055664,-11130696.296691895,-20812294.006347656,294836151.1230469,-472346.0078239441,12298934.936523438,11338955.879211426,-2614910.125732422,-17727350.23498535,-26577741.622924805,-27002214.431762695,-2227484.703063965,-9963529.586791992,-14223968.505859375,12232677.459716797,12855360.03112793,11324908.256530762,-6497606.7543029785,-2632272.243499756,-2731971.263885498,-1762961.983680725,12577916.145324707,12750009.536743164,-5581164.360046387,-2180566.5493011475,-5812399.387359619
0.155,-14201361.656188965,1770978.2123565674,-9141614.91394043,-9942049.026489258,-4572733.402252197,-16941665.649414062,-14015226.364135742,-12748483.657836914,-11334466.934204102,-4160598.2780456543,-10354118.347167969,-16653429.03137207,-7728939.056396484,-919208.1689834595,17901145.935058594,-14194805.145263672,-14316116.333007812,-14041112.899780273,-21797824.85961914,-20866062.16430664,-18286394.119262695,-11800158.500671387,450168.9076423645,22481546.40197754,9199319.839477539,-17357814.78881836,-8690646.171569824,-19449678.421020508,-22099832.53479004,-28829584.1217041,-18201379.776000977,-199827.4177312851,13498472.213745117,9634400.367736816,-17685838.69934082,-18864963.53149414,-18558942.794799805,-11287066.459655762,-23601013.18359375,302277008.0566406,-3388749.361038208,12590922.355651855,11490196.228027344,-5034423.828125,-19172491.0736084,-27325620.651245117,-28062976.837158203,-1808313.250541687,-14279128.074645996,-17356224.060058594,12287898.063659668,12842671.394348145,11446835.5178833,-7652731.895446777,-5557394.027709961,-5627272.129058838,-4727252.960205078,13041401.863098145,12875502.586364746,-6840853.214263916,-4958726.406097412,-8997014.045715332
0.16,-13796147.346496582,3946404.9339294434,-7459012.508392334,-8861657.14263916,-2496228.6949157715,-20761127.471923828,-14994036.674499512,-11607230.186462402,-10082367.897033691,-1468223.8101959229,-8510707.85522461,-16085315.704345703,-5541778.564453125,772196.7101097107,15664472.579956055,-16307668.685913086,-14216661.45324707,-13873274.803161621,-21562549.591064453,-20875097.274780273,-17954900.74157715,-10952552.795410156,435252.96449661255,19809865.951538086,7905140.399932861,-18462657.928466797,-9338726.043701172,-20598730.087280273,-22928623.19946289,-30802637.100219727,-18784891.12854004,845002.3531913757,12396341.323852539,6103414.535522461,-19185194.01550293,-20049489.974975586,-19742439.27001953,-11686871.528625488,-25386260.986328125,325624206.54296875,-6229090.213775635,11514637.94708252,10283282.279968262,-6269314.765930176,-21650957.107543945,-30406461.715698242,-29960414.88647461,-2230040.5502319336,-18499809.26513672,-22058998.107910156,11364165.306091309,11547248.840332031,10368247.032165527,-10153170.585632324,-8181230.545043945,-8185243.606567383,-7435380.458831787,12087320.327758789,11763528.823852539,-9306998.252868652,-7413595.199584961,-12130681.991577148
0.165,-12178467.750549316,5959022.521972656,-6172404.766082764,-7070275.783538818,-355714.23172950745,-23703987.12158203,-16089185.71472168,-10395002.365112305,-8630374.908447266,1744814.7535324097,-6629803.18069458,-15132502.555847168,-1789424.4194030762,4191158.7715148926,14775208.473205566,-18165321.350097656,-13371482.849121094,-12962226.867675781,-20780574.798583984,-20274345.39794922,-16911911.010742188,-8265960.693359375,2955862.522125244,19095788.955688477,8352814.674377441,-18422294.61669922,-9018613.815307617,-21425922.393798828,-23186607.360839844,-31662750.244140625,-17885084.15222168,4010333.0612182617,12469561.576843262,6750441.074371338,-18516149.520874023,-20341268.53942871,-20238033.294677734,-12119550.704956055,-25874101.638793945,346439239.5019531,-6173218.727111816,11711310.386657715,10305007.934570312,-4632606.506347656,-23066175.46081543,-33634330.74951172,-31618616.104125977,-3369536.6382598877,-20388587.951660156,-24426494.598388672,11934153.55682373,11819917.678833008,10629344.940185547,-10557135.581970215,-7409530.162811279,-7354028.701782227,-6668994.903564453,12218125.343322754,12072259.902954102,-9503950.119018555,-6547860.145568848,-11806912.422180176
0.17,-14122796.058654785,4388883.590698242,-8277812.0040893555,-9066981.315612793,-1777937.2930526733,-27052223.205566406,-19125123.977661133,-12379627.227783203,-10471585.273742676,1291188.0016326904,-7935567.855834961,-17197090.14892578,-1163838.9825820923,5484142.780303955,14430616.37878418,-20210535.049438477,-14028418.54095459,-13447134.971618652,-21424404.14428711,-21115709.30480957,-18207462.310791016,-7587923.049926758,3852718.8301086426,19336723.32763672,8956056.594848633,-19064577.102661133,-8822542.190551758,-21638132.095336914,-23964527.130126953,-32817214.965820312,-18486665.725708008,5627458.572387695,14665077.209472656,10623947.143554688,-16446678.161621094,-19687963.485717773,-20168624.877929688,-12563528.060913086,-27402528.762817383,356035980.2246094,-5244146.823883057,13987445.831298828,12394428.253173828,-1716052.8898239136,-22895030.975341797,-34814220.4284668,-32884582.51953125,-5024198.532104492,-21830093.383789062,-24964466.094970703,14417038.917541504,14357152.938842773,12864738.464355469,-8908596.992492676,-5799236.297607422,-5761244.773864746,-4960069.179534912,14304368.019104004,14457794.189453125,-7639748.573303223,-4973109.722137451,-10421507.835388184
0.175,-20861597.061157227,-431656.95667266846,-12707776.069641113,-15601387.023925781,-6278583.04977417,-33501239.776611328,-24825208.66394043,-17752307.891845703,-15869405.746459961,-2735023.260116577,-11717815.399169922,-21633544.921875,-4380908.012390137,3077662.944793701,10602581.977844238,-23718273.162841797,-17260116.577148438,-16446424.48425293,-23513202.667236328,-23386985.778808594,-21720085.14404297,-10373001.098632812,558488.7862205505,15824622.15423584,6754722.118377686,-21921638.48876953,-10367026.329040527,-21680019.37866211,-25201641.082763672,-34631507.873535156,-20917633.056640625,3807192.325592041,15423820.495605469,12104787.826538086,-16838504.791259766,-19727350.23498535,-20188627.243041992,-12830319.40460205,-29965919.494628906,357364746.09375,-6239039.897918701,14780599.594116211,13111852.645874023,-1358013.2722854614,-23018423.080444336,-34181465.14892578,-33831947.326660156,-6125336.647033691,-24473382.9498291,-26086940.76538086,15120059.967041016,15342269.897460938,13558033.94317627,-8492321.968078613,-7535676.956176758,-7598925.1136779785,-6610675.33493042,14980626.106262207,15252081.871032715,-7218016.624450684,-6844614.505767822,-12098855.972290039
0.18,-26446556.091308594,-3226057.529449463,-14075945.854187012,-21088584.899902344,-8630086.898803711,-40500717.16308594,-29682466.506958008,-21880867.00439453,-20100923.538208008,-5261833.667755127,-12988739.967346191,-23001045.22705078,-6560960.292816162,651067.4357414246,2836122.989654541,-27106519.69909668,-20303518.295288086,-19417348.861694336,-23930307.388305664,-23674543.380737305,-22759243.01147461,-12585752.487182617,-3234947.681427002,7635690.689086914,2418179.0351867676,-25104598.999023438,-13009535.789489746,-21424390.79284668,-24738466.262817383,-34823348.99902344,-21224630.35583496,1726179.599761963,12113689.422607422,8956467.628479004,-21662471.771240234,-21242734.909057617,-19981096.267700195,-12425570.487976074,-29908538.818359375,350306732.1777344,-7745775.6996154785,11578248.977661133,10008726.119995117,-4474422.454833984,-24593723.29711914,-33343967.43774414,-33675193.786621094,-5269706.249237061,-25569831.84814453,-26626457.21435547,11761765.480041504,12156206.130981445,10382192.611694336,-10553577.423095703,-11213684.08203125,-11392971.03881836,-10322661.399841309,11849995.613098145,12034381.866455078,-9530555.725097656,-10689059.257507324,-15452821.731567383
0.185,-24692253.11279297,390152.12655067444,-9118814.468383789,-19972215.65246582,-5078982.830047607,-41782043.45703125,-29064647.674560547,-20408363.342285156,-18719577.78930664,-2480912.446975708,-8802080.154418945,-17927024.841308594,-3364518.165588379,2659714.460372925,-2754652.738571167,-26442432.403564453,-19528358.459472656,-18811538.696289062,-20539848.32763672,-19616994.857788086,-18160625.457763672,-9800787.925720215,-2028488.6360168457,1112468.6002731323,542221.4269638062,-25104097.366333008,-14116264.343261719,-20247341.15600586,-21466062.545776367,-31914339.065551758,-16412462.23449707,3889328.0029296875,8184834.4802856445,5871591.091156006,-27285934.448242188,-22630754.470825195,-18736642.837524414,-11260704.99420166,-25368810.653686523,333526153.5644531,-6111274.719238281,7823527.812957764,6407215.595245361,-7258008.95690918,-26140537.26196289,-33116584.77783203,-31833143.23425293,-2542291.6412353516,-21648656.845092773,-23127813.3392334,8021931.6482543945,8332221.984863281,6784862.041473389,-12298963.54675293,-10998357.772827148,-11220770.835876465,-10200559.616088867,8269272.804260254,8385999.67956543,-11567392.349243164,-10584870.338439941,-14876297.950744629
0.19,-17466445.922851562,8126693.7255859375,-1400275.707244873,-14062614.440917969,1394270.420074463,-36052581.787109375,-23532371.520996094,-15336661.338806152,-13692821.502685547,2638801.5747070312,-3045862.913131714,-10590429.306030273,2891880.2738189697,8374200.820922852,-752911.0312461853,-20969541.549682617,-15810934.066772461,-15302338.600158691,-16191034.317016602,-14258270.263671875,-11670634.269714355,-3755640.5067443848,3883729.934692383,2348127.841949463,3546584.367752075,-21840871.810913086,-12747917.175292969,-18502410.888671875,-17862972.259521484,-28416584.014892578,-9439352.989196777,10288402.557373047,9076545.715332031,7989814.758300781,-28673076.629638672,-22128196.716308594,-16919960.021972656,-10122312.545776367,-20044101.71508789,315540435.7910156,-1248888.1349563599,8780287.742614746,7385312.080383301,-5992187.5,-25759202.95715332,-33138397.216796875,-29511865.615844727,-28788.71001303196,-14680283.546447754,-16164827.346801758,9115921.974182129,9238911.628723145,7825562.953948975,-10962439.53704834,-5033124.4468688965,-5189437.8662109375,-4233383.1787109375,9329044.342041016,9512658.11920166,-10286632.537841797,-4582724.571228027,-8821043.014526367
0.195,-12042109.489440918,13503883.361816406,2599138.9751434326,-10110893.249511719,4047616.0049438477,-28826236.724853516,-18404775.619506836,-12808959.9609375,-11145050.048828125,3604659.7957611084,-2354892.0154571533,-8643712.997436523,5234292.507171631,12437220.573425293,6070502.281188965,-14880681.037902832,-13716711.99798584,-13249474.52545166,-15724685.668945312,-13093914.985656738,-10146141.052246094,-838987.0524406433,8267138.481140137,8974576.950073242,8413775.444030762,-19014142.990112305,-11037482.261657715,-17563312.530517578,-17406112.670898438,-28354488.372802734,-6502242.088317871,15942915.916442871,14497772.216796875,13965477.94342041,-26106403.350830078,-20356874.465942383,-16077842.712402344,-9830925.941467285,-18947193.145751953,305739288.3300781,2440831.8996429443,14076569.557189941,12565355.30090332,-1945443.3917999268,-23925460.815429688,-32992187.5,-28834329.60510254,151860.13281345367,-10744873.046875,-11311980.247497559,14474181.175231934,14489798.545837402,13044125.5569458,-7743890.285491943,1213358.4022521973,1185088.5152816772,2147064.685821533,14604189.8727417,14832665.44342041,-6865016.937255859,1858390.9273147583,-2685697.078704834
0.2,-11095726.013183594,13922201.156616211,1302321.0763931274,-10577330.589294434,504841.6256904602,-24307348.251342773,-16418573.379516602,-14634260.177612305,-12909768.104553223,-843453.7053108215,-7568249.702453613,-14012920.379638672,317489.2067909241,11269824.028015137,10585204.124450684,-11791849.136352539,-14847333.908081055,-14307169.914245605,-19251146.31652832,-16920198.440551758,-14955124.855041504,-4082539.0815734863,6684359.550476074,13621476.173400879,11321432.113647461,-18747846.603393555,-10921857.833862305,-18050865.173339844,-20212335.58654785,-32294063.568115234,-9724575.04272461,16364101.40991211,18653621.673583984,18186029.4342041,-24567873.001098633,-19475576.400756836,-16765771.865844727,-10201915.740966797,-22274515.15197754,298703094.4824219,1385960.340499878,18083471.298217773,16494413.375854492,247185.05144119263,-22937561.03515625,-32999191.284179688,-30454120.635986328,-2010374.7844696045,-12641919.136047363,-12523935.317993164,18415422.439575195,18395713.806152344,16993371.963500977,-6198989.391326904,1757821.4406967163,1822772.9797363281,2827584.2666625977,18571458.81652832,18658845.901489258,-5106629.848480225,2613729.0000915527,-1975417.4947738647
0.205,-10200750.350952148,13307146.072387695,-670571.8636512756,-10982921.600341797,-4383041.858673096,-20862674.713134766,-14854846.954345703,-15863944.053649902,-14122037.887573242,-4439311.981201172,-12242819.786071777,-20632089.614868164,-7278417.110443115,6990993.499755859,10598469.734191895,-10549071.311950684,-15565921.783447266,-14994353.294372559,-21586458.206176758,-20548603.057861328,-20349040.985107422,-9596987.7243042,1675449.4905471802,13612174.987792969,12489896.774291992,-18898527.145385742,-11398429.870605469,-18989454.26940918,-23084749.221801758,-36781723.02246094,-14972758.293151855,12251394.271850586,17875083.923339844,18022478.103637695,-26607797.622680664,-20439220.428466797,-17832424.16381836,-10426010.131835938,-26051946.64001465,284601287.8417969,-3107301.712036133,17326320.64819336,15796224.594116211,-1740184.6647262573,-24073209.762573242,-33683795.92895508,-32865646.362304688,-4661395.072937012,-17078395.84350586,-17476600.646972656,17589673.99597168,17522037.506103516,16378181.457519531,-7703783.03527832,-2528396.6064453125,-2476405.620574951,-1457520.604133606,17853876.1138916,17724304.19921875,-6572143.077850342,-1622425.6753921509,-5657989.978790283
0.21,-6008449.554443359,15759367.942810059,751097.3811149597,-7519436.836242676,-4792204.856872559,-16893024.444580078,-11430374.145507812,-12398916.244506836,-10717196.464538574,-1563655.7340621948,-10715060.234069824,-22023101.806640625,-10532225.608825684,4063925.7431030273,9560567.855834961,-8807450.294494629,-12853585.243225098,-12287563.32397461,-19223012.924194336,-19448476.791381836,-20809432.983398438,-12036873.817443848,-1253476.7389297485,12286721.229553223,13927114.486694336,-17004457.473754883,-10408497.81036377,-18964387.893676758,-23381313.32397461,-38337352.75268555,-17201578.14025879,8196167.945861816,14629077.911376953,16069683.074951172,-29072349.548339844,-21917955.39855957,-17857870.10192871,-10189670.56274414,-27290861.129760742,269284027.0996094,-6883184.432983398,14229999.542236328,12808380.126953125,-5417817.59262085,-25932712.55493164,-34386470.794677734,-33802597.04589844,-5934006.214141846,-19382923.126220703,-20899038.314819336,14520411.491394043,14417136.192321777,13523008.346557617,-9973423.00415039,-5712077.617645264,-5778065.204620361,-4786146.16394043,14814061.164855957,14653019.905090332,-8879316.329956055,-4939325.80947876,-8397487.64038086
0.215,-2220327.854156494,19359638.214111328,3634002.923965454,-3410216.5699005127,-1305640.697479248,-15927042.961120605,-9084278.106689453,-7552618.980407715,-5930451.393127441,4777498.245239258,-5384696.960449219,-18876417.16003418,-8565609.9319458,3534385.4427337646,8887045.860290527,-7964282.512664795,-9285979.270935059,-8661520.957946777,-15141964.91241455,-15364267.349243164,-17437383.6517334,-11222796.440124512,-877296.6265678406,11373278.617858887,14833373.069763184,-14324888.229370117,-8094751.358032227,-17573896.408081055,-21373617.17224121,-36580974.57885742,-15868535.041809082,7309595.108032227,13018090.24810791,15704503.059387207,-28150571.823120117,-21895093.91784668,-16542697.90649414,-9786755.561828613,-25982313.15612793,265449310.30273438,-7651040.077209473,12699204.444885254,11354969.97833252,-6793820.858001709,-25896528.244018555,-33246204.376220703,-32010021.209716797,-5202005.863189697,-18325874.32861328,-20645334.243774414,13071029.663085938,13005769.729614258,12095420.837402344,-10224777.221679688,-4583217.620849609,-4811776.161193848,-3862302.303314209,13211698.532104492,13255950.927734375,-9090752.601623535,-3995447.6356506348,-7579842.090606689
0.22,-4493075.370788574,18783262.252807617,2841784.0003967285,-4727511.882781982,5052.791908383369,-21529150.009155273,-11919298.17199707,-7902043.342590332,-6284040.451049805,6310565.47164917,-3816028.356552124,-17469074.249267578,-7355728.1494140625,2228811.025619507,5589184.284210205,-11111019.134521484,-9617988.586425781,-8893758.773803711,-14989420.890808105,-13897108.07800293,-15970644.9508667,-11525904.655456543,-1302006.9599151611,8149245.262145996,12652689.933776855,-13954004.287719727,-6646397.113800049,-15887880.325317383,-19395038.604736328,-34041183.47167969,-14479251.861572266,7941072.463989258,13094437.599182129,16845638.275146484,-24968778.610229492,-20139997.482299805,-14901141.166687012,-9477171.897888184,-23644309.997558594,270367126.46484375,-7021448.135375977,12719556.80847168,11469741.821289062,-5140250.682830811,-23456899.642944336,-29906242.37060547,-28645915.985107422,-3390558.2427978516,-16192213.05847168,-19308044.43359375,13122162.818908691,13101268.768310547,12023652.076721191,-9000423.431396484,-2329040.52734375,-2687561.273574829,-1754551.7683029175,13007252.69317627,13251425.743103027,-7837714.672088623,-1878356.695175171,-6044435.501098633
0.225,-12378549.575805664,12653344.15435791,-3297720.6707000732,-12027900.695800781,-4669686.794281006,-30602918.62487793,-18946029.663085938,-14473519.325256348,-12877832.412719727,48472.66152501106,-9497986.793518066,-21828641.891479492,-11763618.469238281,-2634883.403778076,-1082051.7539978027,-17579782.485961914,-14381998.062133789,-13626025.199890137,-20112724.30419922,-17814552.307128906,-20066949.84436035,-15927283.28704834,-6245833.873748779,1797728.8961410522,7568035.60256958,-16657089.233398438,-7559729.57611084,-15829872.131347656,-19926271.438598633,-34134307.861328125,-16360589.981079102,5992181.301116943,11588398.933410645,16702850.341796875,-23876037.59765625,-18934843.063354492,-14682233.810424805,-9458293.914794922,-22691867.82836914,272893157.9589844,-8550733.56628418,11148783.683776855,10030869.483947754,-3683871.030807495,-21659843.44482422,-27672086.715698242,-27287313.46130371,-2742882.013320923,-16517789.840698242,-20989461.89880371,11478517.532348633,11399506.568908691,10305576.32446289,-9936462.40234375,-4424536.228179932,-4819617.27142334,-3811717.987060547,11214444.160461426,11421369.552612305,-8953628.540039062,-4069665.9088134766,-8392910.00366211
0.23,-19788738.250732422,5451241.970062256,-11069805.145263672,-19519124.98474121,-12281606.674194336,-36449256.896972656,-25066783.905029297,-21490484.2376709,-19983474.731445312,-7945845.127105713,-17811359.405517578,-29375032.424926758,-19422933.57849121,-9615246.772766113,-6173960.6857299805,-22990423.20251465,-19541402.81677246,-18814687.728881836,-26262296.676635742,-24219789.505004883,-27652021.408081055,-22622980.11779785,-14235492.706298828,-2966906.785964966,2808724.4033813477,-20445106.506347656,-10198857.307434082,-18379404.067993164,-23724409.103393555,-38407169.342041016,-21723062.51525879,130727.51462459564,6887520.790100098,13537807.46459961,-26536176.681518555,-20640760.42175293,-16900526.04675293,-10124454.498291016,-25741872.787475586,276164794.921875,-14099504.470825195,6479680.53817749,5427883.148193359,-5527328.4912109375,-23807647.705078125,-30371858.596801758,-30839776.99279785,-5374718.66607666,-21710639.95361328,-27229257.583618164,6677461.624145508,6500013.828277588,5541338.920593262,-15240265.846252441,-12265959.739685059,-12592122.077941895,-11400887.489318848,6497721.6720581055,6484240.531921387,-14588356.018066406,-11977041.244506836,-15885058.403015137
0.235,-22084720.611572266,2335106.84967041,-15437961.57836914,-21848817.825317383,-16608142.852783203,-36793846.130371094,-26946744.918823242,-23392633.43811035,-21918064.11743164,-10060733.795166016,-21447593.688964844,-34111412.048339844,-23859153.747558594,-14308568.000793457,-5455955.982208252,-24397222.5189209,-21458055.49621582,-20718309.40246582,-28440893.173217773,-27843023.3001709,-33077144.622802734,-27212736.129760742,-20071981.43005371,-2077975.2731323242,713620.0070381165,-23068870.544433594,-12600906.372070312,-21747171.40197754,-28394269.943237305,-44242023.46801758,-27642749.786376953,-6054805.278778076,1247596.7407226562,8933293.342590332,-30074529.64782715,-24274835.58654785,-20069015.502929688,-11466650.96282959,-32227680.206298828,290242279.0527344,-21500909.80529785,906825.9000778198,-186844.54262256622,-9516613.006591797,-28558166.50390625,-36511882.78198242,-37359760.28442383,-10700396.537780762,-30347398.75793457,-35240043.64013672,1034313.9171600342,886122.465133667,-76051.60027742386,-21985101.6998291,-21277645.111083984,-21490463.256835938,-20142110.82458496,1062416.7919158936,889081.597328186,-21516353.607177734,-20992418.28918457,-24692554.473876953
0.24,-19821077.346801758,4256503.582000732,-14397230.14831543,-19153144.83642578,-14906233.787536621,-34832469.94018555,-25403951.64489746,-20391025.54321289,-18794445.037841797,-5707244.873046875,-18129039.764404297,-32668048.858642578,-21883785.247802734,-13594784.7366333,-1455243.468284607,-22794967.651367188,-20025220.87097168,-19226213.455200195,-25633506.774902344,-26146980.28564453,-32253093.719482422,-26855880.737304688,-20021003.72314453,1892277.479171753,999014.4968032837,-23400886.53564453,-12975895.881652832,-22389438.62915039,-29646266.93725586,-46262866.97387695,-30091554.641723633,-7543310.642242432,-1631122.9467391968,6519759.178161621,-30876806.259155273,-25785751.342773438,-20834241.86706543,-12434342.384338379,-36646793.365478516,306114318.84765625,-25774049.758911133,-1971001.2674331665,-3073793.649673462,-11099117.279052734,-30365558.624267578,-39429748.53515625,-40724388.122558594,-14730224.609375,-36681858.06274414,-39793872.83325195,-1754899.7402191162,-1758609.0564727783,-2931742.4297332764,-24268722.534179688,-24976661.682128906,-25129314.422607422,-23842937.469482422,-1630649.209022522,-1754253.0298233032,-23704294.204711914,-24645547.86682129,-28756664.276123047
0.245,-16314485.549926758,8382857.322692871,-9667802.810668945,-15433175.086975098,-9853083.610534668,-33727336.88354492,-23128549.575805664,-16805702.209472656,-15097858.428955078,-581047.3561286926,-11957309.72290039,-26842262.268066406,-16018493.65234375,-8188151.3595581055,493069.26131248474,-20759851.455688477,-17535659.790039062,-16739263.534545898,-21020442.962646484,-21290523.529052734,-26241245.26977539,-22231590.270996094,-14862149.238586426,3667119.026184082,2645919.7998046875,-21592638.01574707,-11054166.793823242,-19057546.615600586,-25711746.215820312,-41925819.396972656,-27000608.444213867,-3154459.4764709473,-26246.90532684326,8422157.287597656,-28486169.815063477,-22958652.49633789,-17755903.244018555,-11951224.327087402,-33808765.41137695,303567871.09375,-23576833.724975586,-403070.95646858215,-1389291.4056777954,-7693200.11138916,-26227439.880371094,-35209888.45825195,-37328815.46020508,-13614219.665527344,-35585994.720458984,-37833683.013916016,-3978.403750807047,45336.50726079941,-1221058.6071014404,-19631160.736083984,-20955268.85986328,-21137546.53930664,-20124359.130859375,28096.37412428856,93508.69804620743,-18893413.543701172,-20597867.965698242,-25134170.532226562
0.25,-14276252.746582031,11416433.334350586,-4834874.629974365,-14099835.395812988,-5905800.819396973,-33954463.958740234,-22367786.407470703,-16036890.029907227,-14457400.32196045,884566.9031143188,-8141768.455505371,-21205520.629882812,-10766491.889953613,-1815922.9755401611,-463269.6807384491,-19937997.817993164,-16322729.110717773,-15628943.44329834,-18529163.360595703,-17600511.55090332,-20172414.779663086,-16634193.420410156,-8669268.608093262,2573016.405105591,5124032.974243164,-19368618.01147461,-8565095.901489258,-14881155.967712402,-20001018.524169922,-35118667.60253906,-20587766.647338867,3174947.2618103027,4693560.1234436035,13044560.432434082,-25309343.338012695,-18771076.202392578,-13644048.690795898,-10550861.358642578,-25895383.834838867,285646789.55078125,-16917963.0279541,4348680.9730529785,3442391.1571502686,-2074155.8074951172,-20061735.153198242,-28153833.389282227,-30835535.049438477,-8388504.0283203125,-28940559.38720703,-31831769.943237305,4810750.0076293945,4753301.14364624,3733071.5656280518,-12309746.742248535,-13315687.17956543,-13552772.521972656,-12763292.31262207,4735198.974609375,4956207.752227783,-11521910.667419434,-12951739.311218262,-17332241.05834961
0.255,-14538682.93762207,11965216.636657715,-2855389.11819458,-15362401.008605957,-5047102.928161621,-35097145.080566406,-23791967.391967773,-17699508.666992188,-16399854.66003418,-85609.60739850998,-7856738.567352295,-18894563.674926758,-8717655.181884766,1414222.5980758667,-1126162.6482009888,-20746881.48498535,-17103214.263916016,-16520826.33972168,-19138385.772705078,-17200002.670288086,-18217765.80810547,-13583457.946777344,-5555568.218231201,1966455.340385437,7593667.984008789,-19037683.486938477,-7721845.1499938965,-13802355.766296387,-17566679.000854492,-32112739.56298828,-16143125.534057617,6172557.830810547,9317770.004272461,16668239.59350586,-23827463.150024414,-17929162.979125977,-12418139.457702637,-9898997.30682373,-20668630.599975586,276914276.1230469,-11654480.934143066,9086567.878723145,8030091.285705566,597845.9715843201,-18123622.89428711,-25689077.377319336,-28048179.626464844,-4722295.761108398,-24479148.864746094,-27619428.634643555,9352798.461914062,9239600.18157959,8536993.980407715,-9049983.978271484,-8993592.262268066,-9245952.606201172,-8434187.889099121,9344791.412353516,9574784.278869629,-8259057.998657227,-8570335.388183594,-12531427.383422852
0.26,-15800519.943237305,10991623.878479004,-4106407.1655273438,-16712736.129760742,-6174322.128295898,-36310291.2902832,-25542987.823486328,-18697883.60595703,-17516941.07055664,239697.97790050507,-8696516.036987305,-19731540.67993164,-10177735.328674316,-527685.8806610107,68902.17214822769,-22306182.861328125,-18362926.483154297,-17814022.064208984,-20461650.848388672,-18511880.87463379,-20005643.844604492,-14658103.942871094,-7196561.336517334,3327608.585357666,9138560.29510498,-20784027.099609375,-8816469.192504883,-15767910.00366211,-19445848.46496582,-34515235.900878906,-17399969.10095215,3866494.1787719727,11175735.473632812,17257247.924804688,-24746213.912963867,-20801010.131835938,-14294127.464294434,-10517234.802246094,-22150611.877441406,282441741.9433594,-11711134.910583496,11040326.118469238,9709760.665893555,-1397958.3978652954,-21302629.470825195,-29238649.368286133,-30938341.14074707,-6760882.377624512,-26839345.932006836,-28296251.29699707,10973839.75982666,11024279.594421387,10325431.823730469,-11977092.742919922,-11096060.752868652,-11357976.913452148,-10428236.00769043,11178240.776062012,11281961.441040039,-11096198.081970215,-10590715.408325195,-14413619.995117188
0.265,-15749152.183532715,10538808.822631836,-6423123.359680176,-15849701.881408691,-7449661.731719971,-35489429.47387695,-24561826.705932617,-16934492.111206055,-15645370.483398438,2649115.562438965,-8924173.355102539,-21769512.176513672,-13978616.714477539,-6266333.58001709,1831193.447113037,-22606513.97705078,-17952503.204345703,-17356418.60961914,-20226860.04638672,-19295658.111572266,-22550420.7611084,-18771413.803100586,-12169382.095336914,5121413.230895996,10208666.801452637,-22116138.458251953,-10161393.165588379,-17536048.889160156,-22480516.43371582,-38501186.37084961,-23056015.014648438,-1296768.5461044312,10092606.544494629,15938098.907470703,-26978326.79748535,-23359985.3515625,-16190786.361694336,-11151073.455810547,-26683271.408081055,279385131.8359375,-15444413.185119629,9962322.235107422,8508769.989013672,-4890830.993652344,-24896976.470947266,-33446735.382080078,-35355949.40185547,-12288117.408752441,-32389949.798583984,-31492933.27331543,9693842.887878418,9966372.4899292,9024794.578552246,-16920570.373535156,-16100654.602050781,-16428886.413574219,-15568994.522094727,10068627.35748291,10024836.540222168,-15974083.90045166,-15646983.14666748,-19449508.666992188
0.27,-13716003.41796875,11566768.646240234,-7506561.279296875,-13464403.15246582,-8353015.899658203,-31228464.126586914,-20451311.111450195,-13981319.427490234,-12630246.16241455,4231429.576873779,-9573981.285095215,-23761028.289794922,-17835918.426513672,-11803504.943847656,3589838.743209839,-20477659.225463867,-16031759.262084961,-15328395.84350586,-19389560.69946289,-19837465.286254883,-24419744.49157715,-23175220.489501953,-16957992.553710938,6720470.905303955,12060277.938842773,-21311681.747436523,-10662958.145141602,-17506801.60522461,-24063261.032104492,-40421413.42163086,-28221815.10925293,-4978989.601135254,8317353.248596191,14807434.08203125,-28795761.108398438,-22992458.34350586,-16369432.44934082,-10759767.532348633,-29100044.25048828,258303802.49023438,-18071243.286132812,8121471.405029297,6735604.286193848,-6144553.184509277,-25384304.04663086,-33660736.083984375,-37030464.17236328,-15488462.448120117,-34471611.02294922,-32832958.221435547,7914981.842041016,8203969.955444336,7177042.007446289,-18620819.091796875,-18019378.662109375,-18419164.657592773,-17804126.739501953,8303720.474243164,8223452.568054199,-17828092.575073242,-17785264.96887207,-21267322.540283203
0.275,-11835565.567016602,12954090.118408203,-7174749.851226807,-12571466.445922852,-9279867.172241211,-25867441.177368164,-16893390.655517578,-13415869.71282959,-12210095.405578613,2646662.2352600098,-11933182.716369629,-25540096.282958984,-19403676.986694336,-13483144.760131836,6253171.920776367,-17670635.223388672,-15322955.131530762,-14482185.363769531,-20452661.514282227,-21640352.249145508,-26205720.901489258,-25388198.852539062,-18389066.696166992,9270233.154296875,14277112.007141113,-20031309.127807617,-11129700.660705566,-17166614.532470703,-24544443.130493164,-40398513.79394531,-29243709.564208984,-4513699.531555176,7973250.389099121,14333689.68963623,-29246513.36669922,-21528173.446655273,-16122270.584106445,-9995509.147644043,-29116127.014160156,243602554.32128906,-17140680.31311035,7675127.983093262,6322531.700134277,-4971628.189086914,-24079454.42199707,-30781684.87548828,-35964172.36328125,-13928491.592407227,-31694639.205932617,-31059038.162231445,7699841.499328613,7825939.178466797,6997025.012969971,-16310878.75366211,-15191114.42565918,-15543267.250061035,-15039022.445678711,7986765.384674072,8014009.475708008,-15800307.273864746,-15131823.539733887,-18253681.182861328
0.28,-11849997.520446777,13462272.644042969,-6433547.9736328125,-14169798.851013184,-9700917.24395752,-23237331.39038086,-16928216.9342041,-15875887.870788574,-14822124.481201172,-256567.68679618835,-14401590.347290039,-26555297.8515625,-18087911.60583496,-10859872.817993164,9502327.919006348,-16993503.57055664,-17130138.397216797,-16209543.228149414,-23072414.39819336,-23821432.11364746,-27600297.927856445,-24675338.745117188,-16090385.437011719,12646404.266357422,14894726.753234863,-20529861.450195312,-12213338.851928711,-17646381.378173828,-24810464.85900879,-40013320.92285156,-26635072.708129883,-650508.5229873657,8807017.32635498,13789114.952087402,-28714702.606201172,-21598983.764648438,-16578716.278076172,-9963049.88861084,-29325881.958007812,255261657.71484375,-14519940.376281738,8379981.04095459,6896914.005279541,-3764779.0908813477,-23550447.463989258,-28317396.16394043,-34442325.592041016,-10618583.679199219,-28336820.602416992,-28586608.88671875,8619966.506958008,8669469.833374023,8002638.816833496,-13427798.2711792,-11648317.337036133,-11839524.269104004,-11154465.675354004,8793562.889099121,8957595.825195312,-13022292.137145996,-11528407.096862793,-14852733.612060547
0.285,-11818378.448486328,13983329.772949219,-5271862.983703613,-15063464.164733887,-8224099.159240723,-23242057.80029297,-18336027.145385742,-17464612.96081543,-16353595.733642578,-384109.7950935364,-13923015.594482422,-25750024.795532227,-15577592.849731445,-6759194.374084473,11572796.821594238,-18317932.12890625,-18774797.439575195,-17906923.294067383,-23793872.833251953,-23516681.671142578,-26915147.78137207,-22270914.07775879,-12583201.40838623,14971881.866455078,13671333.312988281,-21766155.242919922,-12665139.198303223,-17647209.16748047,-24245326.99584961,-39385910.03417969,-23409845.35217285,3592094.4213867188,9164185.523986816,13323260.307312012,-28085779.190063477,-22592855.45349121,-16532461.166381836,-10436351.776123047,-29931930.541992188,275078979.4921875,-13062286.376953125,8650375.366210938,7004162.788391113,-3770648.47946167,-23505744.93408203,-27509157.180786133,-33366672.51586914,-8756290.435791016,-27619796.752929688,-27581363.677978516,8953619.003295898,9111949.920654297,8321122.169494629,-12716857.91015625,-11468069.076538086,-11563602.447509766,-10634222.030639648,9084692.95501709,9262718.200683594,-12156604.766845703,-11157493.591308594,-15121035.5758667
0.29,-8590889.930725098,16321332.931518555,-2932738.0657196045,-11885590.553283691,-4855409.145355225,-21975446.701049805,-16672613.143920898,-14679556.846618652,-13406110.763549805,3452348.9475250244,-10261742.59185791,-23279508.590698242,-13935347.557067871,-4330782.890319824,12315233.23059082,-18493162.155151367,-17069040.298461914,-16320335.388183594,-20947267.532348633,-20260356.903076172,-24063856.12487793,-20158018.112182617,-10453791.618347168,15887605.667114258,13362641.334533691,-20866754.53186035,-11122654.914855957,-15971575.736999512,-22357566.833496094,-38024559.020996094,-21353012.084960938,5943587.779998779,9037779.808044434,14306136.131286621,-27373432.159423828,-22126625.061035156,-14775300.979614258,-10376657.485961914,-28923250.198364258,274910034.1796875,-12677068.710327148,8601666.450500488,6926077.842712402,-3662225.7232666016,-22067667.00744629,-27024675.369262695,-32147243.49975586,-6889554.500579834,-27791435.24169922,-26947872.161865234,8793784.141540527,9055018.424987793,8036362.648010254,-13087178.230285645,-13137847.900390625,-13322741.508483887,-12370020.866394043,8977478.981018066,9027482.032775879,-12355526.9241333,-12738723.754882812,-17014673.233032227
0.295,-2803116.3215637207,20241127.014160156,158509.5375776291,-6031077.861785889,-1895415.6637191772,-17755493.1640625,-11849572.18170166,-9274676.322937012,-7951560.974121094,8001533.508300781,-6700299.7398376465,-20969793.31970215,-13602185.249328613,-4194502.353668213,13600691.795349121,-15820902.824401855,-13040134.42993164,-12328103.065490723,-17339673.99597168,-17328342.43774414,-21544057.846069336,-19281793.59436035,-9665358.543395996,17271951.67541504,16202768.325805664,-17749876.022338867,-8539425.84991455,-13865595.817565918,-20407165.52734375,-36476367.95043945,-19655269.622802734,6632611.274719238,10629772.186279297,17454820.63293457,-25790067.672729492,-19882772.44567871,-12516854.286193848,-9646700.859069824,-26101804.733276367,259034729.00390625,-10903018.951416016,10419607.162475586,8855472.564697266,-1645511.507987976,-19078681.94580078,-25605731.964111328,-30572824.478149414,-1450032.9494476318,-25466083.526611328,-23879291.534423828,10465418.815612793,10654138.565063477,9598716.735839844,-11600637.435913086,-11489435.195922852,-11843668.937683105,-11038214.683532715,10732316.970825195,10648517.608642578,-10860200.881958008,-11128346.44317627,-15122997.283935547
0.3,1491418.2424545288,23493625.64086914,2527628.4217834473,-2122917.413711548,-1364265.5611038208,-13794734.001159668,-8361517.906188965,-5992982.387542725,-4718623.638153076,9644083.976745605,-5887519.836425781,-20246587.7532959,-13564798.355102539,-4646373.748779297,15849425.315856934,-12654159.545898438,-10711812.973022461,-9921304.702758789,-16539417.266845703,-17549293.518066406,-21323366.165161133,-19065874.099731445,-8503699.30267334,19678514.48059082,20321763.99230957,-15541753.768920898,-7208827.495574951,-13312419.891357422,-19977338.790893555,-35637599.94506836,-17295194.625854492,7085219.860076904,14916671.752929688,21339578.62854004,-23331584.930419922,-17955530.166625977,-11855547.904968262,-9147689.819335938,-23876806.259155273,253052154.54101562,-7004502.773284912,14842174.530029297,13440280.91430664,1955537.19997406,-16298379.898071289,-23548635.482788086,-29251367.568969727,7100938.320159912,-20811407.0892334,-18125038.146972656,14935265.54107666,14953770.637512207,14019860.26763916,-7796441.078186035,-5170466.423034668,-5602807.998657227,-4846737.861633301,15193946.838378906,15097852.70690918,-7082036.49520874,-4829192.161560059,-8493330.955505371
0.305,2364945.650100708,25009826.66015625,3990688.3239746094,-1958662.986755371,-2110019.9222564697,-13369969.367980957,-8844603.538513184,-6333659.648895264,-5049389.839172363,8677099.227905273,-6633158.206939697,-20325870.513916016,-12683546.06628418,-4001541.6145324707,16982896.80480957,-12140350.341796875,-11555861.473083496,-10666900.634765625,-18130844.116210938,-19627956.39038086,-22350971.221923828,-18553997.039794922,-6559092.998504639,20988851.54724121,21657653.80859375,-16052742.004394531,-7703896.522521973,-14302756.309509277,-20892679.21447754,-35437252.044677734,-15273682.594299316,7660119.05670166,19169719.696044922,23508604.049682617,-21340045.928955078,-17966207.50427246,-12940707.206726074,-9381200.790405273,-23986373.901367188,263264801.02539062,-3596868.0381774902,18957159.0423584,17665550.231933594,4646739.0060424805,-15333263.397216797,-22291730.880737305,-28745018.005371094,13644967.079162598,-17550121.307373047,-13414592.742919922,19339597.702026367,19240291.595458984,18352132.79724121,-4829472.064971924,505825.81758499146,92264.97262716293,977397.7398872375,19459333.419799805,19451517.10510254,-4005976.2001037598,863985.8365058899,-2854215.145111084
0.31,2287049.2935180664,26194818.4967041,6017283.4396362305,-2697695.016860962,-1139799.2372512817,-15076386.451721191,-10662511.825561523,-7289633.750915527,-5944641.590118408,8254492.75970459,-6070678.234100342,-19396272.659301758,-10581830.978393555,-2179902.3151397705,15960609.436035156,-13849535.942077637,-12834761.619567871,-11867633.819580078,-18775878.90625,-20248664.85595703,-22352621.07849121,-17586360.931396484,-5278980.255126953,19958498.001098633,19166059.494018555,-17376417.16003418,-8356532.096862793,-15260091.781616211,-21673448.56262207,-35235286.712646484,-15141169.548034668,7701721.668243408,19811199.188232422,23123683.92944336,-20908561.70654297,-19430473.32763672,-14132025.718688965,-9813106.536865234,-25461931.228637695,272639678.9550781,-3189626.693725586,19351531.982421875,18001859.664916992,4212496.280670166,-16593309.40246582,-23087944.03076172,-29114578.247070312,14444506.645202637,-18171230.31616211,-13470487.594604492,19974836.349487305,19823907.85217285,18878873.825073242,-5747535.228729248,-60456.782579422,-457659.9895954132,545359.8499298096,19959733.963012695,20021697.998046875,-4772318.363189697,223772.19796180725,-3665256.2618255615
0.315,4222036.838531494,28665513.99230957,9398912.42980957,-1218692.5411224365,2452702.9991149902,-14858843.803405762,-9820825.576782227,-5972996.234893799,-4668068.408966064,10139651.29852295,-3518145.3227996826,-16887319.564819336,-7856792.449951172,-130698.0550289154,14929409.980773926,-14334163.665771484,-11690996.170043945,-10622013.092041016,-16832540.51208496,-18262619.018554688,-20574470.52001953,-16459844.589233398,-5291840.076446533,18641658.782958984,16297693.252563477,-16904937.744140625,-7674500.942230225,-15123654.36553955,-21220336.9140625,-34545539.85595703,-15912795.066833496,7400333.881378174,17253856.658935547,22002738.95263672,-21436996.459960938,-20704078.674316406,-14125952.72064209,-9752476.692199707,-25986286.163330078,269715454.1015625,-4376936.435699463,16771402.359008789,15178046.226501465,1147847.8908538818,-19216699.600219727,-25258512.496948242,-29747333.526611328,11560691.833496094,-20534030.91430664,-16970787.048339844,17268898.010253906,17099689.483642578,16178073.88305664,-9300118.446350098,-5181285.381317139,-5561980.247497559,-4607258.7966918945,17294952.392578125,17340345.38269043,-8332846.641540527,-5060262.680053711,-8837886.810302734
0.32,8037531.852722168,32282424.926757812,13057655.334472656,2250056.028366089,6464352.130889893,-11182418.823242188,-5831683.158874512,-2850945.9495544434,-1717169.7616577148,13179675.102233887,-663499.8321533203,-13852293.014526367,-5929270.267486572,1417209.267616272,16154363.632202148,-11538300.514221191,-8569451.332092285,-7422948.360443115,-13793087.95928955,-15205322.265625,-17818319.32067871,-15232650.756835938,-5086459.636688232,19437656.40258789,16671388.626098633,-14784706.115722656,-5987426.280975342,-13925111.770629883,-19505941.39099121,-33017868.041992188,-14875039.100646973,7882191.6580200195,15638815.879821777,22528989.791870117,-21564031.60095215,-20530572.89123535,-12879580.4977417,-9217063.903808594,-24344558.715820312,258964111.328125,-3647576.8089294434,15391126.63269043,13591136.932373047,-1613256.812095642,-21166017.532348633,-26145898.818969727,-29576665.8782959,9652903.55682373,-20514202.117919922,-18693588.256835938,15512477.87475586,15424562.454223633,14635225.296020508,-11016732.215881348,-7815413.951873779,-8091842.6513671875,-7275781.631469727,15747229.57611084,15719573.974609375,-10199407.577514648,-7749547.958374023,-11236166.000366211
0.325,11914744.37713623,36009849.548339844,15765619.277954102,5661007.881164551,8634266.85333252,-6365120.887756348,-1399296.4029312134,39806.22440576553,1005446.5532302856,15585943.222045898,1102318.1676864624,-11735017.776489258,-6035943.031311035,2355246.5438842773,18616888.04626465,-7136689.186096191,-5765392.303466797,-4713175.7736206055,-11638560.29510498,-12824954.03289795,-15232947.34954834,-14132431.983947754,-3491778.612136841,21536642.07458496,19659460.067749023,-13076714.515686035,-4539880.275726318,-12174712.181091309,-17435113.90686035,-30904888.153076172,-11980804.443359375,8965551.376342773,17281755.447387695,24683778.762817383,-20968568.801879883,-18840965.270996094,-11092132.568359375,-8702788.352966309,-21564462.661743164,246350692.74902344,-783140.9573554993,17198463.439941406,15500055.313110352,-1620707.9887390137,-20593048.095703125,-24145240.783691406,-28252313.6138916,10085751.5335083,-17686174.392700195,-16474481.582641602,17162054.06188965,17288187.02697754,16531738.28125,-8786997.79510498,-4970806.121826172,-5076902.389526367,-4344749.450683594,17577764.5111084,17463232.040405273,-8056716.9189453125,-4735605.716705322,-8102117.538452148
0.33,14782085.418701172,39046535.49194336,17474273.681640625,7800284.385681152,8952408.790588379,-3679136.276245117,909922.4209785461,1632493.6151504517,2526821.1364746094,16781644.821166992,1679887.4139785767,-11472341.537475586,-7914867.401123047,2743655.204772949,19450304.03137207,-4362023.35357666,-4491924.76272583,-3686597.5856781006,-10812306.40411377,-11843938.827514648,-14134569.16809082,-14114839.553833008,-2066862.8215789795,22200134.27734375,21530443.19152832,-12804035.186767578,-4028472.423553467,-10714633.94165039,-16438627.243041992,-29765832.901000977,-10864393.23425293,8546132.08770752,19690746.307373047,26141807.556152344,-20390230.178833008,-16763275.146484375,-9730706.214904785,-8491406.440734863,-20119215.01159668,234294418.33496094,278724.0445613861,19487398.147583008,18143768.310546875,689245.343208313,-18099327.087402344,-21347133.63647461,-27054075.241088867,10418983.459472656,-16191370.010375977,-14319080.352783203,19721094.131469727,20014308.92944336,19100658.416748047,-5669625.282287598,-1445273.6377716064,-1451463.1032943726,-742253.0055046082,20118162.155151367,19915369.033813477,-4881834.983825684,-954384.9229812622,-4432758.331298828
0.335,15724500.65612793,40257995.60546875,18083021.16394043,8093141.555786133,8377907.752990723,-4671162.6052856445,270489.72249031067,1643392.562866211,2536005.0201416016,16818084.716796875,1155643.5823440552,-13108550.071716309,-10057249.069213867,2341134.0713500977,17499277.114868164,-4673185.348510742,-4597664.356231689,-3920808.0768585205,-10854657.173156738,-12359701.156616211,-15525696.754455566,-15960509.300231934,-3381369.3523406982,20288558.959960938,20184253.692626953,-13419186.59210205,-4429923.057556152,-10479987.144470215,-17264263.153076172,-31114410.400390625,-13824338.912963867,5188337.802886963,19188327.78930664,25425916.67175293,-20386220.932006836,-15782817.840576172,-9577702.522277832,-8455633.163452148,-21524038.314819336,229358245.84960938,-3163360.118865967,18784681.32019043,17694656.372070312,2719708.6811065674,-16705909.729003906,-21365648.26965332,-27589624.404907227,8875527.381896973,-19030147.552490234,-16689365.38696289,19369806.28967285,19567586.89880371,18517580.032348633,-6017161.846160889,-2882888.5555267334,-2909999.6089935303,-2233474.016189575,19565443.03894043,19310110.092163086,-5154964.447021484,-2260710.4778289795,-5901862.621307373
0.34,13277371.406555176,38289180.755615234,16574378.967285156,5864491.4627075195,7013190.746307373,-8783318.519592285,-2798352.9567718506,-138396.0396051407,789396.7032432556,15721691.131591797,-411441.02811813354,-15433103.561401367,-11661858.558654785,585553.5864830017,13663047.790527344,-7108986.377716064,-5827435.01663208,-4980793.9529418945,-11336862.564086914,-13751055.717468262,-18509929.656982422,-19039297.103881836,-7601106.643676758,16585733.413696289,17008592.60559082,-14506876.945495605,-5448042.392730713,-11400596.618652344,-18812744.140625,-33949913.024902344,-18105197.90649414,246414.06536102295,15511913.299560547,23676691.05529785,-21115800.857543945,-16340385.437011719,-10396955.490112305,-8355396.270751953,-24362535.47668457,236455017.08984375,-8773907.661437988,15115948.677062988,13996440.887451172,2507167.5777435303,-18390678.40576172,-24469919.204711914,-29471828.46069336,6693412.780761719,-23560087.203979492,-22101140.97595215,15706808.090209961,15627549.171447754,14663396.835327148,-10030488.967895508,-8388668.060302734,-8465854.64477539,-7808309.078216553,15667512.893676758,15473935.1272583,-9199556.350708008,-7810647.964477539,-11584786.415100098
0.345,7582566.738128662,33634277.34375,12710835.456848145,1623686.7904663086,4729950.904846191,-14275284.767150879,-6980006.217956543,-3119183.06350708,-2106883.5258483887,14133371.353149414,-2160197.4964141846,-16772279.739379883,-13578593.254089355,-2834023.7140655518,8938268.661499023,-10139023.780822754,-7997548.1033325195,-6874746.799468994,-11846837.043762207,-14718852.043151855,-20599582.67211914,-21973157.88269043,-12387615.203857422,11889720.916748047,14075823.783874512,-16479146.957397461,-6722031.116485596,-12293612.480163574,-19341682.43408203,-35537311.55395508,-19850803.37524414,-3619448.661804199,11085692.405700684,22582061.767578125,-22890005.111694336,-17593633.6517334,-11123161.315917969,-8178733.825683594,-25752649.307250977,247239974.97558594,-12580544.471740723,10834915.161132812,9591504.096984863,212406.14354610443,-21754928.588867188,-27343599.319458008,-30781433.10546875,5535544.872283936,-25262701.0345459,-25679031.372070312,11143981.93359375,10918929.100036621,10142999.649047852,-14148120.880126953,-12922277.450561523,-13017392.1585083,-12280231.475830078,10948624.610900879,10943418.502807617,-13423237.800598145,-12474856.37664795,-16380023.956298828
0.35,2105186.700820923,29512197.494506836,8695695.877075195,-2010736.4654541016,2609160.1848602295,-19103019.71435547,-10520799.63684082,-5571773.529052734,-4443966.865539551,13420809.745788574,-2819425.106048584,-16713888.168334961,-16424165.725708008,-6854938.03024292,4265867.710113525,-12884195.327758789,-10310500.144958496,-9123453.140258789,-12046694.7555542,-14582736.96899414,-20586215.97290039,-24002662.658691406,-15398405.075073242,7048569.202423096,11768829.345703125,-19239677.42919922,-7869161.605834961,-12457339.2868042,-18847089.767456055,-34990802.76489258,-19698816.299438477,-4827299.59487915,7627205.848693848,22134269.71435547,-25381519.317626953,-18619602.20336914,-11285221.099853516,-8118541.717529297,-24948936.462402344,249228485.10742188,-13886164.665222168,7372263.431549072,6107436.180114746,-2554938.554763794,-24047513.961791992,-27930622.100830078,-30901023.864746094,4943165.7791137695,-24251194.00024414,-26125967.025756836,7508641.242980957,7393841.743469238,6645182.6095581055,-15966996.192932129,-14459520.33996582,-14583561.897277832,-13682334.899902344,7235420.703887939,7407876.491546631,-15325829.50592041,-14130125.045776367,-18111259.46044922
0.355,863089.382648468,29108520.5078125,7586976.051330566,-2518667.221069336,2282413.0058288574,-21375129.69970703,-11927891.731262207,-6157982.82623291,-4944092.750549316,14261454.582214355,-2162357.3303222656,-16286495.208740234,-18656227.111816406,-8740040.77911377,1803214.5500183105,-14445068.359375,-11559692.3828125,-10543165.20690918,-12021641.731262207,-14082993.507385254,-19752473.831176758,-24694227.21862793,-15295072.555541992,4366817.951202393,10188058.853149414,-21301753.997802734,-8617575.645446777,-12500020.027160645,-18816991.806030273,-33993385.314941406,-20903354.64477539,-2906484.842300415,5948138.71383667,21876070.022583008,-26623746.871948242,-19213775.634765625,-11484829.902648926,-8187057.4951171875,-23924228.66821289,244172195.4345703,-14122787.475585938,5524032.5927734375,4251457.691192627,-3976566.5531158447,-24325632.095336914,-27687520.98083496,-31116701.126098633,3852349.9965667725,-24224353.790283203,-25784103.393554688,5742974.758148193,5786064.147949219,4881540.775299072,-16060651.779174805,-14618852.615356445,-14792205.810546875,-13769151.68762207,5421088.218688965,5598304.271697998,-15444326.400756836,-14324359.893798828,-18220180.51147461
0.36,4104826.4503479004,32249973.29711914,10106238.36517334,-301786.0949039459,4025265.693664551,-19975875.854492188,-10771630.28717041,-5247107.028961182,-3997069.5972442627,15712370.872497559,-1087781.7869186401,-15951347.351074219,-17964008.331298828,-6167572.975158691,3528046.3695526123,-13629798.889160156,-11240830.421447754,-10384160.041809082,-12067514.419555664,-14053643.226623535,-19354074.478149414,-23184595.108032227,-11363292.694091797,6029617.3095703125,10642525.672912598,-21172960.28137207,-8945774.07836914,-13010723.114013672,-19572359.085083008,-33523868.560791016,-23262573.2421875,1932478.666305542,7496838.092803955,22831676.483154297,-24764215.46936035,-19403259.27734375,-12113187.789916992,-8060961.723327637,-23924041.748046875,243119369.50683594,-12910698.890686035,7042564.392089844,5636743.068695068,-3106112.7185821533,-23465930.938720703,-28066473.00720215,-31986423.49243164,3066871.166229248,-25616203.30810547,-24912969.5892334,7350468.158721924,7407510.757446289,6372708.797454834,-14994547.843933105,-13533525.466918945,-13691165.924072266,-12663812.637329102,7013073.921203613,7039510.250091553,-14369277.000427246,-13153238.296508789,-16810853.958129883
0.365,8358401.298522949,35965251.92260742,13910931.587219238,1964770.1978683472,6346495.628356934,-15647932.052612305,-8105818.748474121,-4274101.734161377,-2996348.6194610596,16221675.872802734,-426379.82964515686,-14937975.883483887,-14531263.35144043,-267925.9479045868,8308315.277099609,-10605586.051940918,-10217642.784118652,-9385605.812072754,-12400749.206542969,-14344077.110290527,-18979475.021362305,-19663087.844848633,-4669098.377227783,10904524.803161621,13503662.109375,-19439464.569091797,-9174128.532409668,-13638357.162475586,-19970607.75756836,-32687110.900878906,-23510818.481445312,7535054.683685303,12651046.752929688,25870746.612548828,-21087306.97631836,-19211147.30834961,-12753345.489501953,-7614652.633666992,-23806608.200073242,247829284.66796875,-9104332.92388916,12456212.043762207,10880801.2008667,-865393.7578201294,-22369737.62512207,-27940912.2467041,-32336196.899414062,4082639.217376709,-24797708.51135254,-21384550.094604492,12659898.75793457,12681159.973144531,11633816.719055176,-11933695.793151855,-9311774.253845215,-9366360.664367676,-8393130.3024292,12391577.72064209,12294993.40057373,-11289608.001708984,-8766562.461853027,-12177569.389343262
0.37,10297079.086303711,37759654.9987793,15928532.600402832,2278987.6461029053,7415146.350860596,-11580365.180969238,-6283840.656280518,-4486155.986785889,-3158076.763153076,15026504.516601562,-652045.2499389648,-13414093.971252441,-11420138.359069824,4476989.269256592,12099656.105041504,-8072888.374328613,-10159204.483032227,-9336989.402770996,-13494451.522827148,-14979089.736938477,-18645231.246948242,-16996162.41455078,698682.9042434692,14787714.004516602,15910060.88256836,-18539457.321166992,-9868517.875671387,-14241093.635559082,-20090635.299682617,-31775259.017944336,-21645046.23413086,9782152.17590332,17762355.80444336,28867156.982421875,-19276727.6763916,-19234125.1373291,-13365013.122558594,-7428297.996520996,-22949068.069458008,252468460.0830078,-5076769.828796387,17861577.9876709,16228528.97644043,245263.7553215027,-21682544.708251953,-26489782.333374023,-31797763.82446289,6060964.107513428,-21217973.709106445,-16679470.06225586,17929063.79699707,18013681.411743164,16944412.231445312,-7722482.681274414,-3452798.843383789,-3434153.0799865723,-2492266.1781311035,17797950.744628906,17716148.376464844,-7037482.261657715,-2770473.2418060303,-6105051.517486572
0.375,9481889.724731445,37473667.14477539,15075857.162475586,948310.6136322021,6633159.637451172,-11095421.79107666,-7080222.129821777,-6071283.340454102,-4686495.780944824,12600249.290466309,-2120318.4127807617,-13230910.301208496,-11153657.913208008,4641400.8140563965,12230601.31072998,-8654309.272766113,-11807726.860046387,-11067629.81414795,-15700366.020202637,-16682947.158813477,-19834878.92150879,-18121843.338012695,682523.4293937683,14951589.584350586,14786338.806152344,-19850835.8001709,-11146972.65625,-15396342.277526855,-21441352.84423828,-33001285.552978516,-21631757.736206055,6855659.008026123,17810592.651367188,28698562.622070312,-20701028.82385254,-20204801.559448242,-14538938.522338867,-8121297.836303711,-23010787.963867188,257550598.14453125,-5274462.2230529785,17926881.790161133,16317445.755004883,-1162125.9450912476,-22098857.879638672,-25628862.380981445,-31920408.248901367,6408371.448516846,-19810918.8079834,-16058433.532714844,18084638.595581055,18229431.15234375,17064140.31982422,-6100759.029388428,-1551381.8264007568,-1563431.8590164185,-633256.2565803528,18030244.827270508,18008855.81970215,-5327293.872833252,-826085.1502418518,-4342321.872711182
0.38,7765714.645385742,36548007.96508789,13088512.420654297,-150548.97964000702,5263170.24230957,-13720177.65045166,-9201526.641845703,-7572988.510131836,-6165646.076202393,10554017.066955566,-4046849.7276306152,-14627277.374267578,-12709145.545959473,1827056.4079284668,10287858.963012695,-11076444.625854492,-13633640.28930664,-12940217.018127441,-17714723.587036133,-18667434.692382812,-22194499.969482422,-21417034.149169922,-3535285.234451294,13059963.22631836,11782011.985778809,-21687368.392944336,-11989606.857299805,-16592407.2265625,-23303571.701049805,-36030807.49511719,-24281352.996826172,2589525.6996154785,13081780.433654785,26220916.748046875,-22344276.428222656,-21331123.35205078,-15648750.305175781,-9186887.741088867,-24547302.24609375,264948669.43359375,-9647500.038146973,12983429.908752441,11414702.415466309,-3100005.1498413086,-23152318.954467773,-26643243.78967285,-33044986.724853516,4782598.972320557,-23161605.834960938,-20298999.786376953,13415907.859802246,13431950.569152832,12250917.434692383,-8924315.452575684,-5727061.748504639,-5778556.346893311,-4855480.670928955,13293802.261352539,13244820.594787598,-8041822.43347168,-5037605.762481689,-8870219.230651855
0.385,7221280.574798584,36412590.02685547,12768132.209777832,635592.2222137451,5332754.611968994,-15276825.904846191,-9072468.757629395,-6649214.267730713,-5300087.928771973,10832454.681396484,-4019153.594970703,-14383417.129516602,-13141014.099121094,610607.1472167969,9383918.762207031,-11324026.107788086,-13102773.666381836,-12331604.00390625,-16814306.259155273,-17849023.818969727,-21896055.221557617,-21779569.625854492,-6192329.406738281,12215065.002441406,11668034.553527832,-21376604.080200195,-11071902.27508545,-15615798.950195312,-21959089.279174805,-36241653.44238281,-24645950.317382812,2434788.465499878,9610716.819763184,25834035.873413086,-21154829.025268555,-20540082.931518555,-14501140.594482422,-9274996.757507324,-24462535.858154297,263781616.2109375,-12599814.414978027,9361092.567443848,7942134.380340576,-2435950.756072998,-22663835.525512695,-26717748.641967773,-32377326.96533203,4322704.792022705,-25951980.590820312,-22579862.594604492,9960784.912109375,9748362.54119873,8766166.687011719,-12291847.229003906,-10209115.028381348,-10214048.385620117,-9233614.921569824,9741224.28894043,9606416.702270508,-11385267.25769043,-9608138.084411621,-13566246.032714844
0.39,8481497.764587402,37435291.2902832,14982168.197631836,3105867.385864258,7309753.41796875,-13584730.14831543,-5651037.216186523,-2951892.852783203,-1760853.4097671509,13756998.062133789,-679279.4466018677,-10216648.10180664,-11643222.80883789,2642561.674118042,9735720.63446045,-8410699.844360352,-9992380.142211914,-9141797.065734863,-12389892.578125,-13019274.711608887,-16894109.72595215,-17713830.947875977,-4306176.662445068,12518521.308898926,15252482.414245605,-19022773.74267578,-8717451.095581055,-11799108.505249023,-16303030.014038086,-31189792.63305664,-19951021.194458008,6034426.689147949,11181369.78149414,29002487.182617188,-18551895.141601562,-17552581.787109375,-10648480.415344238,-8026515.960693359,-20587533.950805664,243731872.55859375,-10811068.534851074,10977291.107177734,9843260.765075684,535990.1189804077,-19581436.157226562,-22889263.153076172,-28175807.95288086,7143544.673919678,-22663825.98876953,-18150943.756103516,11477432.250976562,11225367.546081543,10522952.07977295,-11243762.969970703,-8725838.661193848,-8681759.83428955,-7547181.606292725,11317402.839660645,11178100.5859375,-10457527.160644531,-8253693.580627441,-11940331.45904541
0.395,10060060.501098633,38616252.89916992,17416471.481323242,4757261.753082275,8954405.784606934,-12038013.458251953,-2971664.1902923584,65227.65010595322,1065014.123916626,16693828.582763672,3283805.8471679688,-5516351.699829102,-10695509.910583496,4666487.693786621,8921811.1038208,-6413650.5126953125,-7486227.035522461,-6729006.290435791,-8161051.7501831055,-8315202.713012695,-11734270.095825195,-14249705.31463623,-1598565.697669983,11593700.408935547,17720058.44116211,-17624824.52392578,-7186911.582946777,-8446881.294250488,-11516819.953918457,-25932643.89038086,-15513414.38293457,7609879.493713379,14241376.876831055,31630994.79675293,-18237768.173217773,-15326826.095581055,-7504862.7853393555,-6800768.852233887,-16724704.74243164,219326492.3095703,-8262887.954711914,14128857.612609863,13155418.395996094,1932544.8274612427,-16630104.064941406,-17972618.103027344,-24073074.340820312,10272023.20098877,-17209175.10986328,-12382803.916931152,14400204.6585083,14368713.37890625,13779339.790344238,-7206974.983215332,-3658055.7823181152,-3688738.1076812744,-2430077.314376831,14443243.026733398,14415401.458740234,-6558750.152587891,-3301592.5884246826,-6545095.443725586
0.4,9506805.419921875,38430400.84838867,17019601.821899414,2891432.762145996,7612833.9767456055,-14913992.881774902,-5435676.574707031,-1578364.1338348389,-668008.2082748413,16309139.251708984,3406123.8765716553,-5937358.856201172,-12844775.199890137,3077525.6156921387,6090737.342834473,-8914834.976196289,-8588608.741760254,-8067214.9658203125,-8418225.288391113,-8995244.979858398,-12674339.294433594,-16340612.411499023,-2902913.3319854736,8845520.973205566,15690200.805664062,-19069797.51586914,-8156525.611877441,-9308051.109313965,-13218427.658081055,-27131462.09716797,-17785160.064697266,4395116.806030273,13427273.750305176,29881547.927856445,-20660043.716430664,-16656480.78918457,-8618809.700012207,-6934322.834014893,-18403486.251831055,217287857.05566406,-10256790.161132812,13284157.752990723,12106355.667114258,-525430.3216934204,-17554315.5670166,-17889236.450195312,-25329084.396362305,8823773.384094238,-18206165.313720703,-13533507.347106934,13412336.349487305,13621696.472167969,12926939.010620117,-6503865.718841553,-2869593.620300293,-3038046.360015869,-1859361.8869781494,13584761.619567871,13662444.114685059,-5810811.996459961,-2556029.3197631836,-5626468.658447266
0.405,6149134.159088135,36591438.29345703,13750758.171081543,-2049081.0871124268,3829356.4319610596,-20850667.95349121,-11615049.362182617,-7103892.803192139,-6111437.797546387,12710311.889648438,-761523.425579071,-11552512.168884277,-17237607.955932617,-1269169.6882247925,3520978.6891937256,-13767866.134643555,-12182004.928588867,-11835430.145263672,-12467532.15789795,-14266276.359558105,-18899528.50341797,-21915397.64404297,-7204040.050506592,6676195.6214904785,12252895.35522461,-21705795.288085938,-10524231.910705566,-13293112.754821777,-19469087.600708008,-33529842.376708984,-24696407.318115234,469929.9931526184,9364294.052124023,25833179.473876953,-22543666.83959961,-20265581.130981445,-12636273.384094238,-7966704.845428467,-24377231.59790039,238320114.1357422,-15499846.458435059,9105216.026306152,7540612.22076416,-4325004.100799561,-21827001.571655273,-23072193.145751953,-31185422.897338867,2905261.754989624,-26092624.66430664,-20684495.92590332,9213787.078857422,9487099.647521973,8625892.639160156,-11174739.837646484,-8424154.281616211,-8623208.999633789,-7690830.230712891,9334181.785583496,9390668.869018555,-10269338.607788086,-8131573.677062988,-11399170.875549316
0.41,2238671.30279541,34509140.01464844,10500945.091247559,-6297113.89541626,953959.2862129211,-24613449.096679688,-15880049.705505371,-11389916.41998291,-10219399.452209473,9650986.671447754,-4836214.542388916,-16607461.929321289,-20641168.59436035,-4630414.4859313965,3411205.053329468,-16189094.543457031,-14481621.742248535,-14111576.080322266,-15475145.33996582,-18158107.75756836,-23575172.424316406,-25144830.70373535,-9713525.772094727,7046104.431152344,12013340.950012207,-22966705.322265625,-11813637.733459473,-15642844.200134277,-23050439.834594727,-37740657.806396484,-28815757.751464844,111221.87972068787,7138820.171356201,24362594.604492188,-21768037.796020508,-22312976.837158203,-14794069.290161133,-8499111.17553711,-27558582.305908203,256089691.16210938,-18370906.829833984,6827638.626098633,5072388.172149658,-5668617.725372314,-24779569.625854492,-27187761.306762695,-35080657.958984375,-1703638.6728286743,-32210067.749023438,-25568666.458129883,6931303.50112915,7154829.502105713,6192158.222198486,-15734898.567199707,-13819268.226623535,-13931591.033935547,-13168984.413146973,6975276.947021484,6894946.575164795,-14696203.231811523,-13643080.711364746,-17146020.889282227
0.415,209172.2935438156,33292385.10131836,8998667.71697998,-7260124.683380127,497796.505689621,-24688409.80529785,-16141716.003417969,-11702249.526977539,-10386474.609375,9441009.521484375,-5802989.0060424805,-17756214.141845703,-21516550.064086914,-5524863.719940186,4858664.512634277,-15707378.387451172,-14361371.994018555,-13807894.706726074,-15207855.224609375,-17994850.158691406,-23837863.92211914,-24854091.64428711,-9158662.796020508,8728157.997131348,13838702.201843262,-23135925.29296875,-11579119.682312012,-14554871.559143066,-21540958.404541016,-37172996.520996094,-28474842.071533203,1267661.0946655273,8451716.423034668,26108055.114746094,-20097126.007080078,-21542772.29309082,-13502131.462097168,-8324385.643005371,-25237869.262695312,258293395.99609375,-17455129.623413086,8204627.990722656,6488209.7244262695,-4480267.524719238,-23746698.3795166,-25827026.3671875,-33465171.813964844,-966727.4355888367,-31603208.541870117,-25076465.606689453,8257866.859436035,8437754.63104248,7442423.8204956055,-14986202.239990234,-13482637.405395508,-13561847.686767578,-12761628.150939941,8367894.172668457,8153143.882751465,-14024274.826049805,-13497868.537902832,-17015367.50793457
0.42,-285994.64893341064,32378440.856933594,7945410.72845459,-6799081.325531006,142626.8219947815,-24710998.53515625,-16063199.996948242,-11060828.20892334,-9693552.017211914,9791464.805603027,-5938024.044036865,-17958345.413208008,-21479005.813598633,-5891689.300537109,5335669.51751709,-16270753.860473633,-14632056.23626709,-13859929.084777832,-14666332.244873047,-17549184.799194336,-24063079.833984375,-25094161.987304688,-8772232.055664062,9152781.48651123,12863099.098205566,-24465454.1015625,-11808834.075927734,-13322245.597839355,-20050310.134887695,-36873962.40234375,-28982290.267944336,-490920.5138683319,9995695.114135742,27361673.35510254,-20136373.51989746,-20528942.108154297,-12210021.97265625,-8469603.538513184,-22803115.844726562,260958160.40039062,-16897893.90563965,9848160.743713379,8130217.552185059,-3606993.1983947754,-21305967.330932617,-22112993.240356445,-30293272.018432617,2161867.380142212,-29286127.0904541,-24404199.600219727,9869053.840637207,9989618.301391602,9024347.305297852,-10961376.190185547,-9761048.316955566,-9942984.580993652,-9052991.86706543,10099033.35571289,9876189.231872559,-10113420.486450195,-9846918.106079102,-13290600.776672363
0.425,-1046901.4644622803,31170045.852661133,6205072.87979126,-8129914.283752441,-2133963.108062744,-26878713.607788086,-18521932.60192871,-13006108.283996582,-11682453.155517578,7648519.039154053,-8334395.408630371,-20225610.733032227,-22195718.76525879,-7095047.950744629,4111794.4717407227,-19652790.069580078,-17261323.928833008,-16340761.184692383,-16774614.334106445,-20156486.51123047,-27460651.397705078,-27626264.572143555,-10173807.144165039,7770730.018615723,8387173.652648926,-27204185.485839844,-13645956.039428711,-14784670.82977295,-22633790.969848633,-40091762.54272461,-32594001.77001953,-4251368.522644043,9544277.19116211,26232475.28076172,-21587015.15197754,-21345203.399658203,-13745549.201965332,-9278645.515441895,-24912218.09387207,273468658.4472656,-19238864.89868164,9447933.197021484,7644110.679626465,-4080684.185028076,-20885328.29284668,-21037027.35900879,-30514881.134033203,2378862.3809814453,-30827779.76989746,-27047962.188720703,9537687.301635742,9558178.901672363,8691478.729248047,-8933605.194091797,-7916079.521179199,-8196151.7333984375,-7354851.245880127,9744401.931762695,9673902.51159668,-8049057.960510254,-7836650.848388672,-11325811.386108398
0.43,-1613386.7502212524,31137332.916259766,5703275.680541992,-10514023.780822754,-4070022.5830078125,-28396482.467651367,-20786569.595336914,-15742527.961730957,-14546590.805053711,4376526.832580566,-11188777.923583984,-21869894.02770996,-22498380.661010742,-7323732.376098633,2647198.6770629883,-22638927.459716797,-19870868.682861328,-18910505.294799805,-19543207.1685791,-22984006.881713867,-30028797.149658203,-28784526.824951172,-10563838.005065918,6135817.527770996,5096550.464630127,-28789371.490478516,-15300645.82824707,-16828800.201416016,-25896743.774414062,-42257575.98876953,-34170333.86230469,-4849728.584289551,9180398.941040039,25110418.31970215,-22063350.677490234,-22388223.64807129,-15911549.56817627,-9755259.51385498,-28071268.08166504,277614135.7421875,-21409381.866455078,9087698.936462402,7376108.646392822,-3923916.3398742676,-21650350.57067871,-21912183.76159668,-32698715.209960938,-265238.6724948883,-33239261.627197266,-28858163.833618164,9345413.208007812,9342541.694641113,8553940.773010254,-9526471.138000488,-8294855.117797852,-8505764.00756836,-7776984.691619873,9390146.255493164,9522349.35760498,-8553382.873535156,-7944454.669952393,-11522999.76348877
0.435,670140.9220695496,34360446.92993164,8825552.940368652,-9840614.318847656,-2041316.270828247,-26411169.052124023,-18852769.85168457,-14697210.311889648,-13656589.50805664,4171302.318572998,-10153890.609741211,-18820995.330810547,-20267606.735229492,-4373799.800872803,2202718.0194854736,-21970277.786254883,-18945407.86743164,-17996133.80432129,-19069969.177246094,-21500312.80517578,-26841073.989868164,-25532779.693603516,-7509551.048278809,5479266.64352417,6160535.3355407715,-27338167.190551758,-14324174.880981445,-15766190.528869629,-24377195.358276367,-38212684.631347656,-29553791.046142578,-690238.7738227844,10983707.427978516,26371873.85559082,-20438970.5657959,-20984043.12133789,-14945527.076721191,-9141525.268554688,-26188255.310058594,259010925.29296875,-19395286.560058594,10890336.990356445,9506535.530090332,-1717800.8556365967,-20330587.38708496,-20376857.75756836,-31723337.173461914,-836158.7524414062,-30383773.803710938,-25204624.17602539,11322258.949279785,11463000.297546387,10599335.670471191,-9017000.198364258,-7393459.320068359,-7411751.270294189,-6628299.713134766,11258152.00805664,11464670.181274414,-8106912.612915039,-6863211.631774902,-10394401.550292969
0.44,6008795.261383057,39746440.88745117,13910103.797912598,-4996811.866760254,2935698.5092163086,-23016429.901123047,-14105089.18762207,-9779134.750366211,-8813487.05291748,7652325.15335083,-5399569.511413574,-12943870.544433594,-16234678.268432617,474838.0780220032,2348651.40914917,-19165010.452270508,-15161974.906921387,-14165771.484375,-15597718.238830566,-16886772.15576172,-20469449.996948242,-20733385.08605957,-3229379.177093506,5435004.711151123,8969901.084899902,-24358657.836914062,-11194350.242614746,-12160405.158996582,-19017057.418823242,-30957723.61755371,-22786359.786987305,4001454.8301696777,12832521.438598633,28491889.95361328,-18148345.947265625,-17729625.701904297,-11354731.559753418,-8089894.2947387695,-20074823.3795166,236316070.55664062,-13883031.845092773,12742996.215820312,11591121.673583984,866584.7182273865,-16832626.342773438,-15874662.399291992,-26838838.577270508,2791906.3568115234,-23312976.837158203,-18782381.057739258,13244051.933288574,13569558.143615723,12510495.18585205,-6265022.277832031,-4540170.192718506,-4428525.924682617,-3385322.8092193604,13216730.117797852,13317907.333374023,-5541787.624359131,-3956605.6728363037,-7347363.9488220215
0.445,10242511.749267578,43035240.173339844,16446212.768554688,-450039.3569469452,5636629.581451416,-22169998.168945312,-11779886.245727539,-6048819.541931152,-5044177.055358887,10527121.543884277,-2144757.032394409,-10151385.307312012,-13545924.186706543,3509531.9747924805,1921458.8403701782,-18074563.98010254,-12744668.960571289,-11627470.970153809,-13147906.303405762,-14468037.605285645,-17725477.21862793,-19273458.48083496,-1575530.5290222168,4984788.89465332,9355170.249938965,-22857206.344604492,-8967707.633972168,-10023576.736450195,-15703945.15991211,-27765058.517456055,-20499965.66772461,5314027.309417725,11390434.265136719,28290117.263793945,-17443624.49645996,-15968059.539794922,-9144600.868225098,-7577455.520629883,-15974764.823913574,234579727.17285156,-8958950.996398926,11285611.152648926,10049152.374267578,1249918.9376831055,-14766208.64868164,-12542384.147644043,-22635040.283203125,6719441.4138793945,-18821279.525756836,-15584433.555603027,11700698.852539062,12068393.70727539,10908622.741699219,-4613572.597503662,-2894201.7555236816,-2799904.1080474854,-1517069.697380066,11748847.961425781,11731960.29663086,-4007168.769836426,-2312693.3574676514,-5632570.266723633
0.45,9648680.686950684,41762886.04736328,14976940.155029297,-587111.3538742065,3643761.396408081,-23953861.236572266,-13713695.526123047,-6734354.019165039,-5687520.980834961,9661710.739135742,-3472264.051437378,-11992035.865783691,-13317846.298217773,3186023.235321045,496529.07252311707,-19543453.216552734,-13754082.679748535,-12576459.884643555,-13616734.504699707,-15887684.82208252,-19908096.313476562,-21423334.1217041,-2833541.15486145,3669448.3757019043,7026794.43359375,-23680950.164794922,-9308691.024780273,-10957118.98803711,-16819587.70751953,-29978305.81665039,-22793544.76928711,3870485.305786133,7256189.346313477,25299074.172973633,-18986394.88220215,-17215074.53918457,-9973157.88269043,-7473189.353942871,-16348497.39074707,246924209.59472656,-7270186.901092529,7116898.536682129,5715568.542480469,-624075.5319595337,-16195142.74597168,-12856327.056884766,-22254304.885864258,6719632.625579834,-19609802.24609375,-16624443.054199219,7351148.60534668,7640298.366546631,6598416.805267334,-6341063.499450684,-4155958.652496338,-4126425.266265869,-2818438.0531311035,7407260.894775391,7443201.065063477,-5728791.236877441,-3623757.1239471436,-6927271.842956543
0.455,6011514.186859131,38532871.24633789,12984290.12298584,-3824537.0388031006,580778.6583900452,-25253412.2467041,-16311521.530151367,-9154560.089111328,-8174290.657043457,7319995.880126953,-6345114.231109619,-13907140.731811523,-13301419.258117676,1631367.0873641968,-1424994.4686889648,-21108364.10522461,-15706957.817077637,-14642256.736755371,-14603074.073791504,-17367940.90270996,-21831918.716430664,-23486803.05480957,-4263462.543487549,1731421.4706420898,4601698.398590088,-25002828.59802246,-10518079.75769043,-12324485.778808594,-18796571.731567383,-32262981.414794922,-24597181.32019043,1753450.7513046265,4290312.29019165,22060119.62890625,-21156093.59741211,-19195302.963256836,-11264049.530029297,-7047242.641448975,-17525299.072265625,248485839.84375,-8382648.468017578,4132763.8626098633,2783808.708190918,-2355942.0108795166,-18656066.89453125,-14377395.629882812,-23640024.185180664,3899486.303329468,-21768491.744995117,-18208864.212036133,4226636.88659668,4471188.068389893,3646637.6781463623,-9046663.284301758,-6169364.929199219,-6135841.369628906,-4957837.5816345215,4257700.9201049805,4462038.516998291,-8407334.327697754,-5761043.071746826,-8971290.588378906
0.46,4433996.200561523,37822223.66333008,13981586.456298828,-5039854.049682617,887874.6628761292,-24791114.807128906,-16087167.739868164,-9184397.69744873,-8327377.3193359375,7373278.1410217285,-6418601.512908936,-12319636.344909668,-11757144.927978516,1309305.9062957764,-2920635.70022583,-21047866.821289062,-15613739.967346191,-14740815.162658691,-13745627.403259277,-16045614.242553711,-20229305.267333984,-23453008.6517334,-4565073.013305664,-63033.69998931885,3354806.661605835,-25117050.170898438,-10285556.79321289,-11706170.082092285,-18214010.23864746,-31264099.12109375,-23833522.79663086,-1020961.5230560303,4456459.045410156,20814849.853515625,-21668661.11755371,-19198738.09814453,-10605273.246765137,-6417104.244232178,-16479824.06616211,238124542.23632812,-10462414.741516113,4305056.571960449,3106685.4000091553,-2232464.075088501,-18861267.08984375,-14015604.972839355,-23615371.704101562,2437643.051147461,-21868005.752563477,-18303871.154785156,4374689.57901001,4645267.486572266,3964777.946472168,-9374560.356140137,-6481155.3955078125,-6404888.153076172,-5308702.9457092285,4422813.892364502,4690711.975097656,-8711939.811706543,-6208089.828491211,-9292828.559875488
0.465,6546106.338500977,40361156.46362305,16892742.156982422,-2858861.9232177734,3788347.7210998535,-24450862.884521484,-14234375.0,-7171397.686004639,-6361191.272735596,9413233.757019043,-4142348.7663269043,-9469769.477844238,-10422286.033630371,1798212.2898101807,-3327116.7278289795,-20298131.942749023,-14141497.611999512,-13344121.932983398,-12407806.396484375,-14084755.897521973,-18041063.30871582,-22607498.168945312,-5154742.240905762,-886363.8043403625,2492154.121398926,-24465677.26135254,-9032025.337219238,-10304779.052734375,-16319190.979003906,-29766101.837158203,-23197456.35986328,-4795730.5908203125,5849802.494049072,21462787.628173828,-20025892.25769043,-17660182.95288086,-9192837.715148926,-6458064.556121826,-14861235.618591309,237541290.28320312,-11745946.884155273,5689291.954040527,4425228.118896484,-1070254.0874481201,-17149085.998535156,-12241396.9039917,-22350002.28881836,3885294.198989868,-21205171.585083008,-18214879.989624023,5776412.010192871,6056847.57232666,5437572.956085205,-7578869.342803955,-5536795.139312744,-5490630.626678467,-4305936.813354492,5875545.978546143,6030626.7738342285,-6846508.979797363,-5315675.735473633,-8424452.781677246
0.47,8683369.636535645,42692829.13208008,18130071.64001465,-1270696.997642517,4997818.946838379,-25818767.547607422,-14175014.49584961,-6835177.421569824,-5978678.7033081055,9623638.153076172,-3396763.0863189697,-9317140.579223633,-11647131.91986084,1114059.2098236084,-2892817.0204162598,-20265716.552734375,-14050209.045410156,-13194538.116455078,-13248991.012573242,-14768412.590026855,-18905254.364013672,-21950555.8013916,-7078198.432922363,-740196.5856552124,1586019.1583633423,-24513618.46923828,-9032326.698303223,-10504620.552062988,-15975338.93585205,-31090095.52001953,-24335716.247558594,-7817512.989044189,5911851.406097412,22561439.514160156,-18154417.037963867,-17059818.267822266,-9442686.080932617,-7359081.745147705,-14888640.403747559,251726455.68847656,-11211528.778076172,5703706.741333008,4180858.612060547,-859233.3197593689,-16369989.395141602,-11352131.843566895,-21869029.998779297,6264624.59564209,-21863893.508911133,-18777372.360229492,5737782.955169678,5988788.12789917,5426349.16305542,-6287146.56829834,-5100609.302520752,-5168655.3955078125,-3760758.638381958,5866034.984588623,5887270.927429199,-5504327.774047852,-4879615.306854248,-8133507.72857666
0.475,7324887.275695801,42105846.4050293,16739608.764648438,-3649822.235107422,2942431.926727295,-28129205.70373535,-16677282.333374023,-9669591.903686523,-8775770.18737793,6622135.162353516,-5595082.759857178,-11709192.276000977,-14397519.1116333,-1000305.0565719604,-2965067.148208618,-20828296.661376953,-15936829.566955566,-15070509.910583496,-15941367.149353027,-17423707.962036133,-21531293.869018555,-20516530.990600586,-9050362.586975098,-989218.8310623169,1139688.1341934204,-25535417.556762695,-10917337.417602539,-12047914.505004883,-17074113.845825195,-33735668.18237305,-25022993.087768555,-8276765.823364258,4512095.4513549805,23121435.165405273,-18222141.26586914,-18155246.73461914,-11118308.067321777,-8167181.968688965,-15316044.807434082,257822235.10742188,-9388395.309448242,4258059.501647949,2628961.8015289307,-2321029.9015045166,-17499593.73474121,-11723294.258117676,-22396738.052368164,7616674.900054932,-22798433.303833008,-18881795.88317871,4203404.903411865,4434812.545776367,3927477.5981903076,-6550230.026245117,-5617460.250854492,-5769966.602325439,-4127286.434173584,4316349.029541016,4314871.788024902,-5863127.708435059,-5454704.761505127,-8671753.883361816
0.48,3746283.2927703857,39837287.90283203,15106335.639953613,-8041059.494018555,381421.834230423,-30025638.580322266,-19429037.09411621,-13181832.313537598,-12303737.64038086,3407166.9578552246,-8103992.462158203,-13349689.483642578,-15641259.19342041,-2831662.178039551,-4861315.727233887,-21191593.170166016,-17733526.2298584,-16997245.78857422,-17587566.375732422,-18797872.54333496,-22326406.478881836,-18144298.553466797,-9449655.532836914,-3159477.710723877,871354.8183441162,-26456718.44482422,-12884492.874145508,-12782304.763793945,-17443546.295166016,-34318717.95654297,-23422973.6328125,-7277042.865753174,3070492.744445801,23139469.146728516,-20123989.10522461,-19213191.986083984,-12005820.274353027,-8078743.934631348,-14149054.527282715,240995483.3984375,-8315280.914306641,2806090.831756592,1390584.7072601318,-4341657.1617126465,-18766786.575317383,-12163185.119628906,-22712762.8326416,7670256.1378479,-22409997.940063477,-18373144.149780273,2786565.5422210693,2985199.451446533,2487366.9147491455,-7480877.876281738,-6737033.367156982,-6876043.796539307,-5103976.726531982,2848707.914352417,2874793.529510498,-6981886.863708496,-6688320.159912109,-9528772.354125977
0.485,1566499.7100830078,38494159.69848633,14859115.600585938,-10122587.203979492,-94291.17292165756,-31370725.631713867,-20558803.55834961,-14633316.993713379,-13753914.833068848,2990729.808807373,-8454006.19506836,-13010483.741760254,-15005348.205566406,-3673291.9216156006,-8224941.253662109,-21364669.799804688,-18081140.518188477,-17473688.12561035,-16809570.3125,-17937095.642089844,-21073884.963989258,-17294807.43408203,-8974497.79510498,-6921203.136444092,-448741.76383018494,-26701753.616333008,-13575946.807861328,-12237120.628356934,-16733980.178833008,-33080699.920654297,-21625291.82434082,-7468749.523162842,2159410.7151031494,23027643.20373535,-21896610.260009766,-19004379.272460938,-11539595.603942871,-7518666.2673950195,-12559069.633483887,218908569.3359375,-9638957.023620605,1875330.4481506348,763137.16173172,-5530023.574829102,-18934583.66394043,-12629711.151123047,-22902503.967285156,6540707.588195801,-21937654.495239258,-19147741.317749023,2050521.3737487793,2149936.4376068115,1621272.4447250366,-8607339.859008789,-8698210.716247559,-8796416.282653809,-7042352.199554443,2039979.2194366455,2045740.3659820557,-8197950.36315918,-8704284.66796875,-11124687.194824219
0.49,1657385.4684829712,38297782.89794922,14672476.768493652,-8808194.160461426,686251.699924469,-32522605.895996094,-20427909.85107422,-14019770.622253418,-13078942.29888916,4767965.316772461,-7333623.886108398,-12712325.096130371,-15265754.699707031,-5225247.859954834,-11077611.923217773,-21674524.307250977,-17845897.674560547,-17212732.315063477,-15120489.120483398,-16876617.431640625,-20689338.68408203,-20260824.20349121,-10114194.869995117,-10056569.09942627,-2859050.750732422,-26943675.994873047,-13793798.446655273,-12048020.362854004,-16671905.517578125,-33190914.154052734,-22875003.814697266,-9476469.993591309,1208977.8184890747,22994951.248168945,-22282155.990600586,-18545269.012451172,-11349502.563476562,-7396079.063415527,-13073044.776916504,216491134.6435547,-12975497.245788574,844015.7771110535,-179027.64678001404,-5647210.597991943,-19058605.194091797,-14031221.389770508,-24156646.728515625,4313601.493835449,-23512327.194213867,-22257873.53515625,1175320.5060958862,1199278.2354354858,613504.6482086182,-10222436.904907227,-11559342.384338379,-11663777.351379395,-10032473.56414795,1100299.9544143677,1078294.277191162,-9775504.112243652,-11528311.729431152,-13926395.416259766
0.495,1972532.5107574463,37709033.96606445,13087690.353393555,-6645539.283752441,758649.7068405151,-33224231.719970703,-19974769.592285156,-12712558.74633789,-11725762.367248535,6444489.479064941,-6510100.841522217,-13888311.386108398,-17862684.24987793,-8959028.244018555,-11939976.692199707,-21663595.19958496,-17889896.392822266,-17140989.303588867,-14087606.430053711,-16908193.588256836,-22277521.13342285,-25708065.032958984,-14023058.891296387,-10913005.828857422,-4584857.46383667,-27688772.201538086,-14588084.22088623,-12953633.308410645,-17860326.766967773,-35546398.1628418,-27078809.73815918,-11653626.441955566,-238971.85921669006,22798379.89807129,-22004482.26928711,-19127935.4095459,-12262010.57434082,-7737297.058105469,-15419106.483459473,230710815.4296875,-16626970.291137695,-696784.0194702148,-1880709.171295166,-5564008.712768555,-20450139.99938965,-15907194.137573242,-26250205.993652344,2022622.3468780518,-26598398.208618164,-26102752.685546875,-437503.48687171936,-326168.2093143463,-1001125.0972747803,-11966026.306152344,-14177092.552185059,-14282951.354980469,-12818047.523498535,-534239.5901679993,-509044.0511703491,-11510815.620422363,-14112260.818481445,-16902088.165283203
