time,Fp1,Fpz,Fp2,AF3,AF4,F7,F5,F3,F1,Fz,F2,F4,F6,F8,FT7,FC5,FC3,FC1,FCz,FC2,FC4,FC6,FT8,T7,C5,C3,C1,Cz,C2,C4,C6,T8,TP7,CP5,CP3,CP1,CPz,CP2,CP4,CP6,TP8,P7,P5,P3,P1,Pz,P2,P4,P6,P8,PO7,PO5,PO3,POz,PO4,PO6,PO8,CB1,O1,Oz,O2,CB2
0.0,-135047.16753959656,762818.3960914612,1331924.4384765625,28339.102864265442,790182.2328567505,1360153.9134979248,134526.84879302979,142749.19033050537,252359.86709594727,403605.28230667114,885255.5751800537,1391512.9899978638,3110301.2561798096,8974177.360534668,788301.1102676392,76888.81456851959,267759.5615386963,196841.37403964996,328470.1704978943,615574.061870575,1763635.3969573975,2568978.786468506,4995755.672454834,793842.4944877625,1468.050410039723,625273.585319519,323217.5409793854,1875170.8269119263,1266312.0031356812,538017.213344574,1684930.5629730225,4455683.708190918,283364.32576179504,429593.65248680115,437510.31160354614,1135750.2937316895,1538668.5132980347,214035.83884239197,610510.528087616,639660.4180335999,1619901.7763137817,292631.50691986084,261503.36861610413,452146.5301513672,1075017.2138214111,578783.392906189,974186.8376731873,353383.332490921,32353.363931179047,-81703.0593752861,818031.7282676697,774856.9846153259,800220.5491065979,625180.8404922485,215974.92694854736,-215665.8172607422,-514965.7726287842,802462.1605873108,851415.9917831421,1263371.467590332,204635.72442531586,86774.01393651962
0.005,15463653.564453125,13528091.430664062,16963821.411132812,7882750.511169434,13778432.846069336,1930374.1455078125,4344731.80770874,5004343.509674072,7025127.88772583,6857882.499694824,7781123.161315918,4635697.841644287,2767857.313156128,-2138859.510421753,4131083.9653015137,2400336.0271453857,4345149.993896484,6420004.367828369,1489875.5550384521,3330561.637878418,2526239.1567230225,2765487.1940612793,-4008444.7860717773,5205291.271209717,4594135.284423828,5019420.146942139,-226196.45297527313,14502549.171447754,3851838.3502960205,-3231708.765029907,-5494772.911071777,-6608197.6890563965,8356061.935424805,3479415.17829895,3330161.0946655273,2876243.829727173,6142568.588256836,4222921.371459961,-3514765.739440918,-5595029.354095459,-1746965.765953064,8343684.196472168,7844967.365264893,3328159.809112549,3636669.158935547,71604.76595163345,3153639.078140259,-2161830.6636810303,-4819029.808044434,-7747193.813323975,12412366.86706543,11417933.464050293,11867783.546447754,4780281.543731689,722934.5440864563,-1964283.7047576904,-3419727.563858032,12288002.014160156,12876332.28302002,11812913.89465332,8680691.719055176,11883442.878723145
0.01,21519586.56311035,17386386.87133789,21749586.10534668,11618336.67755127,17515649.795532227,2907602.310180664,6915330.88684082,7862962.245941162,10717096.328735352,8094583.511352539,9227918.62487793,2841934.9193573,-3453824.043273926,-19836235.04638672,6268953.800201416,4741812.229156494,7226423.740386963,9647934.913635254,692024.5289802551,2590023.2791900635,-135589.92743492126,-3766077.995300293,-17904987.335205078,8175810.813903809,8922767.639160156,9320387.840270996,1287491.3215637207,18353942.87109375,2050412.4164581299,-7993415.832519531,-14323679.92401123,-21632783.889770508,12316666.603088379,6501307.487487793,6365028.381347656,4888093.4715271,8093726.15814209,3558659.553527832,-9126380.920410156,-13281940.460205078,-13029493.33190918,12324905.395507812,11532921.79107666,6412316.799163818,5765005.588531494,206846.52030467987,1596341.848373413,-6932396.88873291,-12954105.377197266,-19485055.923461914,15274496.078491211,14038310.050964355,14493371.963500977,4876495.361328125,-3203926.3248443604,-7952396.392822266,-10346043.586730957,15129949.569702148,15845320.701599121,13924658.77532959,9632380.485534668,17466995.239257812
0.015,18304134.368896484,14143297.19543457,17829637.52746582,10611733.436584473,13497126.579284668,4078011.5127563477,6991588.115692139,7835965.633392334,10494336.128234863,5086493.968963623,6419280.052185059,-1541902.8997421265,-10466233.253479004,-31620651.245117188,7044697.284698486,5921838.760375977,7879849.433898926,9221919.059753418,-1234278.917312622,-367442.7568912506,-3985642.671585083,-11657349.586486816,-27739784.240722656,9326153.755187988,11304996.490478516,11963131.90460205,3658924.8180389404,15208764.07623291,-2057906.150817871,-11607201.57623291,-20179330.825805664,-31596769.332885742,12220428.466796875,8381385.803222656,8365118.980407715,6354732.990264893,7639115.810394287,-249909.8926782608,-13643623.352050781,-18821002.960205078,-24545511.24572754,12292777.061462402,11364743.23272705,8462997.436523438,7129778.3851623535,730036.6163253784,-2087512.731552124,-11522753.715515137,-20160160.064697266,-29819446.563720703,11778479.57611084,10876117.706298828,11012729.64477539,2409268.379211426,-8506375.312805176,-14496165.27557373,-17093341.827392578,11687797.546386719,12177852.630615234,10129629.135131836,5049649.715423584,16207998.275756836
0.02,13754631.042480469,12312484.741210938,16096837.997436523,7655968.189239502,11109358.787536621,5078741.073608398,5203754.425048828,5807058.811187744,8169905.662536621,3350040.1973724365,5350507.736206055,-1370269.6561813354,-7378112.316131592,-17961164.474487305,7104313.850402832,4843213.5581970215,6383912.086486816,7002119.541168213,-1523525.2380371094,-1244977.1165847778,-3678766.4890289307,-9614538.192749023,-19905630.111694336,9250028.610229492,10194614.41040039,11369482.99407959,4228521.823883057,13541435.241699219,-2855728.6262512207,-11004818.9163208,-16911237.716674805,-23929668.426513672,11048655.50994873,7935989.856719971,7964343.547821045,6222180.366516113,6918622.016906738,-2351559.87739563,-13233067.512512207,-17393316.2689209,-22466396.33178711,11224474.906921387,10167463.302612305,8028996.467590332,7321792.6025390625,535021.185874939,-3498763.084411621,-11687951.08795166,-19617233.276367188,-30203029.63256836,10515407.56225586,9864677.429199219,9779193.878173828,1887596.4879989624,-8829210.28137207,-14472145.080566406,-16159301.7578125,10472237.586975098,10787674.903869629,9489661.21673584,3280180.9310913086,13534729.957580566
0.025,12884466.171264648,15066972.732543945,21479528.427124023,5596704.959869385,15576037.406921387,5238838.672637939,3051716.3276672363,3492772.102355957,6119843.482971191,5739523.887634277,9058139.80102539,5761259.078979492,7528392.791748047,18621526.71813965,6418287.27722168,2020446.77734375,4062791.347503662,5118943.691253662,861722.2905158997,1515274.4054794312,1940524.935722351,3507110.834121704,3296907.424926758,8209012.985229492,6426321.506500244,8177474.021911621,2602587.4614715576,16720123.291015625,874356.746673584,-6788946.628570557,-6433102.607727051,-2219734.6687316895,10190636.63482666,5535957.813262939,5496052.265167236,4665883.0642700195,6901771.068572998,-1554029.941558838,-8607722.282409668,-10560307.502746582,-7862229.824066162,10512289.047241211,9278890.609741211,5494280.815124512,6006662.845611572,-1209332.823753357,-1939026.3557434082,-7814774.036407471,-12592171.669006348,-22550132.751464844,13330916.404724121,12587496.757507324,12554133.415222168,4015780.9257507324,-4407478.809356689,-8300006.866455078,-8527099.609375,13289795.875549316,13706707.954406738,14185087.203979492,7034052.37197876,14287707.328796387
0.03,12951844.215393066,17520471.572875977,28113428.115844727,4705915.927886963,22558694.83947754,2192907.5717926025,1159116.506576538,1534822.1063613892,4826965.808868408,9156403.541564941,14105992.317199707,14027799.606323242,22250663.75732422,47447948.45581055,3428697.5860595703,-1382301.5689849854,1916045.4273223877,3795639.0380859375,3520612.2398376465,4739859.580993652,8057428.359985352,15504267.692565918,21464761.73400879,5219366.550445557,2480143.3086395264,4652209.758758545,574165.403842926,20067468.643188477,4473272.323608398,-3114621.877670288,1502603.530883789,13084724.426269531,8243376.731872559,2823897.361755371,2715083.8375091553,2861064.672470093,6704756.736755371,-828585.0882530212,-4840036.392211914,-5645000.93460083,2392589.330673218,8696666.717529297,7365900.039672852,2719532.9666137695,3608179.0924072266,-3875974.655151367,-1106068.1343078613,-5062113.7619018555,-8452592.849731445,-18555912.017822266,13746358.871459961,12870237.350463867,12969507.217407227,4756309.509277344,-2459083.080291748,-4862391.948699951,-4495413.780212402,13690658.569335938,14306070.327758789,16539499.282836914,9492059.707641602,16326637.268066406
0.035,9520151.138305664,15289589.881896973,28888849.25842285,3491410.493850708,24759145.736694336,-6768052.101135254,-1172863.1258010864,-825427.9494285583,2998937.1299743652,9008669.85321045,15164810.180664062,16061923.98071289,23790311.813354492,39970172.88208008,-3007472.038269043,-5014767.646789551,-388350.5165576935,1827866.6734695435,3345103.0254364014,4804022.789001465,9767876.625061035,15179682.731628418,18028583.526611328,-431105.5839061737,-72737.00088262558,2239392.9958343506,-737042.1290397644,19091669.0826416,3928721.4279174805,-2714887.857437134,310170.32265663147,7155902.862548828,4569187.164306641,1071183.8006973267,936166.7633056641,1622944.712638855,5721112.7281188965,-1819220.1852798462,-5088560.581207275,-6762770.175933838,-2794310.0929260254,5027276.039123535,3799185.9912872314,995453.1192779541,1531617.1646118164,-5453692.436218262,-3111135.721206665,-6490951.5380859375,-12542706.489562988,-24082130.432128906,8326395.034790039,7499944.21005249,7631196.022033691,1835536.7183685303,-6686002.254486084,-9577347.755432129,-10336261.749267578,8288790.702819824,8919571.876525879,11051308.631896973,5103156.089782715,14301481.246948242
0.04,3693254.9476623535,10440733.909606934,24420148.849487305,1266214.370727539,20623704.91027832,-19833419.799804688,-4254227.638244629,-3886509.418487549,38966.864347457886,5096663.951873779,11317896.842956543,11117381.09588623,12602228.164672852,2242949.2473602295,-10724482.536315918,-8587943.077087402,-3218108.1771850586,-1097205.1620483398,362624.55582618713,2182111.0248565674,7524701.118469238,5185539.245605469,-965934.9918365479,-6772143.840789795,-1310986.9956970215,846803.1287193298,-1603310.5850219727,15712233.543395996,803696.6323852539,-3949113.8458251953,-6092315.196990967,-11945409.774780273,1674472.689628601,449116.40882492065,241251.54316425323,991907.9542160034,4915851.11618042,-2622804.1648864746,-7012784.957885742,-9907786.36932373,-15043980.598449707,1991575.3602981567,987559.6165657043,289685.30893325806,997105.1812171936,-4387337.207794189,-5084082.60345459,-9010617.25616455,-18893850.326538086,-30982839.584350586,2867730.140686035,2080457.9257965088,2210000.2765655518,-1294967.8897857666,-11415646.55303955,-16366384.506225586,-19009788.513183594,2920634.7465515137,3364346.742630005,3563071.4893341064,-565033.3166122437,9300242.42401123
0.045,666209.1612815857,7603153.705596924,20441343.307495117,-810038.5665893555,14976829.528808594,-28814203.2623291,-6653818.130493164,-6168632.030487061,-2505784.034729004,1460535.2878570557,6600131.988525391,5133101.940155029,1411434.531211853,-29605636.596679688,-14600283.6227417,-10455167.770385742,-5386706.829071045,-3415638.6852264404,-2313496.3512420654,267378.568649292,5538578.510284424,-2450092.554092407,-14530312.538146973,-9526051.52130127,-1442821.741104126,326680.36222457886,-1973632.2164535522,14696847.915649414,-655821.8002319336,-3742502.450942993,-9112279.891967773,-23254484.176635742,2358732.7003479004,676420.0329780579,310970.9918498993,964271.2473869324,5529643.535614014,-1502318.1438446045,-6653564.453125,-9146058.082580566,-19054803.8482666,2524343.252182007,1671600.4610061646,281242.0129776001,1773525.4764556885,-1483720.5410003662,-3554313.898086548,-8115629.196166992,-18764493.942260742,-29026533.126831055,3987487.554550171,3054499.626159668,3254814.863204956,-371553.57003211975,-9820549.011230469,-16025035.858154297,-19297203.063964844,4208033.561706543,4482163.906097412,3455558.0615997314,1629352.5695800781,8756653.785705566
0.05,3015727.758407593,8271533.966064453,20159286.499023438,-1042240.2620315552,13006510.734558105,-25762390.13671875,-6496618.747711182,-5830461.502075195,-2536751.0318756104,1313598.1559753418,5245522.975921631,3795501.470565796,758223.9508628845,-26919437.408447266,-11209788.32244873,-8817636.489868164,-5083942.413330078,-3326714.9925231934,-2204446.0773468018,748706.042766571,6365004.062652588,-707303.4048080444,-10442154.884338379,-6133343.21975708,-111947.80468940735,1174121.1414337158,-1161271.6913223267,17363803.86352539,871444.5233345032,-1856377.2439956665,-6093098.163604736,-16966566.08581543,5668580.055236816,1492552.638053894,1013514.1611099243,1744527.4591445923,7381489.7537231445,259971.7676639557,-3929591.655731201,-5033697.128295898,-12560650.825500488,5787487.983703613,4941041.469573975,955881.7148208618,2667771.339416504,609651.2675285339,59813.07476758957,-4568940.162658691,-13161014.556884766,-21049146.65222168,9392573.356628418,8327062.606811523,8613535.88104248,3230118.5131073,-4352434.6351623535,-9656173.706054688,-11559916.496276855,9788400.650024414,10077850.341796875,10124513.626098633,9413120.26977539,14706228.256225586
0.055,8315229.415893555,11064496.994018555,22251312.255859375,958902.8358459473,15401585.578918457,-12027871.131896973,-3798354.8641204834,-3016990.4232025146,63361.19771003723,3928039.073944092,7667734.146118164,7115123.748779297,8875713.348388672,3892988.681793213,-2886262.1784210205,-4403152.942657471,-2263803.9588928223,-885792.4342155457,52780.34508228302,2066161.870956421,8764133.45336914,6316346.168518066,3923241.376876831,986732.0656776428,2367676.4965057373,3342722.4159240723,601506.5908432007,21277467.727661133,3045586.109161377,-717010.3192329407,-2048204.4219970703,-2847274.0650177,7745459.55657959,2442087.411880493,2036669.7311401367,3216753.7212371826,9158864.02130127,545240.3426170349,-2279474.0200042725,-3502512.4549865723,-6694346.4279174805,7867457.389831543,6977143.287658691,2027706.1462402344,3250054.5978546143,344135.3440284729,1262890.6965255737,-3326941.2517547607,-11267700.1953125,-19150590.896606445,11476048.469543457,10528623.580932617,10824731.826782227,4579346.179962158,-3318745.1362609863,-7254458.904266357,-7444105.14831543,11927866.93572998,12378049.850463867,14079153.060913086,10877032.279968262,18748928.07006836
0.06,12822003.364562988,14748264.31274414,24590917.587280273,3860944.2710876465,18977983.474731445,1451958.7755203247,-656170.1893806458,63165.61996936798,3220266.342163086,6624894.142150879,11098709.106445312,10931090.354919434,16396043.77746582,32413101.196289062,3880563.974380493,-466117.0244216919,946572.482585907,2012362.2417449951,2263647.0794677734,2509744.882583618,10553730.010986328,10793304.443359375,13623372.077941895,6283648.0140686035,4389688.968658447,5516174.31640625,2004245.0428009033,24183982.849121094,3809643.7454223633,-1482665.6579971313,-1756699.6812820435,4359271.049499512,6796578.884124756,3067689.4187927246,2883429.765701294,4768052.101135254,9936571.12121582,-436953.27639579773,-3415293.9319610596,-6996125.221252441,-9034885.40649414,6878327.8465271,5983907.699584961,2865948.20022583,4262424.945831299,-837978.0650138855,-938431.5013885498,-6136043.548583984,-16787994.384765625,-26863529.205322266,8511440.27709961,7787443.161010742,8055045.127868652,2749805.9272766113,-8129008.2931518555,-12750651.359558105,-13057353.973388672,8842066.764831543,9447778.701782227,11113725.662231445,2849619.6269989014,13900926.58996582
0.065,14914611.81640625,18469444.274902344,26778314.5904541,5848425.86517334,20816923.141479492,4604261.39831543,915521.1448669434,1417544.960975647,4870806.694030762,8227068.901062012,13188158.03527832,12454459.190368652,18386686.325073242,38781883.239746094,4572756.290435791,429958.7607383728,2482924.9382019043,3548668.146133423,3488843.2025909424,2834879.159927368,11796042.442321777,10958667.755126953,13963088.035583496,6460088.25302124,4553700.923919678,6308433.055877686,2451684.4749450684,25800445.556640625,3923414.707183838,-2150511.0263824463,-3607685.8043670654,2253408.432006836,5119464.874267578,3440937.042236328,3440853.5957336426,5818572.044372559,9869430.541992188,-744132.8763961792,-4722589.96963501,-10556931.495666504,-14042341.232299805,5170972.3472595215,4314663.887023926,3273029.8042297363,6058756.8283081055,-398641.82472229004,-2455297.4700927734,-8562087.059020996,-21977132.79724121,-33160720.825195312,6490921.497344971,5772518.634796143,6038456.439971924,2129397.6306915283,-10433877.944946289,-17503021.240234375,-19697406.768798828,6624178.409576416,7267691.135406494,8157208.442687988,-2195206.1653137207,6144073.486328125
0.07,14999603.271484375,20972852.70690918,29367088.317871094,6266565.322875977,21332061.767578125,-2046886.920928955,748110.3539466858,1033294.5585250854,4798716.5451049805,9516162.872314453,14227395.057678223,13093935.012817383,18823997.497558594,31274475.09765625,682675.2424240112,-1252040.982246399,2262601.613998413,3519889.3547058105,4324043.273925781,4670929.908752441,14315439.224243164,11725984.573364258,13067138.671875,3346556.6635131836,3201492.0711517334,5637252.330780029,2596353.530883789,26530239.10522461,5207532.88269043,-177520.18570899963,-2550074.815750122,483574.5096206665,5378185.272216797,3837872.7436065674,3872157.573699951,6167229.175567627,9597583.770751953,489392.07196235657,-2771477.460861206,-8219429.969787598,-12246376.991271973,5491141.319274902,4734498.023986816,3523315.4296875,7526846.885681152,1913945.4364776611,23584.61543917656,-5957356.929779053,-18228523.25439453,-27290468.215942383,9466328.620910645,8514655.113220215,8770967.483520508,5376678.466796875,-4233022.212982178,-12570744.514465332,-16063108.444213867,9510189.056396484,10055278.778076172,12139841.079711914,6220079.8988342285,6833715.915679932
0.075,14310056.686401367,21901700.973510742,32608673.095703125,5998248.100280762,23180276.87072754,-9795323.371887207,21441.180258989334,250727.98132896423,4193054.19921875,11148798.942565918,15899785.995483398,15616310.119628906,23085496.90246582,28709798.81286621,-2922237.6346588135,-3365166.187286377,1554927.2298812866,3006679.2964935303,5171323.299407959,7581432.819366455,18634881.9732666,16692934.036254883,18290113.44909668,961029.8275947571,1710869.9083328247,4362126.82723999,2772980.6900024414,26445682.525634766,7561630.2490234375,3910341.262817383,2501143.217086792,5584307.1937561035,6692089.080810547,3855319.4999694824,3832888.36479187,5868896.484375,9444390.296936035,2031542.3011779785,1715971.1122512817,-1116513.2522583008,-4015476.703643799,6854257.583618164,6307485.580444336,3430984.0202331543,7420767.784118652,3858281.8508148193,4155940.532684326,-271929.68130111694,-8500617.980957031,-13812547.68371582,13378592.491149902,12234313.96484375,12458422.660827637,9010814.666748047,4537763.1187438965,-2347277.1644592285,-4836158.752441406,13537431.716918945,13920234.680175781,19062934.87548828,19677671.432495117,16553365.707397461
0.08,13963840.48461914,22389781.951904297,35915233.61206055,5882955.074310303,27061929.70275879,-12936629.295349121,-596835.732460022,-250760.88309288025,3730622.2915649414,12226902.961730957,18316843.032836914,19544231.414794922,29277408.599853516,33608703.61328125,-3928803.6823272705,-4882646.560668945,973177.2541999817,2663550.1384735107,5403801.441192627,9192102.432250977,22481626.510620117,22309093.475341797,25295673.370361328,630261.8980407715,762066.0066604614,3143301.010131836,2316285.6101989746,25696830.74951172,8814664.840698242,6699838.161468506,6665740.966796875,11703246.116638184,6388069.152832031,2894413.471221924,2835767.2691345215,5310876.369476318,9365907.669067383,2186477.6611328125,4280854.70199585,3635341.8827056885,752417.6239967346,6428815.841674805,6116371.631622314,2519285.6788635254,6494959.831237793,4133579.2541503906,5317473.888397217,2145133.9721679688,-3831679.8210144043,-6692983.150482178,12627170.56274414,11511343.002319336,11788196.563720703,8805747.985839844,5672705.173492432,886150.6581306458,553001.2845993042,13050048.828125,13325591.087341309,20055744.171142578,21535253.524780273,24654262.54272461
0.085,13707787.51373291,22790166.8548584,37718296.05102539,5215057.849884033,29902553.55834961,-14309733.390808105,-1748294.472694397,-1271525.8598327637,2705698.251724243,11370884.895324707,19394985.19897461,21197689.056396484,30457315.44494629,32432933.807373047,-4457511.901855469,-6512403.964996338,-142800.74834823608,1783254.7426223755,4403009.89151001,8070821.762084961,23068304.06188965,22057050.704956055,24354347.229003906,249481.4097881317,-14026.962220668793,2188702.344894409,974605.6795120239,24856527.32849121,7418260.57434082,5738613.128662109,5051300.048828125,9222578.048706055,4396755.218505859,1518786.6687774658,1465133.4285736084,5182050.2281188965,9275971.412658691,594093.5611724854,2238348.4840393066,1643926.501274109,-4258366.584777832,4253197.66998291,3960711.4791870117,1276247.7397918701,6853174.209594727,4164592.2660827637,3110641.2410736084,-1182943.7017440796,-8936437.606811523,-11142998.695373535,8684396.743774414,7749688.148498535,8200638.771057129,6298373.699188232,-1263620.0189590454,-6154614.9253845215,-5615636.825561523,9390050.888061523,9679260.25390625,14631817.817687988,10452135.08605957,24050441.74194336
0.09,12205771.446228027,21826433.181762695,36679283.142089844,3113864.8986816406,28674413.681030273,-17977857.58972168,-3793735.980987549,-3338373.6610412598,664391.1004066467,8922891.616821289,17784002.30407715,18768432.6171875,24903577.80456543,20788118.362426758,-6415489.673614502,-8503202.438354492,-2009429.2163848877,-188343.1375026703,2783480.405807495,5415188.312530518,20679891.58630371,15710007.667541504,15459901.809692383,-1413882.6131820679,-702473.4020233154,1831327.5575637817,-145902.08232402802,24709470.748901367,4621214.866638184,2489528.4175872803,-692337.9302024841,-384948.2238292694,3590398.3116149902,1255967.378616333,1202682.7335357666,5776325.702667236,9138936.042785645,-1600750.207901001,-1702675.3425598145,-3683022.4990844727,-13188640.594482422,3487032.175064087,2904864.549636841,1119264.841079712,8942487.716674805,5385546.684265137,1517900.7053375244,-5784797.191619873,-16625383.377075195,-18175237.65563965,7666962.146759033,6952068.328857422,7495789.527893066,6157260.894775391,-6630850.315093994,-13569124.221801758,-13859078.407287598,8563016.891479492,8930203.437805176,11140443.801879883,2102669.9542999268,19026058.197021484
0.095,10119530.67779541,19699089.05029297,33810691.833496094,1156326.8899917603,24917461.395263672,-20044292.449951172,-4959495.544433594,-4677873.134613037,-663661.539554596,7298958.778381348,15308420.181274414,15387506.484985352,19824892.044067383,15006343.841552734,-7004065.036773682,-8942938.804626465,-2853375.6732940674,-1595427.393913269,2077950.7160186768,3595216.751098633,18921829.223632812,11097448.348999023,10793076.515197754,-1539566.3976669312,-302823.0667114258,2598403.9306640625,157622.0542192459,25987884.521484375,3373824.8348236084,820058.1073760986,-3590712.547302246,-4205311.298370361,5860190.868377686,2660762.7868652344,2605560.302734375,6510233.8790893555,8991030.6930542,-2936447.3819732666,-2557785.0341796875,-5637222.766876221,-14663309.097290039,6023570.537567139,5097198.963165283,2572382.2116851807,10671029.090881348,6513851.165771484,2916565.8950805664,-6208211.421966553,-17614849.090576172,-17596942.901611328,11434472.08404541,10906894.68383789,11271969.79522705,9007654.190063477,-3845124.9599456787,-11889676.094055176,-12592956.54296875,12374307.632446289,12769212.72277832,14911657.333374023,7387403.964996338,17040479.66003418
0.1,10859766.006469727,19212894.439697266,31893308.639526367,2197511.4345550537,22739042.282104492,-13320664.405822754,-2944134.23538208,-2839881.420135498,1063017.725944519,8238636.9705200195,14718963.623046875,15071759.223937988,21843349.45678711,28771076.202392578,-2298979.2823791504,-5888288.974761963,-728688.9553070068,4078.31696793437,2977749.824523926,3590821.0277557373,20572481.155395508,14236626.625061035,18419187.545776367,3036989.450454712,1886901.617050171,4328502.178192139,1558994.174003601,28681295.39489746,5009694.576263428,2645865.4403686523,241680.27937412262,5036712.169647217,9701331.13861084,4432073.11630249,4428565.502166748,6684218.406677246,9124955.177307129,-2884208.4407806396,879451.9305229187,-2179722.0706939697,-5789025.783538818,9983138.084411621,9003561.973571777,4339802.265167236,10361949.920654297,5599967.479705811,5170907.974243164,-2529800.6534576416,-11613462.448120117,-10332300.186157227,15761533.737182617,15251417.16003418,15333329.200744629,11049171.447753906,2945911.8843078613,-3655580.997467041,-2782714.605331421,16606407.165527344,16948707.580566406,21859306.33544922,19067478.17993164,19185569.763183594
0.105,15252895.35522461,21074150.08544922,31562952.041625977,5621412.27722168,22638851.165771484,-1012047.1715927124,1017192.6021575928,1067414.8797988892,4759659.290313721,10063589.096069336,15485007.286071777,16865926.74255371,27034290.313720703,47670185.08911133,5091565.132141113,-1205596.685409546,2890565.872192383,3663355.1120758057,4142953.872680664,4257429.122924805,24009803.771972656,20468647.003173828,28959068.298339844,9603442.192077637,4477001.667022705,5670431.613922119,2520287.275314331,31250474.92980957,7667089.462280273,5835493.087768555,6277728.080749512,16998588.56201172,12336513.51928711,5111468.79196167,5203823.089599609,6587282.657623291,10068144.798278809,-2026462.7933502197,4815378.189086914,2401666.1643981934,3794176.3401031494,12374690.055847168,11641928.672790527,4972743.988037109,9445143.699645996,3839360.475540161,5711501.598358154,989931.6430091858,-5773302.07824707,-4725484.371185303,17292356.491088867,16508148.193359375,16569385.528564453,10599761.962890625,6218939.304351807,2098902.463912964,5156974.315643311,17972627.639770508,18265478.134155273,25384845.733642578,24177742.00439453,21802467.346191406
0.11,17643360.137939453,21002775.192260742,30017261.505126953,6498323.440551758,20954040.52734375,3093402.624130249,2004261.9705200195,2126755.952835083,5705767.631530762,9243829.727172852,14332355.499267578,16289064.407348633,26178356.170654297,45542846.6796875,6915307.998657227,-13510.026037693024,3464627.265930176,4639534.473419189,3441195.487976074,3935143.232345581,25324705.123901367,20390182.495117188,27106513.97705078,11002906.799316406,4720607.757568359,5093399.0478515625,1899105.5488586426,31578653.33557129,8654045.104980469,6943414.211273193,7106683.254241943,16269094.467163086,12640908.241271973,4772593.975067139,4900711.0595703125,7069173.812866211,11919328.689575195,-1252888.560295105,5520687.580108643,3376487.970352173,3489776.372909546,12390883.445739746,11883684.158325195,4602050.304412842,10662795.066833496,4586061.000823975,5678945.064544678,2067783.5941314697,-4749296.188354492,-5022313.594818115,17674179.077148438,16480106.353759766,16859073.638916016,10730008.125305176,5247398.853302002,2409366.1308288574,5579469.203948975,18226173.400878906,18551198.959350586,24847568.51196289,21303682.327270508,22957372.665405273
0.115,12457369.804382324,15764172.554016113,25700523.376464844,1955999.1359710693,16489906.311035156,-6923089.504241943,-2503592.4911499023,-2255085.7067108154,1396798.9683151245,5244612.693786621,10563497.543334961,12586459.159851074,18825971.603393555,24248441.696166992,370515.94257354736,-4500889.301300049,-976120.0547218323,334445.059299469,788897.8123664856,2522532.9399108887,23719436.645507812,13584420.204162598,14202006.340026855,5106664.180755615,1727593.3027267456,2677919.387817383,-59614.6285533905,29592380.52368164,7906111.717224121,5398352.62298584,2343387.1269226074,4404674.530029297,11347974.77722168,4344604.4921875,4385599.136352539,8081192.970275879,13749066.352844238,-1039980.0539016724,3775491.47605896,1085611.8202209473,-5035137.176513672,11190547.943115234,10661311.149597168,4227843.761444092,14136930.465698242,8313233.375549316,7584074.4972229,2386394.262313843,-6199553.0128479,-8002383.232116699,19421602.249145508,18064071.655273438,18767498.016357422,13988919.258117676,4991642.475128174,2202423.8109588623,3016006.2313079834,19972887.03918457,20382762.908935547,24298398.971557617,18864892.959594727,23343040.466308594
0.12,4313290.119171143,10162033.081054688,22320835.11352539,-3371342.897415161,13837949.752807617,-17094907.760620117,-7730788.707733154,-7381167.411804199,-3731288.9099121094,2212239.2654418945,8212471.008300781,10748825.073242188,15087263.107299805,16364000.32043457,-5558133.602142334,-9509502.410888672,-5825242.042541504,-4790981.769561768,-986708.93907547,1707179.5463562012,22705608.367919922,9991094.589233398,8308206.558227539,-244961.7087841034,-1482549.3097305298,777706.2654495239,-1811721.8017578125,28010761.260986328,7899303.436279297,3852764.368057251,-670685.1124763489,-535230.3385734558,10120531.08215332,4356333.7326049805,4266758.918762207,8732213.973999023,14308800.69732666,-1422476.4108657837,3004497.766494751,-472736.06061935425,-10122902.870178223,10343022.346496582,9658053.398132324,4346560.001373291,17173019.409179688,11292198.181152344,10639656.066894531,3710215.3301239014,-5768423.557281494,-9228071.212768555,21841392.517089844,20739212.036132812,21435609.817504883,18061679.84008789,7598573.207855225,5397702.217102051,3929880.142211914,22516401.290893555,22979852.6763916,25996578.216552734,21186769.485473633,23510498.046875
0.125,5208709.239959717,12481203.079223633,24682247.161865234,-1793875.813484192,17205251.693725586,-9384475.708007812,-6060509.204864502,-5700851.4404296875,-2455718.2788848877,4339036.464691162,10980216.979980469,14379943.84765625,20661855.697631836,38471000.67138672,-123104.69150543213,-7333762.645721436,-4254323.959350586,-3436202.049255371,881476.9387245178,3019676.685333252,25107330.322265625,15250811.576843262,17966718.673706055,4133131.0272216797,-421658.2179069519,2179791.212081909,-1455879.4498443604,29263057.708740234,9999481.201171875,4385724.5445251465,2750136.8522644043,10300209.999084473,11135930.061340332,5195516.109466553,5039988.994598389,8948729.515075684,13600443.840026855,-2206350.088119507,4232915.40145874,641773.3430862427,-5676634.788513184,11533823.013305664,10793349.266052246,5206351.280212402,17949882.50732422,10564198.49395752,11454858.779907227,4834151.268005371,-3133363.2469177246,-8162127.494812012,23352727.89001465,22654022.216796875,23019157.40966797,19063167.572021484,9797755.241394043,9536734.580993652,8137936.592102051,24138294.219970703,24592365.264892578,28479877.471923828,24187295.91369629,23486452.102661133
0.13,19351329.803466797,22994672.775268555,31249689.10217285,7883789.539337158,23571804.04663086,13925625.801086426,3662463.1881713867,3919576.1680603027,6453216.552734375,10523339.27154541,16773782.730102539,19601823.806762695,26790742.874145508,61841800.689697266,14905548.095703125,3004801.9886016846,4576480.388641357,5571578.9794921875,5539178.848266602,5786865.234375,28736370.086669922,21173809.051513672,27321012.496948242,16852697.372436523,6017633.91494751,7164144.515991211,1660319.8051452637,32302368.1640625,12335083.961486816,5692330.360412598,7469786.643981934,21805803.298950195,15600442.886352539,7489510.059356689,7310960.76965332,9901539.80255127,13155614.852905273,-2979245.42427063,5007377.624511719,1931051.8503189087,508310.31799316406,15765228.271484375,15110409.7366333,7358223.438262939,17485937.118530273,8137894.630432129,9202531.814575195,3778735.637664795,-1529100.775718689,-6993192.195892334,24479936.599731445,23943090.438842773,23928192.138671875,17101076.126098633,8837718.963623047,10335742.950439453,10506566.047668457,25185747.146606445,25602039.337158203,29735057.830810547,23794588.088989258,23754444.122314453
0.135,36263107.29980469,32417102.813720703,34938415.52734375,18483518.600463867,26026660.919189453,31827178.955078125,14211953.163146973,14327982.902526855,16319150.924682617,15500478.744506836,19957412.719726562,19579994.201660156,21246343.6126709,48103782.653808594,26596338.272094727,13904213.905334473,14084633.827209473,15431274.4140625,9122768.40209961,7559569.358825684,29063199.996948242,16413011.55090332,16665042.877197266,27009153.366088867,13829283.714294434,12653910.636901855,5842766.761779785,33896820.068359375,12272480.010986328,5048737.049102783,5238810.5392456055,14241928.100585938,21184257.50732422,10795173.645019531,10545005.798339844,12074987.411499023,14234784.126281738,-3236955.6427001953,3298855.0662994385,170098.00672531128,-2881274.938583374,21038988.11340332,20458024.978637695,10460160.255432129,17381692.88635254,8271599.769592285,7235701.560974121,1349880.4569244385,-2886402.130126953,-7340498.924255371,25600105.28564453,24910619.735717773,24747173.309326172,15841526.03149414,6984793.663024902,7902571.201324463,8369678.497314453,26040699.005126953,26416139.602661133,29443408.966064453,21937263.48876953,24355140.686035156
0.14,42918510.43701172,33330638.885498047,31969913.482666016,22738426.208496094,22661931.99157715,31332302.09350586,18281774.520874023,18345571.517944336,20221292.49572754,15828701.972961426,18229957.580566406,13622885.704040527,5667001.247406006,3309021.7113494873,26904588.69934082,17833505.630493164,17720542.907714844,19239683.151245117,8976873.397827148,6698021.88873291,25279317.85583496,2759150.0282287598,-9137279.510498047,27551633.834838867,17863368.98803711,15064712.524414062,8247374.534606934,32761253.356933594,9995517.73071289,2210462.5701904297,-3708486.557006836,-8985687.255859375,22990911.48376465,12900856.018066406,12550995.826721191,13991375.923156738,16225317.001342773,-2898544.7883605957,431086.80844306946,-4057286.262512207,-15328879.356384277,22833721.160888672,22188453.674316406,12453233.71887207,17554796.21887207,11865443.229675293,8613752.365112305,475017.4880027771,-5471862.316131592,-9056653.97644043,24579107.2845459,23665185.928344727,23685771.942138672,17425519.943237305,8086071.968078613,5978563.30871582,4364527.702331543,24834651.947021484,25147010.803222656,28285289.764404297,22254022.5982666,24112823.486328125
0.145,38596618.65234375,28316463.470458984,26096763.610839844,20603790.283203125,18027830.123901367,22357603.073120117,16071010.58959961,16205177.307128906,18139778.13720703,12848091.125488281,14549055.099487305,7848723.888397217,-5844116.2109375,-27044473.64807129,21627071.380615234,15458002.090454102,15629311.561584473,17091871.26159668,6102061.2716674805,3948976.516723633,21240163.803100586,-6718649.864196777,-25576784.133911133,23093420.028686523,17095233.917236328,13968373.29864502,7737928.867340088,30826799.392700195,8083343.505859375,-358400.8812904358,-10782929.420471191,-24717418.670654297,19289684.295654297,12203497.886657715,11851920.127868652,14027639.389038086,17555524.826049805,-2575361.490249634,-1048618.7934875488,-7217041.969299316,-25179323.196411133,19361482.620239258,18541309.356689453,11749413.49029541,17389074.325561523,15750175.476074219,12060624.122619629,2219092.36907959,-6544974.803924561,-10959395.408630371,20240947.723388672,19258033.752441406,19630413.055419922,20221021.65222168,11850999.83215332,6589208.602905273,2321890.354156494,20634927.74963379,20860246.658325195,26991033.55407715,24201480.865478516,22560974.12109375
0.15,33072422.02758789,24467100.143432617,22796232.223510742,17376680.374145508,16135906.219482422,21549449.920654297,13268805.503845215,13477622.032165527,15290872.573852539,9895439.147949219,12416021.347045898,6962604.522705078,-4905942.440032959,-16567777.633666992,21000833.51135254,13322570.80078125,12878673.553466797,14208917.617797852,3259372.4727630615,1337879.5385360718,20442119.598388672,-4848307.132720947,-20302377.700805664,22440387.725830078,15168374.061584473,12293360.710144043,6096735.954284668,30194580.078125,8003092.7658081055,-833343.505859375,-10346204.75769043,-20019939.422607422,14888854.98046875,10396924.97253418,10164647.102355957,12890602.111816406,17790851.593017578,-2897214.17427063,-838060.9750747681,-7324530.124664307,-24775651.931762695,15095941.543579102,14119066.23840332,9933502.197265625,17476625.442504883,17065448.760986328,13906513.214111328,4396405.220031738,-5689598.083496094,-11685098.648071289,16210508.346557617,15323667.526245117,15877320.289611816,21578378.677368164,14330417.63305664,8133695.602416992,2857309.103012085,16920042.037963867,17102460.861206055,26288253.784179688,24614526.748657227,21418943.405151367
0.155,33422840.118408203,24492870.330810547,23056198.120117188,17315805.435180664,16411106.10961914,30449804.306030273,13996294.975280762,14148000.717163086,15659474.37286377,8856907.844543457,12198476.791381836,9287605.285644531,2057904.7203063965,11581981.658935547,26524490.356445312,15446784.973144531,13266150.47454834,14510309.219360352,2110291.9578552246,230094.90966796875,22361145.01953125,1829509.1390609741,-6864217.281341553,27290687.561035156,15891569.137573242,12878250.122070312,5961511.135101318,30613180.16052246,8650622.367858887,22842.0402854681,-5923627.3765563965,-6812340.259552002,15853854.179382324,10767622.947692871,10608969.688415527,12927429.19921875,17910709.381103516,-3707835.1974487305,-675587.53490448,-5782287.59765625,-18982917.78564453,15941654.205322266,14933568.954467773,10223938.941955566,18337453.842163086,16066812.515258789,12693784.713745117,4614034.175872803,-4554463.3865356445,-10667623.519897461,17033185.958862305,16267341.613769531,16654708.862304688,20695493.698120117,13409973.14453125,8554925.918579102,3920218.4677124023,17807136.53564453,18060783.38623047,26435842.514038086,23015487.670898438,22456653.594970703
0.16,38315025.329589844,26940492.630004883,25237745.28503418,20915985.107421875,17492475.509643555,37668766.021728516,17926330.56640625,17894300.46081543,19166261.672973633,10057512.283325195,12938088.417053223,11200059.89074707,5145620.822906494,20671735.763549805,31593141.555786133,19972877.502441406,16693147.659301758,17992599.487304688,2887868.642807007,889902.1148681641,24636566.162109375,4264799.118041992,-3349167.585372925,32084926.60522461,19316907.88269043,15676442.14630127,8059025.764465332,30878293.991088867,8629785.537719727,800400.6147384644,-3474702.1198272705,-2942638.635635376,21604757.30895996,13784281.730651855,13496196.746826172,15013804.43572998,18598035.81237793,-4195242.881774902,-1304429.054260254,-4513846.397399902,-16539869.30847168,21474718.09387207,20551586.151123047,13128331.184387207,18524728.775024414,14311564.445495605,10066961.288452148,3341004.6100616455,-3985619.068145752,-8468264.57977295,21337234.497070312,20595939.63623047,20693126.678466797,18231046.676635742,11172004.699707031,8225282.669067383,4393118.381500244,21779829.025268555,22179271.697998047,26477584.838867188,22069242.477416992,24724105.834960938
0.165,43684333.80126953,31218667.98400879,29405334.47265625,26241252.899169922,20545772.552490234,37140674.59106445,22597282.40966797,22383251.190185547,23595130.920410156,13264505.386352539,14918045.043945312,12783059.120178223,4377406.597137451,7836561.679840088,32082485.19897461,23234189.987182617,21025817.87109375,22587907.791137695,5348176.956176758,2984109.878540039,26684974.670410156,2995056.8675994873,-8899332.046508789,32797523.498535156,22526737.213134766,18504671.096801758,10920212.745666504,31304063.79699707,8394633.293151855,1660135.6267929077,-3139142.5132751465,-9007394.790649414,25507175.44555664,16294500.350952148,15745847.702026367,17375097.274780273,19339353.561401367,-3801710.844039917,-1479902.982711792,-3298078.775405884,-18290641.78466797,25303186.416625977,24456659.3170166,15556429.862976074,16250791.549682617,12217196.464538574,7882519.721984863,2913314.5809173584,-2967700.0045776367,-5899760.723114014,23167629.24194336,22356340.408325195,22393424.98779297,14811477.661132812,10305928.230285645,8737206.45904541,5343537.330627441,23270851.135253906,23764320.373535156,24985790.252685547,23017364.501953125,25678651.809692383
0.17,47846126.556396484,37202220.91674805,35742950.439453125,30577209.47265625,26036615.3717041,34150939.94140625,25883804.321289062,25589054.107666016,26847223.28186035,17200838.088989258,18359535.217285156,16119878.768920898,6251639.366149902,-1432169.4374084473,30600933.074951172,24115077.97241211,24163797.37854004,26120298.385620117,8577666.282653809,5581485.271453857,29347242.35534668,4270903.587341309,-10208035.469055176,31281282.424926758,23367237.091064453,19617273.330688477,12755262.37487793,32978561.401367188,9154196.739196777,3451137.7811431885,-1250754.3563842773,-12268101.692199707,23817857.74230957,15866099.35760498,15164085.388183594,17949287.41455078,19529008.865356445,-2758093.1186676025,-99920.09401321411,-962497.353553772,-18576320.64819336,23763782.501220703,22884017.944335938,15099305.152893066,12765466.690063477,9842180.252075195,6540399.551391602,4427068.23348999,-528395.7719802856,-2909685.1348876953,20584110.260009766,19719839.096069336,19929788.58947754,11445088.386535645,10778071.403503418,10409549.713134766,7883546.829223633,20751836.7767334,21230247.497558594,22299757.00378418,23963680.267333984,24922910.690307617
0.175,50416786.193847656,41931438.44604492,41007087.70751953,31906961.44104004,30483228.68347168,34545104.98046875,26785255.432128906,26504302.978515625,27822792.053222656,19474884.033203125,21320880.889892578,20160739.89868164,11397961.616516113,5282750.129699707,30715473.175048828,23845857.620239258,24882963.180541992,27202348.709106445,10672599.792480469,7139925.003051758,32088474.27368164,8597810.745239258,-3852678.5373687744,30935701.370239258,22477790.83251953,18970296.85974121,12988874.435424805,35231735.22949219,10600852.012634277,5444823.265075684,2141464.4718170166,-7535168.647766113,20483320.236206055,14060181.617736816,13451351.165771484,16958911.895751953,19591436.3861084,-1877182.3644638062,1889640.3312683105,1805897.59349823,-15728399.276733398,20669599.533081055,19703329.08630371,13327003.479003906,11823557.85369873,8609154.70123291,6055857.6583862305,6613063.812255859,2257166.3856506348,447304.69584465027,18532726.287841797,17713258.743286133,18001256.942749023,10222146.034240723,11235258.102416992,12035523.414611816,10890002.250671387,19006576.538085938,19444240.57006836,21042407.989501953,23530897.14050293,24924402.236938477
0.18,50944450.37841797,42040393.8293457,41343193.05419922,30764974.59411621,30257656.09741211,36556774.1394043,25949071.884155273,25716438.29345703,27081809.997558594,18937934.87548828,21564640.045166016,21272508.62121582,13163186.073303223,12233400.344848633,31761127.471923828,23624162.673950195,23668323.516845703,26284828.186035156,10417148.59008789,6846831.798553467,33083072.662353516,9872516.632080078,-458388.65637779236,31815179.8248291,21859304.428100586,17711111.068725586,12359319.686889648,35849445.34301758,11160752.296447754,5799800.395965576,2776442.289352417,-3509129.762649536,21148633.95690918,14007795.333862305,13638949.394226074,16311843.872070312,20266778.94592285,-1859417.6769256592,2559118.5092926025,2726649.761199951,-15025115.966796875,21452444.076538086,20483377.45666504,13367241.859436035,14979869.842529297,10097771.644592285,6676268.100738525,7518054.962158203,3094480.276107788,2577774.0478515625,21419580.459594727,20685817.71850586,20801765.44189453,12440398.216247559,11533872.604370117,12329819.679260254,11755094.528198242,21929140.090942383,22385868.072509766,23168603.897094727,23439458.8470459,27397041.32080078
0.185,49941936.49291992,38911693.57299805,37964908.599853516,29800245.28503418,26965961.456298828,35859085.08300781,25274208.068847656,25086912.155151367,26493467.330932617,17477170.944213867,19926401.138305664,18824081.420898438,8649094.581604004,4481898.784637451,31135097.50366211,23599853.515625,22584764.48059082,25464387.893676758,9153225.898742676,5835913.181304932,32157295.22705078,5504004.955291748,-6599750.995635986,31718973.15979004,22229852.6763916,17176454.544067383,12131899.8336792,34294387.81738281,10292097.091674805,4231159.210205078,-759355.2470207214,-7554366.111755371,25169057.846069336,15965643.882751465,15777014.73236084,16995704.650878906,21344732.2845459,-2697066.7839050293,1316384.5539093018,999016.523361206,-19948759.078979492,25377166.748046875,24499219.89440918,15418286.323547363,19089609.146118164,13249176.025390625,7702167.510986328,6431176.662445068,1059741.1394119263,1683333.0392837524,26427736.282348633,25723318.099975586,25637748.71826172,15929569.244384766,11805280.685424805,10637676.239013672,9181708.335876465,26604795.455932617,27084739.685058594,26748233.795166016,25043928.146362305,30130529.403686523
0.19,48407653.80859375,37081718.44482422,36068874.35913086,30206710.815429688,25574802.39868164,32406421.661376953,25660943.98498535,25508028.030395508,26987609.86328125,17851133.346557617,19526720.04699707,16878036.499023438,4438968.658447266,-7087227.821350098,28699254.989624023,23292325.973510742,22937633.514404297,25908638.00048828,9525100.708007812,6047015.66696167,31714582.443237305,1344194.2930221558,-13510504.722595215,30027841.567993164,22546913.146972656,18137098.31237793,13102980.613708496,33110748.291015625,9414935.111999512,2896774.0535736084,-3724120.616912842,-13717333.793640137,27229738.235473633,17417116.165161133,17260805.130004883,18148490.90576172,21980695.724487305,-3560114.860534668,-377230.0183773041,-1156148.6721038818,-25590887.06970215,27267496.10900879,26431432.723999023,16884502.410888672,19958074.56970215,14812592.506408691,7521147.25112915,4451004.505157471,-2053875.207901001,-1053107.0232391357,27748519.897460938,27035993.576049805,26941894.53125,16559230.80444336,10960680.00793457,7287836.55166626,4918878.555297852,27700275.421142578,28096673.9654541,27753440.856933594,26039541.244506836,29694192.88635254
0.195,45561664.58129883,37503215.78979492,37785217.28515625,29758302.688598633,27790092.46826172,28430524.826049805,25506996.154785156,25363039.016723633,26974971.771240234,19998907.0892334,21488294.60144043,19022624.969482422,8021963.119506836,-1856030.5833816528,26336395.263671875,22025129.318237305,23234918.59436035,25989610.67199707,12079177.856445312,7763305.187225342,33777458.19091797,4030614.8529052734,-9253020.286560059,28166938.78173828,21739400.86364746,20098522.186279297,14765125.274658203,34758068.0847168,10125151.634216309,3990574.359893799,-980005.4430961609,-11299393.653869629,25473518.37158203,17063861.846923828,16878301.6204834,18633478.16467285,22064825.0579834,-3503363.3708953857,-446840.64388275146,-641351.1037826538,-24392238.61694336,25489250.18310547,24572498.321533203,16477451.32446289,17467599.868774414,13400812.149047852,6020697.116851807,3839353.7998199463,-2960516.2143707275,-1390640.8548355103,25007360.458374023,24320329.666137695,24347227.096557617,13485920.906066895,8850047.11151123,4503041.2673950195,2707763.195037842,25173946.380615234,25404209.13696289,25441781.997680664,24061630.249023438,27038471.221923828
0.2,40075057.98339844,36778041.83959961,39879463.19580078,26241329.193115234,30562862.396240234,24047349.92980957,22986917.49572754,22798610.68725586,24526058.197021484,21241003.036499023,23545488.357543945,23812412.26196289,17641515.731811523,20075046.53930664,24677808.76159668,19505582.809448242,21105276.107788086,23619628.90625,14436328.887939453,9261925.69732666,37292873.38256836,12163105.010986328,4491267.681121826,26991607.666015625,19974094.39086914,21323991.775512695,15555149.07836914,38052593.23120117,12165574.073791504,7105434.894561768,6315176.010131836,-63619.00269985199,23573736.1907959,16334489.822387695,16173381.805419922,18439575.1953125,22415594.10095215,-2579325.9143829346,1732043.8623428345,3127813.5776519775,-16258955.001831055,23753227.23388672,22759796.142578125,15727314.949035645,15338262.557983398,11515662.19329834,5476399.4216918945,6182328.224182129,151775.36010742188,3143304.5864105225,23221387.86315918,22529022.216796875,22666406.631469727,10910511.016845703,8328390.121459961,5461477.756500244,4858623.504638672,23720348.358154297,23845865.24963379,23717580.795288086,21636911.392211914,27019468.307495117
0.205,33575969.69604492,33329238.891601562,39025882.720947266,21397258.758544922,30941879.272460938,18894174.575805664,19121366.500854492,18840190.887451172,20548315.048217773,20122877.12097168,23425443.649291992,27006826.400756836,24949527.740478516,39045104.98046875,22503295.8984375,16334365.844726562,16917346.954345703,19681272.506713867,14350183.486938477,9030702.590942383,39399761.19995117,18541290.283203125,15161212.921142578,25461334.228515625,17757371.90246582,20150962.829589844,14375318.52722168,39348068.23730469,13725704.193115234,9612545.96710205,12171977.043151855,9937008.85772705,23917697.90649414,16310434.341430664,16227857.58972168,18081766.12854004,23547811.50817871,-1913273.0960845947,4525464.5347595215,7387011.0511779785,-8916602.13470459,24251525.87890625,23330186.84387207,15774291.9921875,16133737.564086914,12273368.835449219,7574237.34664917,10288114.547729492,5312143.802642822,9158625.602722168,24705947.875976562,23855607.986450195,24114332.19909668,12743445.39642334,11726832.389831543,10221337.31842041,9210577.011108398,25162139.892578125,25301219.940185547,25459024.42932129,22793046.951293945,30613857.26928711
0.21,29600252.151489258,29901355.743408203,35944316.86401367,18901529.31213379,29345935.821533203,15499809.265136719,16688367.84362793,16343034.744262695,17938156.127929688,18344491.958618164,21859699.249267578,26947893.142700195,25941640.853881836,45020702.36206055,19263891.220092773,13559768.676757812,13647083.282470703,17121635.43701172,12477085.11352539,7428693.2945251465,38835681.9152832,19525230.407714844,16546855.926513672,22455390.93017578,14807554.244995117,16650390.625,11841855.0491333,37129543.30444336,13557892.799377441,9448902.130126953,12978140.830993652,12428675.651550293,23300638.19885254,15476438.522338867,15441719.055175781,17516901.01623535,24917795.181274414,-2328436.6130828857,5404801.845550537,8726170.539855957,-8181770.324707031,23604515.075683594,22851905.822753906,15047306.060791016,18333082.19909668,15158276.557922363,10574934.959411621,12523088.455200195,7941743.37387085,10403669.357299805,25693830.490112305,24630279.541015625,25047128.677368164,17049030.303955078,16052564.62097168,13722820.281982422,10408020.01953125,25806722.64099121,25984445.571899414,27856725.692749023,25615129.470825195,31373321.533203125
0.215,28519111.63330078,28647695.541381836,33151332.85522461,19121353.149414062,27440004.348754883,16420478.820800781,16351921.081542969,16072231.29272461,17628009.796142578,18040102.005004883,20967096.32873535,25667831.420898438,24552480.697631836,48763870.23925781,16434474.94506836,11634540.557861328,12931107.521057129,16843702.31628418,11148195.266723633,5845189.094543457,37138538.3605957,18393690.10925293,15207652.09197998,18954374.313354492,11056600.570678711,12845068.93157959,9698844.909667969,33785427.09350586,12367044.448852539,7301943.302154541,11032321.92993164,11904209.13696289,18561511.993408203,12410268.783569336,12355717.658996582,16568187.713623047,25671783.447265625,-3161770.3437805176,3717401.5045166016,6840996.742248535,-11261617.660522461,18715435.028076172,18054708.48083496,12052772.521972656,18956880.569458008,16823740.005493164,11284772.872924805,10775181.770324707,5753327.8465271,5605716.228485107,22770721.435546875,21723447.799682617,22195823.669433594,18539272.30834961,15921019.554138184,11207542.419433594,5954040.050506592,22741775.512695312,22914253.23486328,26487134.93347168,24167104.721069336,24139535.903930664
0.22,27236368.17932129,27940835.95275879,31520030.975341797,18940847.396850586,25655981.063842773,19086107.25402832,16116134.643554688,16036300.659179688,17626579.28466797,18728084.564208984,21051027.297973633,25337343.215942383,25288875.579833984,59369865.41748047,15582395.553588867,10307300.567626953,13268300.05645752,16817996.978759766,11268573.760986328,5100965.49987793,36594665.52734375,19273242.950439453,18294389.724731445,17247001.64794922,8120984.077453613,11020833.969116211,9151031.494140625,32447864.532470703,11990502.35748291,5932657.718658447,10706933.975219727,14630111.694335938,13085036.277770996,9091506.004333496,8997541.427612305,15912794.11315918,25730318.069458008,-3039300.9185791016,1813858.8666915894,5103203.296661377,-11554771.423339844,13159139.633178711,12451499.938964844,8784778.594970703,17470485.68725586,15660093.307495117,9307585.716247559,7586934.0896606445,2055881.5002441406,926403.9397239685,18692266.4642334,17964468.002319336,18295476.91345215,15707165.718078613,11419470.78704834,5227094.650268555,229041.77010059357,18883741.37878418,19077800.750732422,22317321.77734375,18570867.53845215,14876673.698425293
0.225,24735530.853271484,26120317.459106445,30595100.40283203,17036312.103271484,24044414.520263672,18044281.005859375,14997278.213500977,15109061.241149902,16586658.477783203,18440410.614013672,20696205.139160156,25703813.552856445,26718021.392822266,66081283.56933594,16139120.101928711,9608218.1930542,12976803.77960205,15757872.581481934,11750004.768371582,5171409.130096436,37741603.85131836,21161285.400390625,22201553.344726562,18020973.205566406,8101653.099060059,11823880.195617676,10115613.93737793,33502002.716064453,13328893.661499023,7187809.467315674,12845664.978027344,18376018.524169922,12946981.430053711,8942804.336547852,8835214.614868164,16492582.321166992,25755817.413330078,-1867558.7177276611,2380624.771118164,6534830.570220947,-7848226.070404053,13066886.901855469,12261180.877685547,8708184.242248535,15784832.000732422,13589594.841003418,7326420.783996582,7266912.937164307,1929432.5113296509,2292482.614517212,18332029.342651367,17942846.298217773,18092899.322509766,12268484.115600586,8477112.770080566,3062358.1409454346,-385142.44556427,18732387.54272461,19046575.54626465,20415258.407592773,16404630.661010742,14848401.069641113
0.23,23907833.099365234,24615388.870239258,29956216.81213379,16054895.401000977,23219169.61669922,12452386.856079102,14800770.75958252,14929609.298706055,16066982.26928711,16867994.30847168,19284072.875976562,25246238.708496094,24388435.36376953,53715709.6862793,16065443.03894043,10058560.371398926,12902506.828308105,15264034.271240234,11607913.970947266,5661099.910736084,39025516.510009766,19891107.5592041,18263381.958007812,19284072.875976562,10764333.724975586,14012528.419494629,11794602.394104004,35059074.40185547,15212197.303771973,9746006.01196289,14198239.32647705,15756639.48059082,18083801.26953125,12081836.700439453,11977329.25415039,17997888.565063477,26274566.650390625,-1217687.8452301025,4732872.96295166,9702743.530273438,-5540654.65927124,18258352.279663086,17384262.084960938,11911872.863769531,15447288.513183594,13146915.435791016,7286566.734313965,10074314.11743164,5331332.683563232,7444524.28817749,21577415.466308594,21288393.020629883,21403728.485107422,11623963.356018066,10342908.85925293,6764323.711395264,3967590.33203125,21897621.154785156,22345773.696899414,22255504.608154297,21379798.889160156,24914161.682128906
0.235,26044853.21044922,24736597.061157227,28876264.572143555,18045978.546142578,23023378.372192383,7486804.485321045,16890113.830566406,16847087.860107422,17670698.165893555,15537712.097167969,17702877.044677734,23434486.389160156,17781774.520874023,27893087.38708496,14553508.758544922,11468868.255615234,14430372.23815918,16853210.44921875,11127087.593078613,5926893.23425293,38657669.06738281,14425623.893737793,6245136.737823486,18912708.282470703,13336547.8515625,15726539.611816406,13195178.031921387,35681861.877441406,15592925.071716309,10479823.112487793,12014970.779418945,5638465.881347656,22292352.6763916,14957798.00415039,14872759.819030762,18897378.92150879,27119621.27685547,-2236365.795135498,5363033.294677734,10311361.312866211,-8796028.137207031,22423793.79272461,21519121.170043945,14786586.76147461,16324039.459228516,14498720.169067383,8303979.873657227,11812150.955200195,6970109.939575195,9120031.356811523,24382495.880126953,24034372.329711914,24187969.207763672,13150179.862976074,13209900.856018066,10321236.610412598,6610987.663269043,24549045.56274414,25011178.970336914,24046596.52709961,27037214.279174805,33117588.04321289
0.24,27574459.075927734,24682006.8359375,26820144.653320312,20584447.860717773,22203639.98413086,7003762.245178223,19260034.561157227,19008445.739746094,19775968.551635742,15126273.155212402,16714801.788330078,21330989.837646484,11559360.50415039,10382493.019104004,13161441.802978516,12495559.692382812,16369628.90625,18859312.057495117,10736809.730529785,5402985.572814941,36767269.134521484,8797033.309936523,-4040369.5106506348,17633428.5736084,13896420.4788208,16020393.371582031,13354434.967041016,35358528.13720703,13966150.283813477,8369733.810424805,7904304.504394531,-4068504.810333252,22388511.657714844,15271753.311157227,15250246.047973633,18382665.634155273,27701677.322387695,-3910970.449447632,2715066.909790039,7169671.058654785,-14572393.417358398,22401756.286621094,21514131.546020508,15044034.004211426,17702573.776245117,16091325.759887695,8737396.240234375,9855161.666870117,3998915.672302246,5612842.082977295,25602863.311767578,25209049.224853516,25306732.177734375,14703870.77331543,12554694.175720215,8657726.287841797,3858012.1994018555,25820695.877075195,26198833.465576172,23514753.341674805,26498268.127441406,30968505.859375
0.245,25168655.395507812,22829172.134399414,25361232.75756836,19871904.373168945,20716241.83654785,8727654.457092285,18855058.670043945,18503473.28186035,19324228.286743164,14445052.146911621,16126174.926757812,20718122.482299805,10866428.37524414,13474595.069885254,13930304.527282715,12072660.446166992,16106210.708618164,18379083.63342285,10006782.531738281,4371329.307556152,35594570.15991211,8027295.112609863,-3665700.1972198486,18165460.58654785,13456007.00378418,15222259.521484375,11867841.720581055,34492340.087890625,12251914.978027344,6158905.029296875,6454892.158508301,-4954232.692718506,22006111.14501953,14641372.680664062,14692506.790161133,17386453.62854004,27688037.872314453,-4297257.423400879,-204807.16228485107,4403831.481933594,-16205095.291137695,21916774.74975586,21116456.985473633,14373567.581176758,19002422.332763672,16818590.16418457,8611190.795898438,6937154.769897461,437801.65910720825,3130774.2595672607,27609888.076782227,27131969.451904297,27128253.936767578,15544811.248779297,9631222.72491455,4793355.464935303,221986.60671710968,27944501.876831055,28294475.555419922,23228454.58984375,22692867.279052734,24851448.05908203
0.25,21076520.919799805,21500288.009643555,27408643.72253418,16238630.294799805,20694810.86730957,8699575.424194336,15877826.690673828,15534440.040588379,16265350.341796875,12762276.649475098,15897933.006286621,22806007.385253906,16942996.978759766,30264064.78881836,16685380.935668945,10703961.372375488,13475574.493408203,15493603.706359863,8630337.715148926,3974238.634109497,37208122.25341797,13365139.961242676,6979285.24017334,21216478.34777832,13702805.519104004,14116339.683532715,9542296.409606934,33382976.531982422,12760313.987731934,7138628.4828186035,10221834.182739258,3630287.4088287354,24395711.89880371,15201219.55871582,15210165.023803711,17127243.041992188,27449893.951416016,-3146097.8984832764,565615.8328056335,6310895.4429626465,-11346822.738647461,24286903.381347656,23594129.56237793,14940161.70501709,19328687.66784668,16616453.170776367,9102178.573608398,7253549.098968506,1603295.6838607788,6498831.272125244,30327457.427978516,29633197.784423828,29641714.096069336,15617815.017700195,8606405.258178711,4692391.395568848,1585013.6280059814,30574581.146240234,31006200.790405273,25337377.548217773,23024284.36279297,25921833.038330078
0.255,19741701.126098633,23619770.050048828,32886722.564697266,13603770.25604248,23289001.46484375,7294034.004211426,13490787.506103516,13164642.333984375,13773731.231689453,11328550.338745117,16528694.152832031,26888271.33178711,26557035.446166992,48818290.71044922,18857275.009155273,9518111.228942871,11100658.416748047,13197199.821472168,7401268.005371094,4795228.958129883,41012733.459472656,21570196.1517334,20710275.650024414,23855661.392211914,14010256.76727295,13010015.487670898,7841285.228729248,32509326.934814453,15463894.844055176,10989336.013793945,16890096.66442871,15471108.436584473,26490606.3079834,15928357.124328613,15737438.201904297,17490360.260009766,27894115.447998047,-2140578.508377075,4911791.801452637,11777485.847473145,-3995069.5037841797,26465373.992919922,25794742.584228516,15694527.626037598,18136524.200439453,16146541.595458984,10985628.128051758,10986711.502075195,6905250.072479248,12199818.61114502,30203182.220458984,29340026.85546875,29438158.03527832,15004483.222961426,10631175.04119873,8748144.149780273,6846992.015838623,30305252.075195312,30788429.260253906,27796779.63256836,27917190.551757812,34210445.404052734
0.26,21421422.958374023,27413728.713989258,37470542.907714844,14033874.51171875,26112421.0357666,7713064.193725586,13567324.6383667,13204810.14251709,13969243.049621582,11379768.371582031,17704587.936401367,30257848.739624023,34405967.712402344,63904933.92944336,18344846.725463867,8718338.966369629,10727483.749389648,13306608.200073242,7173284.530639648,5865372.180938721,44203739.166259766,28033296.585083008,30767416.00036621,23092037.200927734,12597041.130065918,11877951.622009277,7449853.420257568,32213264.46533203,18020009.994506836,14303081.512451172,21908260.345458984,24153867.721557617,24205642.700195312,14721184.730529785,14336932.182312012,17724769.592285156,29694091.796875,-2416307.210922241,9069108.009338379,16094585.418701172,1058247.5662231445,24326467.514038086,23574905.395507812,14533046.72241211,16866947.174072266,16731662.75024414,14268240.928649902,14961401.93939209,11554585.456848145,14200473.78540039,26877021.78955078,26134468.07861328,26247827.529907227,15566892.623901367,14243780.136108398,12850214.958190918,10540488.243103027,27165538.787841797,27523880.004882812,28901157.37915039,31819387.435913086,40187076.568603516
0.265,22980724.334716797,28609806.060791016,37787357.330322266,15762206.077575684,26142072.677612305,10561610.221862793,14988052.368164062,14552563.667297363,15686213.493347168,12027990.341186523,18002319.3359375,30634431.838989258,36838928.22265625,73060111.99951172,16206199.645996094,8120223.045349121,11446047.78289795,14676156.044006348,7549157.619476318,5890694.141387939,45013683.3190918,30357583.99963379,34411930.084228516,20143068.313598633,10110460.28137207,11236534.118652344,7897983.551025391,32042949.676513672,18612035.751342773,14943473.815917969,23080440.521240234,27310476.303100586,19962928.771972656,12568085.670471191,12189311.981201172,17956321.716308594,32418754.57763672,-3152541.8758392334,10300429.344177246,16938163.75732422,2847185.8501434326,20182029.724121094,19357643.127441406,12475908.279418945,17947483.06274414,19272155.76171875,18008310.317993164,16934383.392333984,13122615.814208984,12520649.909973145,25365583.419799805,24891254.425048828,24991798.400878906,19641038.89465332,18380973.81591797,14847425.46081543,10771912.574768066,26125263.214111328,26246826.171875,30839546.20361328,32640529.63256836,39113746.643066406
0.27,23652803.421020508,27167526.245117188,35862564.08691406,17064855.575561523,24186397.552490234,13980891.227722168,16569025.039672852,16052362.442016602,17307100.296020508,11921204.566955566,17039569.854736328,28958198.54736328,34933246.61254883,73973396.30126953,16108860.01586914,8839360.237121582,12361789.70336914,16043844.223022461,7823810.577392578,5143178.939819336,44645160.67504883,29742471.69494629,33169887.54272461,19629230.499267578,9878769.874572754,12206781.387329102,8751026.153564453,31551578.521728516,17921680.450439453,14045563.697814941,21796859.741210938,26683664.321899414,19772968.292236328,12689565.658569336,12463311.195373535,18839958.19091797,34621650.69580078,-3253825.6645202637,9073451.99584961,15857559.204101562,2800174.2362976074,19952732.08618164,19144046.783447266,12715251.922607422,21102653.50341797,22275152.2064209,19923057.556152344,16688585.28137207,12607333.183288574,11184345.245361328,28462396.6217041,27997720.71838379,28226932.525634766,25210439.682006836,21337600.708007812,15187631.607055664,9802055.358886719,29428495.407104492,29421718.59741211,34855663.29956055,32886852.264404297,35735462.1887207
0.275,25841804.50439453,27561689.376831055,36007171.630859375,19171140.670776367,23949071.884155273,17735420.22705078,19222530.364990234,18618143.08166504,19520187.377929688,12068072.319030762,16764841.079711914,28519699.096679688,33352470.39794922,69981506.34765625,20448101.043701172,12527524.948120117,14625045.776367188,18319175.720214844,8712425.231933594,5271873.950958252,45363647.4609375,29162652.96936035,31221569.061279297,24120391.845703125,13806075.096130371,15172841.07208252,10294998.168945312,31593938.82751465,17882192.611694336,13601161.95678711,20400800.704956055,25697896.95739746,24388202.667236328,15751719.47479248,15594725.608825684,20017841.339111328,35104339.599609375,-3040863.513946533,7108828.544616699,14664730.072021484,1537447.8101730347,24451595.306396484,23675193.786621094,15802188.873291016,22557531.356811523,22462236.404418945,17955642.700195312,14397151.947021484,10625765.800476074,10600447.654724121,31722909.927368164,30926481.246948242,31345098.4954834,26071823.120117188,19690351.486206055,13202525.13885498,8402165.412902832,32309371.948242188,32398002.62451172,36938087.463378906,32717720.03173828,35047138.21411133
0.28,30292211.532592773,32005661.010742188,38942047.119140625,23549707.412719727,26998069.763183594,22836547.8515625,23666265.4876709,22987260.818481445,23417602.5390625,14831808.090209961,19250591.278076172,30978794.09790039,35131675.720214844,69349258.42285156,27000572.204589844,18237945.556640625,18981948.852539062,22426984.786987305,11579033.851623535,7249949.932098389,47562877.6550293,30204473.4954834,31818698.88305664,30594509.12475586,19273534.774780273,18647445.678710938,12506652.83203125,33438011.169433594,19245063.78173828,13994809.1506958,19865360.260009766,26465993.881225586,28323202.13317871,18575962.06665039,18334337.23449707,20235149.383544922,34065483.09326172,-3236778.0208587646,5554555.892944336,13495165.824890137,-702574.3722915649,28367397.30834961,27517230.987548828,18489377.975463867,19705303.192138672,18756601.333618164,13202876.091003418,10844069.480895996,7026754.379272461,7876844.882965088,30259277.34375,29175975.799560547,29542354.583740234,19826652.52685547,12763508.796691895,8202244.758605957,5169870.376586914,30255050.659179688,30537530.89904785,33383205.41381836,29481168.746948242,35781513.21411133
0.285,34011478.424072266,37059394.83642578,41639228.82080078,28226036.071777344,30950628.28063965,27431955.337524414,27687225.341796875,27008216.857910156,27324531.55517578,20017095.5657959,23705036.163330078,34539131.16455078,38610561.37084961,75112251.28173828,30388660.430908203,21784742.35534668,23003730.77392578,26420543.670654297,15778873.443603516,10134249.687194824,49761455.53588867,32004585.26611328,34378463.74511719,33324886.322021484,21355087.280273438,20232383.728027344,14146433.83026123,36334827.4230957,21145534.51538086,14716900.825500488,20150947.57080078,28505142.211914062,27404844.284057617,18211933.135986328,17920972.82409668,19184280.395507812,32834598.541259766,-3332751.0356903076,5302085.876464844,12556752.20489502,-2279356.9564819336,27598016.7388916,26573032.37915039,17933017.73071289,15207252.502441406,14533417.701721191,9862261.772155762,8591762.54272461,3811165.0943756104,3306381.2255859375,26349946.975708008,25336801.528930664,25370805.740356445,12539972.305297852,6094859.600067139,3324794.5308685303,1078466.773033142,26128812.789916992,26501159.66796875,27591260.91003418,24305049.896240234,34604183.197021484
0.29,33915016.174316406,38267784.118652344,41921146.392822266,29334873.19946289,32822647.094726562,27265638.35144043,27969745.635986328,27397588.7298584,27994619.369506836,24019340.51513672,27007211.685180664,36540897.369384766,40328327.17895508,81422195.43457031,27442338.943481445,19833864.212036133,23244237.899780273,27017381.66809082,18379592.895507812,12022541.046142578,50829185.485839844,32966205.596923828,35813529.96826172,29849502.563476562,17897865.295410156,18907241.821289062,13874312.400817871,37541187.28637695,22479999.542236328,15681173.324584961,21008214.950561523,29933273.315429688,22958730.697631836,15233318.328857422,15071844.100952148,18031541.82434082,32446929.931640625,-2578240.394592285,6697191.23840332,12684616.088867188,-1806927.9193878174,23335975.646972656,22163682.93762207,14899099.349975586,13912839.889526367,13953343.391418457,10659818.649291992,9691929.817199707,3904704.5707702637,697712.7194404602,25005163.192749023,24251333.236694336,24047916.412353516,11388063.430786133,5583832.263946533,2967401.9813537598,-448628.33619117737,25012861.251831055,25341117.85888672,25617702.48413086,22142097.47314453,31471971.51184082
0.295,30163383.48388672,35221740.72265625,40189105.98754883,25878719.329833984,31859382.62939453,21479312.896728516,24260959.62524414,23831991.19567871,24768650.05493164,23615049.362182617,26865240.0970459,36176445.00732422,39101947.78442383,81958854.67529297,20692283.630371094,14064604.759216309,19644382.47680664,23698816.299438477,17322820.66345215,11769850.730895996,50726310.72998047,32266998.291015625,34156997.68066406,23381401.06201172,11868562.698364258,16068899.154663086,12002775.192260742,35663269.04296875,22730876.922607422,16512290.954589844,21401618.95751953,29140569.68688965,18559486.389160156,12397706.031799316,12407363.891601562,17715837.478637695,32716850.28076172,-1882325.0532150269,8193890.571594238,13217935.562133789,-1057020.664215088,18995199.20349121,17797559.73815918,12188058.853149414,16533876.419067383,16830999.37438965,13512656.211853027,12258569.717407227,6371670.722961426,1119015.5744552612,25627590.17944336,24984151.84020996,24922060.012817383,15302198.41003418,9490523.338317871,6169620.513916016,1032783.5083007812,25895343.780517578,26197420.120239258,27119932.174682617,23907194.137573242,28360862.731933594
0.3,25574337.005615234,30797771.453857422,37339782.71484375,21243986.129760742,28863000.869750977,15306033.13446045,20174690.24658203,19820531.845092773,20851671.21887207,19547204.971313477,23692287.44506836,34077529.90722656,35951232.91015625,76588523.8647461,16252462.387084961,10061079.025268555,15947299.95727539,19742103.576660156,14020069.122314453,9849344.253540039,49530242.919921875,29786775.588989258,29969558.715820312,19757148.74267578,8830350.875854492,14375197.410583496,10376834.869384766,32752273.559570312,21830886.840820312,16019298.553466797,19781049.728393555,25631782.53173828,16823379.516601562,11859826.08795166,11862344.741821289,17830453.872680664,32706123.35205078,-2847690.3438568115,7483863.353729248,12126307.487487793,-2999531.5074920654,17209108.352661133,16077177.047729492,11762434.005737305,19199003.219604492,19224081.03942871,14374079.704284668,12338495.254516602,6985346.794128418,1780142.1880722046,24638208.389282227,23923868.17932129,24145759.58251953,17686079.025268555,11211513.51928711,7532473.087310791,2048462.6293182373,24887523.651123047,25286636.352539062,27051237.106323242,24958240.509033203,26587823.86779785
0.305,23710536.95678711,27953969.955444336,34172523.498535156,19822679.51965332,25194164.276123047,14953082.084655762,19640752.7923584,19292121.88720703,20068256.378173828,15725084.30480957,19947618.48449707,31160758.97216797,31864849.090576172,67679153.44238281,18275491.71447754,11958827.018737793,15695449.829101562,18939189.910888672,11939055.442810059,8082156.181335449,47555217.74291992,26012462.615966797,24741283.416748047,22429798.126220703,12125178.337097168,15711277.00805664,10501199.722290039,31675733.56628418,20368804.931640625,14105759.620666504,16313697.814941406,20248348.236083984,19777950.286865234,14421583.17565918,14243805.885314941,17791692.73376465,31832550.048828125,-4979653.358459473,5031383.991241455,9474465.370178223,-7043949.127197266,20127111.434936523,19070720.672607422,14206747.055053711,19241273.880004883,18764068.603515625,12425971.031188965,9549480.438232422,4530183.3152771,1512841.5822982788,23995309.829711914,23239719.39086914,23442432.403564453,16584697.723388672,9095521.926879883,5311456.680297852,915717.8401947021,24025772.094726562,24563301.08642578,25259273.529052734,23421619.415283203,27506135.940551758
0.31,27212236.404418945,28613067.626953125,32712352.752685547,23053194.046020508,23114477.157592773,21154726.028442383,23403373.71826172,23081377.029418945,23334020.614624023,15512276.649475098,18454683.303833008,28975896.83532715,27688920.974731445,56421871.185302734,25499435.424804688,18722620.010375977,19132806.7779541,22179155.349731445,12927624.702453613,8229038.238525391,46225543.97583008,22377962.112426758,19511449.813842773,29843955.993652344,19926738.739013672,19799737.93029785,12274575.233459473,32246772.76611328,19629541.397094727,12780411.720275879,13452707.290649414,14910961.151123047,27678607.940673828,19509790.420532227,19167798.99597168,18065338.134765625,30424871.44470215,-5960395.812988281,4032545.0897216797,7947234.153747559,-9600838.661193848,28013544.0826416,27027172.088623047,18984920.501708984,18289936.065673828,16970813.751220703,10270539.283752441,7607716.083526611,2474130.153656006,1917116.5227890015,28927196.502685547,28217071.533203125,28047260.284423828,16137121.200561523,7722357.273101807,3533095.121383667,43157.71907567978,28729881.286621094,29326396.942138672,26911975.860595703,23510929.107666016,32041633.60595703
0.315,35086029.052734375,32949951.171875,34650180.81665039,28484315.872192383,24457878.11279297,28825077.056884766,28735979.080200195,28461910.247802734,28232685.089111328,18956922.53112793,20431022.64404297,29128076.553344727,24604671.478271484,45372947.692871094,32469902.03857422,25317224.502563477,23713306.427001953,27053203.582763672,15553316.116333008,10065496.444702148,46742656.70776367,20047861.099243164,14577086.448669434,36557826.99584961,26483215.33203125,23970962.524414062,14330605.506896973,31819746.017456055,20203866.958618164,13242673.873901367,12458662.986755371,10808387.756347656,35652660.36987305,24336814.880371094,23957874.298095703,19111463.54675293,29337175.369262695,-5147979.259490967,5337991.237640381,8192376.136779785,-10223051.071166992,35879314.42260742,35015636.4440918,23603208.541870117,18499494.552612305,15958758.354187012,9483255.386352539,8274039.268493652,2633256.196975708,1711633.0862045288,37046665.19165039,36309844.970703125,35812564.849853516,18005954.74243164,9019310.95123291,4358162.403106689,383662.76025772095,36652404.78515625,37255874.63378906,32237262.725830078,27062847.137451172,36968246.45996094
0.32,41683631.896972656,38086517.333984375,38032150.26855469,32019687.65258789,27714303.970336914,32571189.880371094,31912796.020507812,31559223.175048828,31279432.29675293,23010585.78491211,24018789.291381836,30850305.557250977,22787595.748901367,39524566.650390625,34158580.7800293,27203479.766845703,26423446.655273438,30089921.951293945,16968019.485473633,11137864.112854004,47778831.481933594,18191446.30432129,9789074.897766113,37488311.767578125,26963485.717773438,24792249.67956543,15147747.993469238,29536184.310913086,20806411.743164062,13346666.33605957,11094779.968261719,7214507.102966309,36134452.81982422,24974689.483642578,24654096.603393555,19940734.86328125,29183567.04711914,-4640303.134918213,5283552.169799805,6887604.713439941,-12830924.034118652,36138458.251953125,35459465.02685547,24369173.049926758,18889925.003051758,15554450.035095215,8834844.589233398,8530974.388122559,1819613.5759353638,-3633581.3999176025,38447914.123535156,37556777.95410156,37111335.75439453,18119070.053100586,8746924.40032959,3986389.636993408,-1517098.7844467163,37880226.135253906,38549198.150634766,33704650.87890625,28242336.27319336,35597450.256347656
0.325,41737079.62036133,39741836.54785156,38680767.05932617,31530658.721923828,28807758.331298828,31895391.4642334,31372552.8717041,30732749.938964844,30838520.050048828,24399749.755859375,25610576.629638672,31100145.33996582,21004344.940185547,41321903.228759766,30362539.291381836,24270666.122436523,25953973.7701416,29692914.962768555,16003620.147705078,9550391.19720459,46887065.88745117,15470499.992370605,5746875.762939453,32544700.622558594,21971757.888793945,21343473.434448242,14115219.116210938,27798654.556274414,19954015.731811523,10790423.393249512,7477623.93951416,3767552.137374878,27732549.6673584,20510719.299316406,20307981.491088867,19184410.095214844,29846202.850341797,-5766540.050506592,1398528.0990600586,2369200.7064819336,-18548519.134521484,27572267.532348633,27009428.024291992,20275054.931640625,17747444.15283203,15035169.60144043,7558795.928955078,6003437.519073486,-2200402.4982452393,-13777388.572692871,29483587.26501465,28501192.092895508,28392623.901367188,14324769.973754883,4421254.1580200195,-526673.6745834351,-7475337.982177734,28864191.05529785,29651760.10131836,27253339.767456055,22271146.774291992,26084205.627441406
0.33,36801193.23730469,36972274.78027344,35774024.963378906,28737646.102905273,26277416.229248047,30464424.13330078,28946704.864501953,27985925.674438477,28402753.829956055,22653045.654296875,23753963.470458984,28722490.310668945,18989295.959472656,46639183.044433594,25559459.686279297,20556804.656982422,23657638.549804688,27403505.325317383,14121800.422668457,6681206.703186035,44581523.89526367,13204932.21282959,4331690.788269043,26791944.50378418,16867258.071899414,16871694.564819336,12107851.028442383,28506626.12915039,18603406.90612793,7814617.156982422,4517777.442932129,2684047.4605560303,18385839.462280273,15178823.471069336,15136142.73071289,17365308.76159668,30626968.383789062,-6608695.507049561,-2268169.403076172,-771584.4511985779,-21743537.90283203,18284027.099609375,17608964.920043945,15230037.689208984,16407833.099365234,15574805.25970459,7744026.184082031,3926228.0464172363,-5204809.188842773,-20384397.506713867,19354778.289794922,18511613.845825195,18684978.485107422,11637558.937072754,1231604.5761108398,-4688535.690307617,-12309231.758117676,18903327.94189453,19735361.099243164,20112556.45751953,14940936.088562012,16533494.94934082
0.335,33674545.28808594,33705631.256103516,33293567.657470703,27210525.512695312,23623790.740966797,30482002.25830078,27715145.111083984,26629880.905151367,26907077.78930664,20342540.740966797,21056301.11694336,26626483.917236328,18321962.356567383,47468734.74121094,23636751.174926758,19662792.205810547,22244728.088378906,26098958.96911621,13514821.05255127,5797516.822814941,44337684.631347656,14065458.297729492,5938673.973083496,24731986.99951172,15893957.138061523,15663941.383361816,10844076.156616211,29828920.364379883,19202272.415161133,9038830.757141113,6470102.310180664,5265147.686004639,16167591.094970703,13979941.368103027,14041516.304016113,16528511.047363281,30852132.79724121,-4997381.687164307,130299.8960018158,2805032.0148468018,-17697000.50354004,16267875.671386719,15305884.36126709,14030992.50793457,17272253.036499023,18360113.1439209,11222809.791564941,6817386.627197266,-1712304.711341858,-16914413.452148438,18070472.717285156,17480808.25805664,17686662.673950195,15117375.373840332,5098153.114318848,-1977606.5349578857,-9585134.506225586,17925907.135009766,18674589.157104492,21294488.90686035,16105228.424072266,16679864.883422852
0.34,35756847.3815918,33887607.57446289,34493690.490722656,28225751.876831055,24493610.382080078,29638339.99633789,28422134.399414062,27385358.810424805,27415866.85180664,19984098.434448242,20881427.764892578,27652004.24194336,19392309.188842773,39225421.90551758,23413526.53503418,20657619.47631836,22728239.059448242,26668889.99938965,14638052.940368652,7831211.566925049,47344356.536865234,17165699.005126953,7089366.436004639,25090684.89074707,17532506.942749023,17905458.450317383,11019675.254821777,28828802.10876465,21844390.869140625,14379831.314086914,11746137.619018555,7727357.864379883,19407079.696655273,16429409.02709961,16434452.056884766,17283731.46057129,30324424.743652344,-2452527.0462036133,7309107.303619385,10660279.273986816,-10686585.426330566,19600511.55090332,18476221.084594727,16293804.168701172,18970043.182373047,21224067.68798828,15599686.622619629,13044608.116149902,6397227.764129639,-7856270.313262939,23312149.047851562,22839132.30895996,22913162.231445312,21128530.502319336,13155376.434326172,6342332.363128662,-1016595.3636169434,23422376.63269043,24064161.30065918,28321578.979492188,25339086.532592773,24933816.90979004
0.345,39490646.36230469,36766677.85644531,37545436.85913086,29629676.818847656,27474794.387817383,25571258.544921875,29007644.653320312,27986249.923706055,28219449.996948242,21257572.174072266,23031127.9296875,30089607.23876953,19898082.733154297,26342737.197875977,21191320.419311523,19922952.65197754,23358140.94543457,27321943.283081055,16018133.163452148,10171753.883361816,50032367.70629883,18095218.658447266,4409267.425537109,23395284.65270996,17031288.146972656,19456655.502319336,11344863.891601562,26127422.332763672,23493244.171142578,18014619.827270508,13920930.862426758,5497601.9859313965,19941856.384277344,17162967.681884766,17019660.94970703,17670503.616333008,29282760.620117188,-2579503.297805786,11557425.498962402,14670645.713806152,-8619778.633117676,19996059.41772461,19048755.645751953,16882474.899291992,17187139.5111084,20140035.62927246,16214292.526245117,16158964.157104492,11451562.881469727,-3432573.3184814453,24919019.69909668,24377138.137817383,24359008.7890625,21231990.814208984,16655761.71875,11968345.642089844,4735792.16003418,25144746.780395508,25762720.108032227,30330587.38708496,31403978.34777832,29202655.792236328
0.35,40438278.19824219,38730930.32836914,38663269.04296875,29182912.826538086,28406362.533569336,21513961.791992188,27932909.01184082,26870399.475097656,27595102.310180664,22009983.06274414,24561950.68359375,30331674.575805664,18885360.717773438,20913482.666015625,17018974.30419922,16718063.354492188,22383861.541748047,26493654.251098633,16304395.67565918,10298458.099365234,49050617.21801758,15701466.56036377,1220361.590385437,19041286.46850586,12934135.437011719,17484092.712402344,10184479.713439941,25261081.69555664,22173095.703125,16113668.441772461,10902196.884155273,1598453.164100647,14548198.699951172,13189907.07397461,12985292.434692383,15967183.113098145,28282825.469970703,-5941123.962402344,9096611.022949219,11840091.705322266,-11492944.717407227,14397065.162658691,13783368.110656738,12897345.542907715,11186649.322509766,14806002.616882324,12278082.847595215,13666505.813598633,9956890.106201172,-7327413.082122803,19150428.771972656,18538307.189941406,18584981.91833496,13850714.683532715,12561705.589294434,10164311.408996582,2827631.711959839,19402500.15258789,20050891.876220703,23268217.086791992,27222288.131713867,22384262.084960938
0.355,38747165.67993164,38041061.40136719,37383152.00805664,27335031.509399414,26478260.040283203,22685913.0859375,26221269.607543945,25248489.379882812,26042243.95751953,21193008.422851562,24142833.709716797,28543987.274169922,19344244.0032959,30558265.686035156,15012969.970703125,14338771.82006836,20567678.451538086,24897024.154663086,15662722.58758545,8910781.860351562,46275856.018066406,14617594.718933105,4391408.443450928,16307552.337646484,8911604.881286621,14216228.485107422,7909228.324890137,27306343.07861328,19864614.486694336,12113132.47680664,7994606.018066406,3633060.6937408447,8490929.60357666,8038432.1212768555,7877755.641937256,13531482.696533203,28158943.17626953,-9149372.100830078,4878278.2554626465,7812397.480010986,-12337850.570678711,8326303.482055664,7819830.894470215,7787827.014923096,6315902.233123779,10333312.034606934,8489255.905151367,10137118.339538574,6209335.3271484375,-14431727.409362793,12159330.368041992,11582914.352416992,11820053.100585938,6730394.36340332,6986674.3087768555,4944176.67388916,-2742434.501647949,12386282.920837402,13027380.94329834,14941193.580627441,18842090.606689453,11984951.01928711
0.36,36981742.85888672,36117309.5703125,36592674.255371094,25963687.896728516,25167678.833007812,28121788.024902344,25553384.78088379,24808433.532714844,25071859.35974121,19761955.26123047,23542331.69555664,28415420.532226562,23757717.13256836,47366035.46142578,17355224.609375,15287609.100341797,19795469.284057617,24035631.17980957,14957036.972045898,8299350.738525391,46010559.08203125,18361951.82800293,13646149.635314941,18110343.93310547,8731268.882751465,13559598.922729492,6641123.7716674805,29192565.91796875,19612775.802612305,11634428.024291992,9831836.700439453,11645884.51385498,7706840.991973877,7179182.529449463,7006644.725799561,13381162.643432617,29566204.071044922,-9423187.255859375,4983322.1435546875,8236050.605773926,-8938906.6696167,7750407.695770264,7043598.175048828,6947209.83505249,7814432.621002197,11549601.554870605,9253680.229187012,10335654.258728027,5258983.135223389,-18896129.608154297,10484443.664550781,9898966.789245605,10337254.524230957,6778930.6640625,6284718.5134887695,2606554.5082092285,-5685129.165649414,10599440.574645996,11185029.983520508,13638051.986694336,16100292.205810547,10006821.632385254
0.365,36870353.69873047,35751625.061035156,38658283.23364258,26472492.218017578,27523252.487182617,32305080.41381836,26558069.229125977,25880926.13220215,25634057.998657227,19428598.403930664,24973043.44177246,31684728.622436523,29198997.497558594,54607498.16894531,22097076.416015625,18570787.42980957,20824262.619018555,24667663.57421875,14702205.657958984,9147558.212280273,48872856.14013672,23460882.18688965,19812023.162841797,22851306.915283203,12157537.460327148,16111347.198486328,7786330.223083496,28592266.082763672,21408010.482788086,14890086.17401123,13847543.716430664,16445703.506469727,12077745.43762207,11422592.163085938,11135034.561157227,16313545.227050781,32035274.505615234,-7709243.297576904,8490643.501281738,11552469.253540039,-6793351.173400879,12310384.750366211,11409537.315368652,11197227.478027344,14066317.558288574,16998420.71533203,13186671.257019043,13071995.735168457,6737674.236297607,-19335939.407348633,14029357.91015625,13223211.288452148,13764492.988586426,11914426.803588867,9319112.777709961,4083627.223968506,-4782798.767089844,13956926.345825195,14517237.663269043,18010267.25769043,19682367.3248291,17215364.456176758
0.37,40682704.92553711,39470615.38696289,43301002.502441406,30279005.05065918,32868576.049804688,35594654.08325195,30151494.9798584,29221986.770629883,28884405.1361084,21558174.13330078,28697980.880737305,35965782.165527344,30429727.55432129,46231300.354003906,28138429.641723633,23274461.74621582,24027355.194091797,27850971.221923828,15384508.13293457,10549528.121948242,51697181.701660156,24276649.475097656,16682289.123535156,28873357.77282715,17225751.876831055,19872653.96118164,10803164.4821167,27691112.518310547,22962129.592895508,17624156.951904297,15249060.63079834,13086643.21899414,18094816.207885742,17132293.701171875,16796260.833740234,19890897.750854492,33817302.70385742,-6335148.334503174,10428871.154785156,13424002.647399902,-8608113.288879395,18290708.541870117,17446462.631225586,16916843.41430664,18722335.815429688,20817451.47705078,15413713.455200195,14448554.992675781,7921426.773071289,-16499143.600463867,19352285.385131836,18235631.942749023,18726131.439208984,15501749.038696289,11201315.879821777,6266865.7302856445,-2425447.702407837,19138488.76953125,19757392.88330078,21785621.643066406,22975769.04296875,23944202.423095703
0.375,50955474.853515625,47470184.326171875,48035549.16381836,38374713.89770508,37934913.635253906,45250503.54003906,37679260.25390625,36459724.42626953,36000537.87231445,26223049.16381836,33057369.232177734,37981716.15600586,26291069.03076172,32717155.45654297,37620151.51977539,31012557.983398438,30282022.47619629,34857814.78881836,17473222.732543945,11835508.346557617,52313934.326171875,20581165.313720703,8651048.66027832,37538455.963134766,23761922.83630371,24060300.827026367,14278697.01385498,29554019.927978516,23216173.17199707,17512359.619140625,14030125.617980957,7932538.5093688965,24153018.951416016,21504831.314086914,21288780.212402344,21475057.60192871,33457866.668701172,-5822813.987731934,9362456.321716309,13508855.819702148,-9409965.515136719,24166746.139526367,23478773.11706543,21251886.36779785,18604940.41442871,19973838.806152344,14030324.935913086,13851666.450500488,8584780.6930542,-11865956.30645752,24635854.721069336,23417566.299438477,23711761.474609375,15377785.682678223,10836783.409118652,7485703.945159912,100808.747112751,24411945.343017578,25142107.009887695,23417682.647705078,23199983.596801758,24703313.82751465
0.38,64731239.318847656,55347606.65893555,49195186.614990234,48040374.755859375,39315330.505371094,62329307.556152344,47235519.40917969,46008312.2253418,44918979.64477539,30874080.657958984,35285926.818847656,36353187.561035156,19454854.96520996,24054244.995117188,50162765.50292969,41511005.40161133,38380294.79980469,43717025.75683594,19953153.610229492,12478290.557861328,51075500.48828125,15881532.669067383,2228749.7520446777,48594787.59765625,31678913.116455078,28886966.705322266,17014862.060546875,32703117.37060547,22767272.94921875,15750617.980957031,12505752.563476562,7018956.184387207,30044864.654541016,24651798.248291016,24576908.111572266,21022241.592407227,31575929.641723633,-5526996.13571167,7661250.114440918,13448398.59008789,-6518117.427825928,29969383.239746094,29276723.861694336,24275127.410888672,16622140.884399414,17295732.498168945,11729041.09954834,13230313.301086426,9383720.397949219,-9674508.094787598,28950037.002563477,27917448.043823242,27960746.76513672,14787569.046020508,10851467.13256836,8091538.429260254,2239194.869995117,28770956.03942871,29592290.8782959,25668491.36352539,23803216.9342041,23973768.23425293
0.385,72313667.29736328,56342945.09887695,44034080.505371094,52637596.130371094,35170608.52050781,75894332.88574219,52582950.592041016,51487663.26904297,49608448.02856445,31168539.04724121,32797088.623046875,31258687.97302246,11757761.001586914,17766704.559326172,59331920.6237793,49085216.5222168,43401588.439941406,48360759.73510742,20044706.344604492,11087639.808654785,48191612.243652344,11014013.290405273,-3275070.4288482666,56572200.775146484,37656108.85620117,32476871.490478516,17944650.650024414,32785629.272460938,21646753.311157227,13225486.755371094,9527835.845947266,5935283.184051514,33635471.34399414,26731426.239013672,26674589.157104492,20312906.26525879,30336315.155029297,-5740939.140319824,6161727.428436279,11581689.834594727,-6478877.544403076,33640823.36425781,32815044.403076172,26220922.470092773,16725679.397583008,16913722.99194336,11228041.648864746,12422572.135925293,8322109.222412109,-15066053.39050293,30082729.33959961,29288490.295410156,29177696.228027344,16076112.747192383,11837547.302246094,7258410.453796387,1491549.4918823242,29882648.468017578,30733282.0892334,28334922.790527344,26182987.213134766,25650516.510009766
0.39,67483901.97753906,48722896.575927734,34056056.97631836,48465137.48168945,26919858.932495117,76952713.01269531,49640853.88183594,48451705.93261719,46251976.013183594,25512506.48498535,25874019.622802734,24257583.618164062,3982637.643814087,10152974.128723145,59866382.59887695,48414585.11352539,41499950.40893555,44940963.74511719,16270713.806152344,6904975.891113281,43339912.41455078,4889747.619628906,-10446194.648742676,56730064.392089844,37663742.06542969,32026004.791259766,16467788.696289062,29002685.546875,19313449.85961914,9392621.040344238,3088509.3212127686,-843640.6254768372,32280284.881591797,26431982.040405273,26369289.39819336,20430971.145629883,30862421.0357666,-7114939.212799072,3426599.9794006348,5510207.653045654,-14818039.894104004,32399360.65673828,31521560.668945312,25915996.551513672,18873441.696166992,19054479.598999023,11850935.935974121,9417572.975158691,3257489.2044067383,-27022066.116333008,26748622.89428711,26049396.514892578,25968599.319458008,17637887.954711914,11123613.357543945,3321767.3301696777,-4225907.802581787,26485328.674316406,27318702.697753906,27670488.357543945,26025253.295898438,24967828.75061035
0.395,56291042.32788086,38974315.64331055,25129316.329956055,40289661.4074707,19262935.638427734,71108703.61328125,42469352.72216797,40983062.744140625,38859146.11816406,18089191.436767578,18863290.786743164,18695411.682128906,-1260741.949081421,7391119.480133057,55209182.73925781,42156616.2109375,35549480.43823242,37570896.14868164,11172136.306762695,2050486.0877990723,38314052.58178711,-221375.7485151291,-15418229.103088379,52030857.08618164,32760013.580322266,28472949.981689453,13610767.364501953,25200544.357299805,16677343.368530273,5267254.829406738,-3569781.541824341,-8110665.321350098,27331876.754760742,23645210.26611328,23683589.935302734,20934127.807617188,31856525.421142578,-8937394.142150879,-101673.94578456879,-1723796.4868545532,-25042655.94482422,27489200.592041016,26655635.833740234,23287239.07470703,20362405.77697754,20805742.263793945,11643571.853637695,4783656.597137451,-3377753.0193328857,-37088085.17456055,21611019.134521484,20961944.580078125,21005809.783935547,17399108.88671875,7539938.926696777,-2631731.7485809326,-12246494.29321289,21360324.85961914,22171585.083007812,23163837.432861328,20542873.38256836,16944028.854370117
0.4,49999221.80175781,34697731.018066406,22152967.45300293,36171245.57495117,16376791.000366211,69068260.1928711,38744037.62817383,37144359.58862305,34948528.28979492,14754479.40826416,16342821.12121582,17452632.904052734,-1293182.373046875,14113430.02319336,52602218.62792969,37947860.71777344,32184463.500976562,33867435.455322266,8898185.729980469,-50468.59756112099,36556465.14892578,-216173.11239242554,-13222446.44165039,49237415.3137207,28781663.89465332,26395385.7421875,11725146.293640137,24115945.81604004,15695981.0256958,3717506.6471099854,-4763006.687164307,-7538904.666900635,23951206.20727539,21212848.663330078,21337162.017822266,21070285.79711914,31389465.33203125,-9905404.090881348,-1610232.4724197388,-3938565.969467163,-26670463.56201172,24104530.334472656,23270172.119140625,21043767.92907715,20093851.08947754,20497016.90673828,10689742.088317871,1981109.2615127563,-6521217.823028564,-38455814.361572266,19427106.857299805,18949302.673339844,19028688.430786133,16077737.808227539,3901865.005493164,-6644835.948944092,-16881900.787353516,19278285.98022461,20070066.452026367,19806060.791015625,14414303.77960205,7475318.908691406
0.405,51280094.146728516,36035358.42895508,24014375.686645508,37745750.427246094,17698949.813842773,70613006.59179688,40217269.89746094,38820472.717285156,36350013.732910156,16233417.510986328,17990715.02685547,19499076.84326172,2067819.356918335,20638212.203979492,53105400.08544922,38517559.05151367,33376087.188720703,35537666.32080078,10258811.950683594,1245397.448539734,38713665.00854492,4002666.95022583,-7715916.633605957,49726303.10058594,29233808.517456055,27858646.392822266,12042782.7835083,24090646.743774414,16625108.71887207,5446525.573730469,-929430.8423995972,-2137773.5137939453,25209474.563598633,21730764.389038086,21735813.14086914,20785327.911376953,29526634.216308594,-10063902.854919434,-318125.81419944763,-518112.9574775696,-20750490.188598633,25340799.33166504,24478134.155273438,21608806.610107422,19298852.920532227,19289045.333862305,10567504.8828125,2591049.4327545166,-5095407.962799072,-33803234.1003418,21869426.727294922,21592592.239379883,21570135.11657715,15525355.339050293,3223464.4889831543,-6551411.151885986,-16137201.309204102,21812616.3482666,22546224.59411621,21455354.690551758,13953602.79083252,7083349.704742432
0.41,53400352.478027344,37303138.732910156,25394573.211669922,39772315.979003906,19024314.880371094,68520477.29492188,42006847.3815918,40823131.5612793,38308345.794677734,18141927.71911621,19474403.381347656,20853229.522705078,3767065.2866363525,15855574.607849121,52404098.51074219,39733211.517333984,34937614.44091797,37562374.114990234,12252504.348754883,3211064.100265503,41248344.42138672,6534986.0191345215,-7320106.983184814,49436347.96142578,31459201.81274414,29457015.991210938,13254831.314086914,23003730.77392578,17657173.15673828,7444594.383239746,1373630.166053772,-1886412.8589630127,28438608.169555664,23869808.197021484,23656951.904296875,20459627.151489258,28280754.08935547,-10285120.010375977,1051794.2905426025,2347356.5578460693,-17960971.83227539,28471025.466918945,27693819.046020508,23621379.852294922,19039333.34350586,18880428.314208984,11599889.755249023,4202254.772186279,-3179558.515548706,-30852941.513061523,25660814.28527832,25384725.57067871,25275077.81982422,15875804.901123047,4634920.120239258,-4762050.628662109,-13869566.917419434,25642740.24963379,26271802.90222168,25347248.077392578,17924621.58203125,15001107.215881348
0.415,51402042.388916016,35159069.0612793,22876661.30065918,38427349.09057617,17704051.971435547,63562808.990478516,40593139.6484375,39415214.53857422,37153858.18481445,17576059.341430664,18468652.725219727,19526998.51989746,1624223.1130599976,5679659.366607666,49479114.5324707,38118709.564208984,33447143.5546875,36192714.69116211,12558270.454406738,3622325.658798218,40898117.06542969,4132282.257080078,-12873754.501342773,46672592.16308594,31054412.841796875,27256599.42626953,13192378.044128418,22113277.435302734,17609262.466430664,6905167.579650879,-1442151.9041061401,-7823253.154754639,28859207.153320312,23975267.41027832,23736959.45739746,20165752.410888672,28922346.115112305,-10331284.523010254,271753.4899711609,222632.08031654358,-22649700.164794922,28737112.045288086,28089000.701904297,23571521.759033203,18978469.848632812,19335527.420043945,12306710.243225098,3993571.0430145264,-4289848.327636719,-32702190.399169922,26386697.76916504,25901592.254638672,25864713.668823242,15836952.209472656,4681256.7710876465,-5279235.83984375,-14624391.555786133,26377527.236938477,26947523.11706543,25876071.92993164,18996763.229370117,18607074.737548828
0.42,46949893.951416016,31144893.646240234,17852048.873901367,35067611.69433594,14990097.045898438,62918548.583984375,37427371.978759766,36244716.64428711,34129257.20214844,16196319.580078125,16984523.77319336,17429250.717163086,-1741763.2341384888,4501530.170440674,47498348.236083984,34834289.55078125,30194692.611694336,32918167.114257812,12011137.008666992,3114791.8701171875,38433570.861816406,-258675.36664009094,-17301130.294799805,43990360.260009766,27292041.778564453,22078279.495239258,11217099.1897583,23350761.41357422,17088945.388793945,4523262.500762939,-5871932.9833984375,-11318439.483642578,25411623.001098633,20796079.635620117,20756233.21533203,19495059.967041016,30262989.044189453,-9325763.702392578,-1627254.843711853,-4210243.225097656,-27975910.186767578,25238477.70690918,24529254.913330078,20392786.026000977,18601734.161376953,19557640.075683594,11443533.897399902,2144370.3174591064,-7426506.996154785,-36169570.92285156,23423700.3326416,22749479.293823242,22893539.428710938,14777357.10144043,1720154.6430587769,-8991113.662719727,-18484500.885009766,23336362.838745117,23998262.405395508,21944627.76184082,13875271.797180176,10800324.440002441
0.425,42200199.127197266,27558212.280273438,14506802.558898926,31598815.91796875,13587602.615356445,65098968.505859375,34213127.13623047,33233306.884765625,31099233.627319336,16148666.381835938,17304805.755615234,17143396.377563477,-2575188.159942627,13508250.23651123,46448425.29296875,31314533.233642578,27214689.254760742,29907756.805419922,11989286.422729492,3082020.044326782,36838485.71777344,-2061043.9777374268,-15857063.293457031,42186023.7121582,22433076.858520508,17661273.956298828,8317760.467529297,25220335.006713867,16694747.924804688,2768805.503845215,-7105647.563934326,-8094870.567321777,21315475.463867188,16700796.127319336,16803009.033203125,18043476.104736328,30083780.28869629,-7926962.852478027,-2571264.5053863525,-5872785.568237305,-27459205.627441406,21256971.35925293,20334142.684936523,16499927.520751953,17936943.05419922,18704174.041748047,9394371.98638916,721508.5029602051,-9296136.856079102,-37567169.189453125,20494958.877563477,19792984.008789062,20058593.75,13250559.80682373,-2125009.536743164,-12659977.912902832,-21616205.2154541,20161327.362060547,21012632.369995117,18014060.974121094,7900499.34387207,337307.870388031
0.43,36430946.350097656,25600948.333740234,16681636.810302734,27521539.68811035,15193005.561828613,59941356.65893555,30008651.733398438,29293800.354003906,27483201.98059082,16698339.462280273,18919042.587280273,19443763.732910156,1691359.1623306274,23187686.920166016,42077754.974365234,26364011.764526367,23918136.596679688,26589208.602905273,11961956.024169922,3492925.6439208984,37849346.16088867,957255.482673645,-8972221.374511719,38322887.4206543,17949459.075927734,15532201.766967773,5648943.901062012,24823467.254638672,16193372.72644043,3027946.949005127,-4098783.016204834,-1969109.5352172852,19321794.509887695,14149378.776550293,14163121.223449707,15974123.001098633,27752109.52758789,-7905110.3591918945,-1921432.4951171875,-3299259.662628174,-22511129.37927246,19374488.830566406,18432844.161987305,14197466.850280762,16677917.48046875,16670623.779296875,7576867.10357666,1177649.0211486816,-7789441.5855407715,-35660221.099853516,21061147.689819336,20409460.067749023,20655384.063720703,11909646.034240723,-3166087.1505737305,-12064777.374267578,-20203165.05432129,20461015.701293945,21388454.43725586,18214969.635009766,8008487.701416016,-211263.79072666168
0.435,30339120.864868164,26775758.743286133,25038282.39440918,23070695.877075195,20045635.223388672,45250728.607177734,24725944.51904297,24110185.623168945,23179334.64050293,16586818.69506836,20618738.174438477,24121053.69567871,12067736.625671387,32004467.010498047,33452102.661132812,19730272.29309082,19718578.338623047,22575027.465820312,11145918.846130371,3955887.794494629,41368747.71118164,9033440.589904785,2703998.804092407,31234710.693359375,13780456.54296875,14204279.899597168,3864978.313446045,22719947.814941406,16061380.386352539,5554304.599761963,2025799.9897003174,4854030.132293701,18392601.013183594,12846993.446350098,12681109.428405762,14067154.884338379,24820026.397705078,-9225833.892822266,227327.8385400772,1941215.8727645874,-16573341.369628906,18416795.73059082,17762733.459472656,12964341.163635254,14101733.207702637,14091497.421264648,7187100.410461426,3777124.6433258057,-2846088.409423828,-30090702.056884766,23784925.46081543,23174703.59802246,23300598.14453125,10852247.23815918,-32950.542867183685,-6272151.470184326,-13732533.45489502,23223176.956176758,23986261.36779785,21491598.12927246,13870933.532714844,8410582.542419434
0.44,27084514.617919922,31190086.364746094,35115386.962890625,20555109.02404785,26319499.969482422,31577131.271362305,20926414.489746094,20339311.599731445,20287288.665771484,16609336.853027344,22626935.958862305,30256996.154785156,25751213.07373047,45831222.53417969,25423818.588256836,14205246.925354004,16325536.727905273,19725353.240966797,10562586.784362793,4983496.66595459,46121025.08544922,20044769.287109375,17709634.78088379,24147050.857543945,9987286.567687988,12274560.928344727,3242675.304412842,22310214.99633789,17596336.364746094,9838446.617126465,9705239.295959473,14260532.37915039,15707245.826721191,11028530.12084961,10766128.540039062,13060155.868530273,23256126.403808594,-9677492.141723633,3663297.653198242,7927616.119384766,-10093399.047851562,15695005.416870117,15252296.447753906,10974622.72644043,10645882.606506348,12348571.77734375,8462525.367736816,7564540.863037109,3355455.3985595703,-22088050.842285156,23694778.442382812,23166105.270385742,23143411.63635254,9888903.617858887,4382046.699523926,506919.3243980408,-6235558.032989502,23508554.458618164,24016395.568847656,23125484.466552734,18373027.801513672,13945513.725280762
0.445,26479804.99267578,34457221.98486328,39626842.4987793,20187908.172607422,29894678.115844727,26122623.443603516,19561822.89123535,19150630.950927734,19403736.114501953,17354003.90625,24644226.07421875,34838935.85205078,34981155.39550781,59191867.82836914,21100532.53173828,11383858.680725098,14754791.259765625,18689598.083496094,11317605.018615723,6619262.218475342,49562557.220458984,28032989.501953125,28556375.50354004,19537136.07788086,6889715.194702148,9802481.651306152,3379324.6746063232,24436149.59716797,20389085.76965332,13716342.92602539,15341446.876525879,23017974.853515625,10733754.15802002,8154033.660888672,7852189.064025879,12828951.835632324,23598852.157592773,-8149168.014526367,6882109.642028809,12244199.752807617,-4732710.838317871,10849602.699279785,10199945.449829102,7887014.865875244,8321297.645568848,12775737.762451172,10577519.416809082,10240407.943725586,6764249.324798584,-16325778.96118164,18430524.826049805,18041469.57397461,17921752.9296875,9080536.842346191,5663746.356964111,2439727.783203125,-3529003.143310547,18537736.892700195,18972017.288208008,20503145.217895508,16643133.163452148,9862517.356872559
0.45,24158185.958862305,31569704.055786133,35684532.165527344,18869598.388671875,27693439.483642578,23504936.21826172,18068983.07800293,17882757.18688965,18024204.25415039,16953701.01928711,24416816.71142578,34337539.67285156,33567646.02661133,56944805.14526367,17939460.75439453,9291647.911071777,13349428.176879883,17181287.76550293,12234562.873840332,7285345.554351807,49181423.18725586,27425294.876098633,27063779.830932617,16079198.837280273,4472716.808319092,7402908.802032471,3284286.4990234375,25987699.508666992,21751924.514770508,14377336.502075195,14995867.729187012,22901048.66027832,6282356.739044189,5543980.598449707,5198246.002197266,12634585.3805542,24895324.70703125,-6452826.499938965,7691243.648529053,12698113.441467285,-4617098.331451416,6581862.926483154,5528190.612792969,5280809.8793029785,8634587.287902832,15153730.392456055,12311270.713806152,10137450.218200684,5312773.22769165,-16528640.747070312,12261057.85369873,11953824.996948242,11876230.239868164,9267609.596252441,3539685.9645843506,-830133.3785057068,-6461464.881896973,12260300.636291504,12864841.46118164,16768903.732299805,12415359.497070312,3606646.2993621826
0.455,19263008.11767578,24608772.27783203,28741069.793701172,15657726.287841797,22029714.584350586,17854135.513305664,15287868.49975586,15094916.343688965,15187026.977539062,13995638.847351074,20927825.927734375,29419754.028320312,24980358.123779297,37917072.29614258,14036114.692687988,6791632.652282715,11299749.374389648,14345504.760742188,11441656.112670898,5824930.667877197,45606014.251708984,20378648.75793457,16257457.733154297,12946464.538574219,3175880.9089660645,5970814.7048950195,2664126.8730163574,24732936.85913086,20224918.365478516,12015328.407287598,10126849.174499512,13818935.39428711,5702780.246734619,5002480.983734131,4685580.730438232,12323703.76586914,25969268.798828125,-6672780.0369262695,6328907.489776611,10729043.006896973,-9033039.093017578,6015856.742858887,4828640.460968018,4980230.808258057,10749368.667602539,17419700.622558594,13036342.62084961,8867803.573608398,2731881.3800811768,-18924728.393554688,12007037.162780762,11671601.295471191,11763293.266296387,11661405.563354492,3117875.576019287,-2425129.4136047363,-8160520.553588867,11771460.53314209,12564327.239990234,17746192.932128906,13743642.807006836,5670681.476593018
0.46,16887296.676635742,21225158.69140625,26316436.767578125,14161424.63684082,18732192.993164062,13749977.111816406,14212800.979614258,13812098.503112793,13954779.624938965,10711559.295654297,17024368.286132812,25359025.955200195,19393606.185913086,21610195.15991211,12675830.841064453,6442894.93560791,10914385.795593262,13167755.126953125,9441250.801086426,3547119.379043579,42631542.20581055,15602344.512939453,9196326.25579834,12731698.036193848,4125038.6238098145,6663602.828979492,2505135.7746124268,22610206.604003906,17946964.263916016,10343639.373779297,7522591.114044189,7533899.307250977,9577375.411987305,7269510.269165039,7111095.905303955,12743682.861328125,26485448.837280273,-8257717.132568359,5752553.939819336,11072781.562805176,-10176527.976989746,9783212.661743164,8798375.129699707,7492356.777191162,12698334.693908691,17745573.043823242,13068889.617919922,9777454.376220703,4893641.471862793,-15907461.166381836,19054594.039916992,18712366.104125977,18922199.249267578,16152746.200561523,8211672.782897949,3320621.2520599365,-2136715.6505584717,18913183.212280273,19689414.978027344,24780025.482177734,22563203.811645508,15548568.725585938
0.465,19125146.865844727,23865633.010864258,28843534.469604492,16177381.51550293,20030614.852905273,16776746.74987793,16420993.80493164,15938370.704650879,15986740.112304688,10302271.842956543,16256246.566772461,25901807.78503418,21841037.75024414,24390905.380249023,16176511.764526367,9404222.48840332,13204000.473022461,15199376.106262207,8470458.030700684,2644919.3954467773,42681770.32470703,17826066.970825195,13239289.283752441,16506868.362426758,6784676.074981689,9106229.782104492,3305408.477783203,22594434.73815918,17796438.217163086,11653485.298156738,10543514.251708984,12388257.98034668,15015030.860900879,11064396.858215332,11056678.771972656,14381547.927856445,26891029.357910156,-9189117.431640625,7371280.193328857,15144303.321838379,-3884870.0523376465,15251420.021057129,14476499.557495117,11361562.728881836,13787218.09387207,16696887.969970703,13032913.208007812,12953164.100646973,11187029.838562012,-7959577.0835876465,27422548.294067383,27176660.537719727,27298250.198364258,20362590.789794922,14891499.519348145,11864628.791809082,7273897.171020508,27607032.775878906,28209650.03967285,32149314.880371094,30959421.157836914,23000602.72216797
0.47,19844215.393066406,26106195.4498291,30465684.89074707,17158037.185668945,22244571.685791016,21334756.85119629,17626224.517822266,17290861.129760742,17231700.897216797,12339343.070983887,18355030.059814453,29031217.575073242,27494720.458984375,40008975.982666016,19719102.85949707,11097568.51196289,14279055.59539795,16374897.003173828,9218100.547790527,3486735.1055145264,44094554.90112305,22607751.846313477,21965250.01525879,19585178.37524414,7708963.394165039,10228829.383850098,3519649.028778076,24394107.818603516,19579101.5625,13706664.085388184,14503478.050231934,21846982.955932617,17899284.36279297,13401460.647583008,13376286.506652832,16049980.163574219,27573577.880859375,-8843177.795410156,8990615.844726562,18190685.272216797,3061932.5637817383,18334726.333618164,17605625.15258789,13701488.494873047,14765696.52557373,16587369.918823242,13354852.676391602,14767509.460449219,14316724.77722168,-4564014.911651611,30723104.47692871,30507965.087890625,30452865.600585938,21861524.58190918,16000486.373901367,13400900.840759277,9115887.641906738,30957958.221435547,31441576.00402832,33672840.1184082,30465143.20373535,21613773.345947266
0.475,14018939.971923828,22544145.584106445,27972644.805908203,12766116.14227295,21600954.055786133,18524263.381958008,13595452.308654785,13361414.909362793,13557161.331176758,13668022.155761719,20171571.731567383,30524810.791015625,29302940.368652344,50130828.857421875,17372091.29333496,7063030.242919922,10463507.652282715,12619736.671447754,10186141.014099121,4887093.544006348,44291805.267333984,23579429.626464844,25134883.880615234,17124290.466308594,4405785.083770752,7485162.258148193,1523382.4253082275,25388889.31274414,20902503.967285156,13666229.248046875,13925472.259521484,24357717.514038086,16467191.696166992,12129784.58404541,11970889.0914917,16045116.424560547,28299364.08996582,-8154337.8829956055,8654951.095581055,16332754.135131836,2480992.555618286,17002187.728881836,16303129.196166992,12535593.032836914,16154550.552368164,18629091.262817383,14303426.742553711,13663509.368896484,10940218.925476074,-9719321.250915527,29381025.314331055,28955207.82470703,28919319.15283203,21350313.186645508,11707188.606262207,7066588.401794434,1721814.8708343506,29305141.44897461,29809041.97692871,30679885.864257812,23415315.628051758,16357202.529907227
0.48,7447974.681854248,16906482.696533203,23899772.64404297,7005225.658416748,18855978.01208496,12093987.464904785,8074925.422668457,7709915.637969971,8333095.550537109,12981184.959411621,19839918.13659668,29055137.634277344,25363374.710083008,45034412.3840332,12305796.62322998,1361312.747001648,5208241.4627075195,7375601.291656494,10187533.378601074,5949218.75,43260463.71459961,20219701.766967773,20159364.700317383,12465073.585510254,241695.94049453735,3377047.300338745,-1134011.98387146,24556364.059448242,20663976.669311523,12526653.289794922,10250410.079956055,18357805.252075195,13632589.340209961,9116212.844848633,8863022.804260254,14695753.09753418,28515743.255615234,-7814094.543457031,7815442.5621032715,12947325.706481934,-3214603.6624908447,14015208.24432373,13425667.762756348,9661174.774169922,17763853.073120117,21529928.20739746,15759168.62487793,13015791.893005371,7481589.317321777,-13842428.207397461,29296829.223632812,28568078.994750977,28809694.290161133,22050769.805908203,10225747.108459473,3733543.3959960938,-2945616.7221069336,29035999.298095703,29609310.150146484,30284149.169921875,20755144.119262695,16428749.084472656
0.485,10082507.133483887,15874340.057373047,20427295.684814453,8211815.83404541,16252510.070800781,16273220.06225586,9426261.901855469,8898791.313171387,9291002.27355957,11863194.465637207,17832218.170166016,25681827.545166016,17660402.297973633,29836671.829223633,15036691.665649414,3573648.452758789,6190102.577209473,8422787.6663208,9660868.644714355,6017486.095428467,41704380.03540039,15487609.86328125,11229029.655456543,14994132.995605469,2231373.3100891113,3976773.500442505,-637140.154838562,23236780.166625977,19474905.014038086,12247245.788574219,7775659.084320068,11198574.06616211,14911948.204040527,9395901.679992676,9093957.901000977,14492362.976074219,28096609.115600586,-8054084.777832031,7898979.663848877,12962014.198303223,-5917499.06539917,15065917.015075684,14522010.803222656,9857159.614562988,19630159.378051758,23170644.760131836,16697486.877441406,15376616.477966309,10426709.175109863,-7750489.234924316,33982566.833496094,33166019.439697266,33661472.32055664,25332866.668701172,15867575.645446777,10731978.416442871,3966562.271118164,33901409.14916992,34531547.54638672,35523361.20605469,27465206.146240234,23368293.76220703
0.49,21801094.05517578,18911300.659179688,15620018.005371094,17669481.27746582,13326807.975769043,36544937.13378906,19474027.633666992,18989742.279052734,18099250.79345703,11750230.78918457,15046489.715576172,20938985.82458496,8298915.863037109,16038728.713989258,29960866.928100586,16413875.579833984,15284533.500671387,17389362.335205078,9302931.785583496,4100109.577178955,38389961.24267578,10043061.256408691,2418386.697769165,28315711.975097656,12373353.004455566,11421418.190002441,4030905.246734619,22368350.982666016,17546958.923339844,11045428.276062012,5704226.970672607,7361742.4964904785,22286499.0234375,15287732.124328613,14889039.993286133,16753700.256347656,27452745.43762207,-9408036.231994629,6664817.810058594,14068511.962890625,-5020139.217376709,22338264.46533203,21689353.942871094,15378417.015075684,21781204.223632812,22982624.053955078,15957649.230957031,17389169.692993164,15497087.478637695,1601455.569267273,40136333.46557617,39472690.58227539,39923919.677734375,28782936.096191406,22151041.03088379,20346414.56604004,14285801.887512207,40180255.88989258,40890853.88183594,41199325.56152344,35626884.46044922,29717634.201049805
0.495,31660964.965820312,19738014.221191406,8132031.440734863,27178449.630737305,8859131.813049316,60067825.31738281,30173721.313476562,29823253.631591797,27422933.57849121,12219832.420349121,12167941.093444824,15393511.772155762,-495224.4460582733,10670536.994934082,47638721.46606445,30506158.82873535,25212219.23828125,26787509.91821289,8883335.11352539,291090.60764312744,32480453.491210938,3058759.2124938965,-4796689.510345459,43779132.84301758,23350286.48376465,19865936.279296875,8707622.528076172,21113143.920898438,14545663.833618164,5982741.355895996,82005.28472661972,4424578.666687012,30349172.592163086,22188972.47314453,21688640.594482422,19199440.002441406,26887962.341308594,-11843142.50946045,1746303.915977478,10018577.575683594,-7239550.590515137,30389713.287353516,29641935.348510742,21904558.181762695,22962785.720825195,22180587.768554688,14085049.629211426,14586194.99206543,13337834.358215332,-270818.0546760559,41780891.41845703,41249000.549316406,41427082.06176758,29780073.165893555,21215738.29650879,20270286.560058594,13962048.530578613,41557025.90942383,42338291.16821289,41389400.482177734,35533737.18261719,29053695.678710938
0.5,31216958.99963379,15616751.670837402,974184.3342781067,28617311.477661133,4325805.6640625,68295875.5493164,32496608.73413086,32109756.469726562,29245264.053344727,12028065.68145752,10014431.953430176,11120032.31048584,-6693490.028381348,8324924.468994141,53536064.14794922,33952018.73779297,27378812.789916992,28483404.1595459,7770529.747009277,-3124767.780303955,26813354.4921875,-4050550.937652588,-11253671.646118164,48544090.270996094,25602479.934692383,21324243.545532227,8365991.592407227,18575485.229492188,11431436.538696289,-631708.9796066284,-7903971.6720581055,-1219542.6225662231,31476474.76196289,23075807.571411133,22621894.83642578,18458368.3013916,26159156.799316406,-13381645.202636719,-3629300.355911255,1971206.784248352,-14102376.937866211,31501022.338867188,30797498.70300293,22737375.259399414,21601167.678833008,22238552.09350586,13599388.122558594,9476744.651794434,4511605.262756348,-12900662.422180176,37826629.638671875,37295768.73779297,37262237.548828125,29574914.932250977,16127996.444702148,11946147.918701172,4243853.569030762,37350448.60839844,38044185.638427734,37977657.318115234,29879325.86669922,24368543.62487793
0.505,23116041.18347168,9761194.229125977,-2960183.620452881,22339033.126831055,1687018.1560516357,57046958.923339844,25879646.30126953,25300319.67163086,23225948.333740234,10001684.188842773,8326076.507568359,9387796.401977539,-10808984.756469727,-2761500.120162964,44053527.83203125,25334293.365478516,20914316.177368164,22241422.653198242,5552891.731262207,-4346851.825714111,24891380.310058594,-8733412.742614746,-18717081.06994629,39789916.9921875,18146215.438842773,14961227.416992188,3027545.928955078,15568194.389343262,9999862.670898438,-2885299.4441986084,-11973155.975341797,-8890844.345092773,25401178.35998535,17350244.522094727,17093900.680541992,14784507.751464844,24999576.568603516,-11935454.368591309,-3527295.8278656006,-1195118.0696487427,-18240949.630737305,25477275.848388672,24846233.367919922,17300615.310668945,18771854.400634766,23632707.595825195,16230102.5390625,9287641.525268555,390273.3325958252,-19557098.388671875,33754348.75488281,33278705.596923828,33247360.229492188,31610849.380493164,16832181.930541992,9096546.173095703,498203.0689716339,33584163.665771484,34023574.82910156,37851089.47753906,29824491.500854492,23689676.28479004
0.51,15975668.907165527,5703857.898712158,-5338173.866271973,15368502.616882324,-190266.8923139572,41356338.50097656,17860946.655273438,17167997.360229492,16015787.124633789,5797089.099884033,5478118.419647217,8362571.716308594,-14841755.867004395,-21692459.106445312,31301923.751831055,14998611.450195312,12965450.286865234,14962244.987487793,2367388.2484436035,-4771300.792694092,25624225.616455078,-10602030.754089355,-26121398.92578125,28543125.15258789,9940451.622009277,8268453.598022461,-2175544.261932373,13985337.257385254,10293790.817260742,200484.30562019348,-9618009.567260742,-13996112.823486328,20550342.559814453,12273572.92175293,12177173.614501953,12328307.151794434,23739847.18322754,-8794315.338134766,2007501.3637542725,4278863.906860352,-14535660.743713379,20844032.287597656,20145765.30456543,12599509.239196777,18035202.026367188,25460725.784301758,20091447.830200195,15375218.391418457,7173522.94921875,-11155977.249145508,35328361.51123047,35057518.005371094,35137630.462646484,36072376.2512207,24940467.834472656,17688684.463500977,9500469.207763672,35735355.377197266,36034564.97192383,43010299.68261719,38107242.584228516,29142486.572265625
