time,Fp1,Fpz,Fp2,AF3,AF4,F7,F5,F3,F1,Fz,F2,F4,F6,F8,FT7,FC5,FC3,FC1,FCz,FC2,FC4,FC6,FT8,T7,C5,C3,C1,Cz,C2,C4,C6,T8,TP7,CP5,CP3,CP1,CPz,CP2,CP4,CP6,TP8,P7,P5,P3,P1,Pz,P2,P4,P6,P8,PO7,PO5,PO3,POz,PO4,PO6,PO8,CB1,O1,Oz,O2,CB2
0.0,-3745368.719100952,-3652389.5263671875,-5666117.6681518555,-315730.482339859,-1059571.2661743164,3349918.842315674,1916208.028793335,1852806.9257736206,609099.3881225586,-127326.68220996857,-439701.6763687134,-442134.3207359314,-1594932.4369430542,-1651700.735092163,2909310.817718506,777069.091796875,585907.2208404541,539006.8888664246,484090.29841423035,-885496.9143867493,-971170.0081825256,-943915.0094985962,-1651787.7578735352,2834457.8742980957,1786833.5247039795,749891.3407325745,-32188.24416399002,-67912.86170482635,-181160.13705730438,-274186.909198761,190450.14679431915,633943.3193206787,2817440.986633301,2694293.0221557617,430753.4396648407,368073.07600975037,-10192.628018558025,85668.69795322418,-544482.5887680054,90900.61485767365,991258.442401886,2787706.136703491,287420.3324317932,99405.51221370697,-67875.34058094025,656146.3475227356,467356.8308353424,140627.26497650146,133970.0222015381,73200.42699575424,179357.3498725891,96722.84126281738,20173.154771327972,582493.3648109436,1097792.148590088,1216728.8064956665,1204476.7141342163,1711318.2544708252,108923.5246181488,1331132.411956787,1010356.068611145,1020963.191986084
0.005,-66550697.326660156,-32067817.68798828,-65355781.55517578,-13993618.965148926,2500987.0529174805,-25305315.017700195,-11393905.639648438,-11790266.036987305,-2774777.412414551,-5482139.587402344,1528997.302055359,11383959.770202637,-4059338.5696411133,-4778939.247131348,-16858167.64831543,-18996023.178100586,-167835.38460731506,-456867.36702919006,-3652895.450592041,-2776833.0574035645,1558687.448501587,492558.71772766113,-5172743.797302246,-17460895.538330078,-7611689.09072876,-6494666.09954834,3834.864590317011,-651823.7590789795,498024.6424674988,349424.48139190674,-650127.8877258301,-6377645.969390869,-16181734.085083008,-17555828.094482422,-12290222.16796875,-2733934.164047241,621212.6016616821,541825.4733085632,-1949502.8257369995,368490.45753479004,-11845270.156860352,-16639417.64831543,-34581836.70043945,-18179969.787597656,-12752751.350402832,-10181146.621704102,-2501458.6448669434,-9726961.135864258,-10131037.712097168,-11221692.085266113,-35208209.99145508,-35933437.34741211,-37329139.709472656,-11391826.629638672,-13076915.740966797,-7301629.066467285,-7205773.35357666,-16314943.313598633,-35880992.8894043,-21266876.220703125,-14992161.750793457,-15553145.408630371
0.01,-107464752.19726562,-60636573.791503906,-110895355.22460938,-29186603.546142578,-6996974.945068359,-37096218.10913086,-19624742.50793457,-20190973.28186035,-11622760.772705078,-16252683.639526367,-6501144.4091796875,9313469.886779785,-11524432.182312012,-12507822.036743164,-23332529.067993164,-29112030.029296875,-5046171.188354492,-5633125.305175781,-11393121.719360352,-10792596.817016602,-3669227.361679077,-4832030.296325684,-13021392.822265625,-24076843.26171875,-14233665.466308594,-13784097.671508789,-2978533.983230591,-894737.8993034363,-2621349.334716797,-4284048.557281494,-5323979.85458374,-8329441.070556641,-22397636.41357422,-24417514.80102539,-19565254.21142578,-4601510.524749756,980286.8366241455,2086540.699005127,-4887057.304382324,-1746814.250946045,-17021339.416503906,-23005081.176757812,-47621204.3762207,-26449350.357055664,-16826316.833496094,-9725514.41192627,671679.3179512024,-13633221.626281738,-14130560.874938965,-15655202.865600586,-46957176.208496094,-48273715.97290039,-50220149.993896484,-11656099.319458008,-14812214.851379395,-7718725.681304932,-7595262.52746582,-17976377.487182617,-48186462.40234375,-25476774.215698242,-17643819.80895996,-18396377.563476562
0.015,-119075675.96435547,-78966682.43408203,-128905761.71875,-41477512.35961914,-22530273.4375,-35951808.92944336,-23398107.528686523,-24064970.016479492,-22585494.995117188,-27979150.772094727,-19878547.66845703,-2841890.335083008,-19781839.37072754,-20625249.8626709,-19739448.54736328,-30028785.705566406,-12361602.783203125,-13161175.727844238,-19840354.919433594,-21127510.07080078,-13114734.649658203,-13552372.932434082,-20999401.092529297,-20253053.665161133,-17313068.389892578,-19396465.301513672,-7132835.865020752,-819467.8425788879,-7246597.2900390625,-10677182.1975708,-10586097.717285156,-5806122.303009033,-18877891.540527344,-20834100.7232666,-20020133.97216797,-4441926.956176758,1100055.6945800781,5246562.0040893555,-6113914.012908936,-3299130.439758301,-13572387.6953125,-19445531.845092773,-39914642.333984375,-23324216.842651367,-10835113.525390625,285115.2718067169,8957065.58227539,-8631273.26965332,-8923290.252685547,-10360800.743103027,-36647235.87036133,-38254730.224609375,-40026031.494140625,-1813826.6801834106,-4964209.079742432,351089.4179344177,388340.562582016,-6287168.025970459,-38195674.896240234,-13843457.221984863,-7724429.607391357,-8365000.7247924805
0.02,-112281227.1118164,-78810043.33496094,-120223434.44824219,-45083412.170410156,-27490186.69128418,-37400154.11376953,-26163127.899169922,-27115797.04284668,-27296838.760375977,-31578224.182128906,-25833751.678466797,-10457221.984863281,-21761600.494384766,-22406553.268432617,-18686168.670654297,-29260982.513427734,-16525442.123413086,-17302494.049072266,-23041219.71130371,-25130985.260009766,-17284437.17956543,-17785568.237304688,-22621538.162231445,-18963214.874267578,-18270446.77734375,-21142419.815063477,-8093220.7107543945,-704870.0451850891,-8489234.924316406,-12008112.907409668,-11166589.736938477,-3879942.1787261963,-17754558.563232422,-19374025.344848633,-16862041.473388672,-2451980.1139831543,1179210.6628417969,8580746.6506958,-2847070.4555511475,-947015.4643058777,-7747304.439544678,-18377056.121826172,-30265716.552734375,-16230463.027954102,-1687180.1614761353,8041245.460510254,15056241.989135742,1115872.0254898071,1061291.5754318237,-292061.62691116333,-25238052.368164062,-26688793.182373047,-28204992.294311523,6115123.271942139,4071181.7741394043,8864701.271057129,8788786.888122559,1961286.4255905151,-26707603.454589844,-4351093.292236328,1716374.7549057007,1159559.6075057983
0.025,-105572296.14257812,-70120864.86816406,-106276184.08203125,-41197959.899902344,-19590211.868286133,-45381084.44213867,-28178077.697753906,-29603237.15209961,-23172700.881958008,-25802267.07458496,-20844772.338867188,-7837911.605834961,-18716529.846191406,-19395816.802978516,-23604082.107543945,-30884714.126586914,-14889110.565185547,-15517327.308654785,-20153127.670288086,-21428236.00769043,-13976489.067077637,-16777910.232543945,-19588272.094726562,-23923629.760742188,-18877233.505249023,-19021535.873413086,-4974991.798400879,-733712.7923965454,-6189917.56439209,-8609344.482421875,-8306998.252868652,-5795426.368713379,-22440700.53100586,-23968906.40258789,-14363119.125366211,140682.10124969482,1235729.694366455,9081503.868103027,954053.0443191528,2410496.711730957,-6655191.421508789,-23265880.584716797,-31176010.131835938,-13227217.674255371,1971888.4229660034,5934154.987335205,13444834.70916748,5975958.824157715,5968837.738037109,4432548.046112061,-26646099.090576172,-27791116.71447754,-29379110.33630371,4176102.638244629,2666530.3707122803,9258814.811706543,9185486.793518066,-2291021.3470458984,-27804582.595825195,-7567498.207092285,465855.8964729309,-131831.52675628662
0.03,-108336685.18066406,-70110000.61035156,-107970474.24316406,-37077724.45678711,-12045220.375061035,-49992774.963378906,-27304813.385009766,-28965049.743652344,-16291000.366210938,-18721750.259399414,-13859664.916992188,-2621332.6454162598,-17678607.940673828,-18568683.624267578,-26546850.204467773,-32305286.407470703,-10528940.200805664,-11116225.242614746,-16365365.982055664,-17108634.94873047,-9917251.586914062,-16267429.35180664,-18811494.827270508,-27085391.998291016,-19400203.704833984,-15539306.640625,-1317948.2221603394,-892648.8161087036,-4640114.307403564,-6739290.237426758,-7420647.621154785,-9480276.107788086,-25315235.137939453,-27090768.814086914,-13938856.12487793,1957601.0704040527,1089528.203010559,5653207.778930664,-517534.4944000244,1540823.3404159546,-11538059.23461914,-26266580.58166504,-37844276.428222656,-15421214.10369873,-1741508.2454681396,-2138136.625289917,6236927.9861450195,684618.5922622681,546968.7581062317,-1237766.3850784302,-35541545.86791992,-36691959.381103516,-38499473.571777344,-3908859.968185425,-6278417.587280273,1298351.2878417969,1332225.5611419678,-11774828.910827637,-36571453.09448242,-16825578.689575195,-8592971.801757812,-9183377.265930176
0.035,-114985443.11523438,-79507843.01757812,-121000633.2397461,-37280113.220214844,-13322073.936462402,-45719768.52416992,-24345518.112182617,-25644107.818603516,-13633839.60723877,-17272121.42944336,-13090719.223022461,-2227154.016494751,-20009981.155395508,-21023900.985717773,-22538125.99182129,-30426881.790161133,-8040381.43157959,-8714473.724365234,-16046445.846557617,-17495914.459228516,-10261612.892150879,-18263202.667236328,-21283416.748046875,-23149198.532104492,-18779672.622680664,-13274994.850158691,-121030.19654750824,-1103918.3139801025,-5810367.584228516,-8580374.717712402,-9194197.654724121,-10806890.487670898,-21405323.028564453,-23421586.990356445,-13766118.049621582,2634555.8166503906,703653.1567573547,1398309.588432312,-5717967.987060547,-2696258.544921875,-17548017.501831055,-22270462.036132812,-39888954.162597656,-17667499.542236328,-6729710.102081299,-7498057.842254639,334846.3177680969,-8894799.23248291,-9177142.143249512,-11013600.34942627,-39915672.302246094,-41401523.59008789,-43249225.61645508,-9356554.985046387,-12699538.230895996,-7083396.434783936,-7043702.125549316,-15237927.436828613,-41194404.60205078,-20738067.626953125,-15085844.993591309,-15536453.247070312
0.04,-116315361.02294922,-84046600.34179688,-125650207.51953125,-39889892.578125,-18108299.255371094,-38713314.056396484,-22692930.221557617,-23356924.057006836,-16012641.906738281,-20477411.2701416,-17009944.915771484,-4907959.938049316,-20426277.16064453,-21370960.235595703,-15776576.042175293,-25817426.681518555,-8337755.20324707,-9045285.22491455,-18437664.031982422,-20385477.06604004,-12824080.467224121,-18696868.896484375,-21644109.72595215,-16196136.474609375,-15969139.099121094,-12554835.319519043,-464231.34207725525,-1296886.682510376,-7127589.702606201,-9924139.022827148,-9093880.653381348,-8496981.620788574,-14601383.209228516,-16557258.605957031,-11713893.89038086,3107629.0607452393,341442.3167705536,579747.2596168518,-7480946.5408325195,-4247519.016265869,-19206100.463867188,-15323550.2243042,-35009857.177734375,-15411334.991455078,-6434967.994689941,-6307758.808135986,80986.83506250381,-12302731.51397705,-12608637.809753418,-14295345.306396484,-36189151.763916016,-37917705.53588867,-39618492.126464844,-8135246.276855469,-11150794.982910156,-8376665.115356445,-8553800.582885742,-10534806.251525879,-37824623.107910156,-17106649.39880371,-13430547.714233398,-13747022.62878418
0.045,-112664405.8227539,-78547653.19824219,-117960937.5,-41431072.23510742,-19415390.014648438,-34589778.900146484,-22654455.184936523,-23134609.22241211,-19369159.698486328,-23613687.51525879,-19785959.243774414,-5733309.745788574,-16998037.338256836,-17854585.647583008,-10394639.015197754,-20159280.77697754,-8634842.872619629,-9271536.827087402,-20457122.802734375,-21334928.512573242,-13573285.102844238,-15324947.357177734,-18210952.758789062,-10590561.866760254,-10728765.487670898,-11608674.049377441,140180.00662326813,-1395353.91330719,-6438878.059387207,-7906350.612640381,-5390632.152557373,-4476414.680480957,-9018576.622009277,-10737144.470214844,-7734283.924102783,4603052.616119385,270559.8771572113,3506012.9165649414,-3490138.292312622,-583806.9319725037,-15182888.984680176,-9748900.413513184,-27553474.42626953,-9156852.722167969,-862896.1443901062,-887719.452381134,4007452.4879455566,-6594494.819641113,-6790418.1480407715,-8281678.199768066,-28739566.802978516,-30377098.083496094,-31956035.614013672,-2546573.8773345947,-4522506.7138671875,-2214472.532272339,-2639121.2940216064,-3027100.086212158,-30465085.983276367,-11238151.550292969,-6683182.239532471,-7003944.396972656
0.05,-111603927.61230469,-74531097.41210938,-114712684.63134766,-41391025.54321289,-18711256.02722168,-30185384.75036621,-20554920.196533203,-21440830.23071289,-20068433.76159668,-24341264.724731445,-19450895.309448242,-4334605.2169799805,-14571326.25579834,-15504542.350769043,-4154516.6969299316,-13807547.569274902,-6473464.012145996,-7103569.507598877,-20567693.71032715,-19745874.404907227,-12431509.971618652,-11525124.549865723,-15951425.552368164,-4374391.555786133,-3845423.936843872,-8871374.130249023,2024536.6096496582,-1373877.8829574585,-5275103.569030762,-5166270.2560424805,-1900110.363960266,-885271.6684341431,-2777508.020401001,-4415974.140167236,-3487574.577331543,7140265.941619873,424419.19445991516,6231123.924255371,766190.5884742737,4397484.77935791,-8419278.144836426,-3638823.0323791504,-20369474.411010742,-2780444.383621216,4734117.031097412,4871764.183044434,7947318.553924561,1560915.9469604492,1509498.8346099854,133343.83070468903,-21682792.66357422,-23160049.438476562,-24735099.79248047,3344254.970550537,1942456.841468811,6327032.566070557,5898629.665374756,2991152.52494812,-23258718.490600586,-6624274.253845215,-286082.11874961853,-712859.7497940063
0.055,-114476325.98876953,-79262229.9194336,-123818862.91503906,-40303894.04296875,-18975170.135498047,-22952144.622802734,-15143183.708190918,-16333326.33972168,-17187911.987304688,-22422719.955444336,-17028097.15270996,-2511357.545852661,-15649605.751037598,-16722234.725952148,3850214.0045166016,-8192177.772521973,-2521338.46282959,-3293391.227722168,-18502424.240112305,-17067342.75817871,-10816448.211669922,-9851803.77960205,-17143215.17944336,3382572.4124908447,2125895.2617645264,-5294061.183929443,3526755.8097839355,-1290769.338607788,-5335780.620574951,-4358464.71786499,-1180837.869644165,1581189.0363693237,4903868.198394775,3123739.004135132,-841139.7933959961,8971839.904785156,515792.6082611084,5580183.982849121,585969.4480895996,6516267.776489258,-3194555.0441741943,3978395.700454712,-14404908.180236816,285193.47310066223,6217148.780822754,7880370.140075684,9047790.52734375,4889954.090118408,4883508.682250977,3510449.4094848633,-17086709.97619629,-18664047.241210938,-20253973.00720215,6325962.066650391,5766458.034515381,11869832.038879395,11651844.024658203,6243719.100952148,-18627576.82800293,-3340812.6831054688,3323682.0697784424,2801924.228668213
0.06,-112359275.8178711,-81612152.09960938,-127607910.15625,-36938098.9074707,-16484170.913696289,-19147628.784179688,-10813875.198364258,-11708725.929260254,-11710035.32409668,-17245880.126953125,-12228014.945983887,879589.4980430603,-14655423.164367676,-15651289.939880371,6969492.9122924805,-7057366.847991943,563606.2026023865,-323941.76721572876,-14018483.16192627,-13010721.206665039,-7726333.6181640625,-7233376.979827881,-15964423.179626465,6315478.324890137,3352344.274520874,-3955128.1929016113,3770175.6954193115,-1193568.3488845825,-5029264.450073242,-3516304.4929504395,-110016.72595739365,3182894.229888916,7730996.131896973,5856880.187988281,-957112.1335029602,8023770.332336426,422098.0703830719,2737322.3304748535,-1702137.82787323,6103002.548217773,-1974768.4001922607,6881051.540374756,-12636493.682861328,-1034877.3002624512,3876476.287841797,5916328.907012939,6758429.050445557,2670469.5224761963,2571557.7602386475,1146256.8044662476,-17266975.40283203,-19084213.256835938,-20596519.470214844,4286666.8701171875,6300743.103027344,11344080.924987793,11267221.450805664,5522841.930389404,-18995561.599731445,-2628774.881362915,3741044.9981689453,3206744.1940307617
0.065,-99005851.74560547,-69582435.60791016,-109059249.87792969,-30278541.564941406,-7121564.3882751465,-24055360.794067383,-11278448.104858398,-11787694.931030273,-5717045.307159424,-9298050.880432129,-4893700.59967041,7544995.7847595215,-6318993.56842041,-6974653.720855713,270367.50316619873,-11648039.817810059,1225418.3292388916,425944.65613365173,-8274068.832397461,-7417756.080627441,-2228058.338165283,-477845.84760665894,-7271946.430206299,-324182.9574108124,-1414472.4607467651,-6495120.525360107,3535842.6570892334,-1078795.075416565,-2444695.7111358643,-136306.7626953125,4703339.099884033,4927659.034729004,1051058.5308074951,-693362.7724647522,-3500092.9832458496,4428836.822509766,294084.25092697144,1055886.0301971436,-1551120.5196380615,5738313.674926758,-3259974.479675293,307027.9359817505,-17199115.753173828,-5009075.64163208,772891.9386863708,-140776.4106988907,2557538.5093688965,-901153.6836624146,-1106153.7265777588,-2546521.1868286133,-22305995.94116211,-24122592.92602539,-25465780.25817871,-1698487.9970550537,3688051.223754883,5572299.957275391,5450997.352600098,1053548.3360290527,-24123758.31604004,-6108561.5158081055,1263480.6632995605,805575.5496025085
0.07,-82828536.98730469,-52332855.224609375,-82388404.8461914,-22771949.768066406,3919849.8725891113,-30403911.590576172,-13197839.736938477,-14033262.252807617,-1690426.9456863403,-2412308.45451355,1412618.637084961,14524088.859558105,4425902.843475342,4045550.82321167,-8733958.24432373,-16844617.84362793,443680.88245391846,-161304.98051643372,-4822144.508361816,-3591998.338699341,2518056.3926696777,6848285.19821167,3630002.737045288,-9138573.64654541,-7475712.299346924,-10318062.782287598,3583764.7914886475,-1005887.3891830444,311638.9513015747,3504226.4461517334,10556950.569152832,8224884.986877441,-7837687.4923706055,-9425075.53100586,-6045126.438140869,1193745.0170516968,287707.656621933,1687857.0318222046,711101.233959198,6495664.119720459,-2587878.704071045,-8549681.663513184,-23590780.25817871,-7613795.280456543,-169618.97909641266,-4567903.995513916,-229726.07612609863,-1839267.4922943115,-2016168.8327789307,-3431695.4612731934,-26638938.903808594,-28166290.283203125,-29339929.580688477,-5905140.8767700195,822332.3822021484,458808.2432746887,293370.6045150757,-2252513.4086608887,-28223438.262939453,-10641006.469726562,-1352589.0111923218,-1718413.9490127563
0.075,-78739273.07128906,-50217288.970947266,-78153320.3125,-18413560.86730957,6771530.1513671875,-26074193.954467773,-10091016.76940918,-11850281.715393066,-508976.8171310425,-734464.168548584,2168759.822845459,16272296.905517578,7192378.997802734,6702823.162078857,-7340053.081512451,-15867914.199829102,490922.6596355438,-49152.4375975132,-6284297.943115234,-5293353.080749512,2071968.3170318604,7817471.981048584,6212581.157684326,-7662143.707275391,-7614510.059356689,-10779319.763183594,3709758.758544922,-1098663.6877059937,-628654.1819572449,3083692.3122406006,11676017.761230469,12968126.29699707,-6585491.180419922,-8272268.295288086,-5559991.836547852,1366196.2747573853,366967.8568840027,2797182.083129883,1211250.66280365,7879354.476928711,2684962.511062622,-7310972.213745117,-23994695.66345215,-5605971.336364746,1893160.343170166,-1597750.0677108765,1416687.1309280396,965870.2611923218,909284.6512794495,-542808.7711334229,-23850795.74584961,-25187587.73803711,-26320573.806762695,-2780200.719833374,2594840.7649993896,3053143.02444458,2981059.5512390137,1524736.1660003662,-25190315.24658203,-9776210.78491211,522811.53202056885,138334.82563495636
0.08,-88498893.73779297,-65530090.33203125,-100803962.70751953,-17587383.270263672,214611.9773387909,-10785439.491271973,-936989.5458221436,-3352409.839630127,36822.05453515053,-3369503.2596588135,-1770110.9647750854,12039946.556091309,-164152.24969387054,-1034300.5657196045,5709125.995635986,-8125286.102294922,2895488.500595093,2230198.383331299,-10222117.42401123,-10754593.849182129,-2923369.1692352295,1498721.3611602783,-1413319.5877075195,5283266.544342041,-80816.28382205963,-6327290.5349731445,3889504.4326782227,-1306223.5116958618,-4888354.301452637,-1264277.3389816284,7290729.04586792,16739099.502563477,6081337.451934814,4087531.566619873,-1535480.6184768677,4606105.804443359,443135.23173332214,2547191.858291626,-1105085.7305526733,9445514.678955078,9854722.97668457,5367142.677307129,-17266414.642333984,-262348.59228134155,5064183.712005615,7155891.895294189,6657441.61605835,5747119.903564453,5713198.184967041,4162588.596343994,-15084505.081176758,-16630294.799804688,-17936525.344848633,5915933.132171631,10244297.02758789,13478184.700012207,13488093.376159668,11522324.562072754,-16629728.317260742,-1871755.9576034546,8087179.183959961,7550062.17956543
0.085,-96599937.43896484,-77629821.77734375,-120696182.25097656,-16330883.026123047,-6087296.962738037,3432342.290878296,8858658.790588379,6416399.4789123535,3188440.3228759766,-4797251.224517822,-4310408.592224121,7538418.292999268,-8202464.1036987305,-9298961.639404297,18627317.428588867,628900.8259773254,7415167.808532715,6576451.301574707,-10894074.440002441,-13540910.720825195,-6746762.752532959,-5107778.549194336,-9476483.345031738,18027551.651000977,9066414.833068848,-170615.38994312286,4942534.446716309,-1330049.753189087,-7560330.867767334,-4786413.669586182,3063898.5633850098,17951749.801635742,18676162.719726562,16487739.562988281,3087011.5756988525,7547574.043273926,555021.0475921631,1431990.0274276733,-2958782.196044922,11322972.297668457,14213769.912719727,17987890.243530273,-10463573.455810547,3623910.427093506,6410140.9912109375,13728816.032409668,11021005.630493164,9607954.025268555,9451858.520507812,7943451.881408691,-7985568.523406982,-9949704.17022705,-11563419.342041016,12340170.860290527,18800052.642822266,23552171.70715332,23462390.899658203,20090349.197387695,-10103095.054626465,7294333.934783936,16581293.106079102,15927123.069763184
0.09,-89459289.55078125,-70343750.0,-113252494.81201172,-11844777.10723877,-3860954.523086548,7744462.490081787,14132806.777954102,11797598.838806152,9024214.744567871,-1414500.5941390991,-1525795.6981658936,7993731.498718262,-7751262.664794922,-8702392.578125,22058120.727539062,5165395.736694336,12182449.340820312,11247933.387756348,-5944244.861602783,-10279919.624328613,-5609065.532684326,-5368753.910064697,-8765569.686889648,21349634.170532227,13091489.791870117,3571924.6864318848,7088708.400726318,-1006897.3302841187,-5642562.389373779,-4226927.280426025,4037403.106689453,18533224.10583496,22021158.21838379,19913629.53186035,5121309.280395508,7754508.972167969,761744.0223693848,1173457.384109497,-1368141.4127349854,14050230.979919434,15197168.350219727,21328910.82763672,-9090559.005737305,3617885.3511810303,5435475.826263428,13581058.502197266,11568929.672241211,11404374.122619629,11177172.660827637,9977146.14868164,-6661722.660064697,-8821433.067321777,-10636549.949645996,12172166.82434082,22805830.001831055,26354358.673095703,26096460.342407227,21794385.91003418,-9129644.393920898,11665426.254272461,20669578.552246094,20099840.16418457
0.095,-73529235.83984375,-52951812.744140625,-90308822.63183594,-6725618.362426758,4015628.8146972656,5040282.249450684,14398950.576782227,11958757.400512695,13660923.957824707,4312529.563903809,3813452.4822235107,11811013.221740723,-1152343.2731628418,-1809621.2148666382,18941045.7611084,5080507.755279541,14847311.973571777,13910970.687866211,541045.1889038086,-4643093.109130859,-2000155.9257507324,-721311.3903999329,-1871106.743812561,18213203.43017578,11867816.925048828,4013096.332550049,8810097.694396973,-633067.0118331909,-1966720.8194732666,-1412792.5634384155,8512182.235717773,20575193.405151367,18999288.55895996,17073886.87133789,4562977.313995361,6259605.884552002,940811.0976219177,2004242.6586151123,2459064.483642578,17674686.431884766,15893021.583557129,18303632.736206055,-10566754.341125488,2448467.493057251,4806657.791137695,10695609.092712402,10041687.01171875,12592712.40234375,12487089.157104492,11647470.474243164,-7394910.3355407715,-9365588.188171387,-11121818.542480469,9406862.258911133,22417318.34411621,24191377.639770508,23912601.470947266,18794836.044311523,-9665581.703186035,11096745.491027832,20337785.720825195,19954807.28149414
0.1,-66758026.123046875,-45961345.67260742,-80573181.15234375,-5675266.265869141,8469731.330871582,2315882.682800293,11990018.844604492,9632330.894470215,13711492.538452148,7332221.031188965,6435205.459594727,13026732.444763184,1678255.319595337,1120735.6452941895,16828123.092651367,2815653.085708618,14438666.343688965,13587770.462036133,2958848.714828491,-2165157.5565338135,-759085.1187705994,1804908.8716506958,1032867.3124313354,16112810.134887695,10153806.686401367,3245403.528213501,8590291.976928711,-633518.2785987854,-1083236.2174987793,-82568.26549768448,10502604.484558105,21590822.219848633,17025320.053100586,15142851.829528809,3944441.556930542,5703401.565551758,879988.7299537659,2088662.6243591309,4576231.479644775,20159078.59802246,16546043.395996094,16391160.96496582,-9960385.3225708,3488765.239715576,6378520.965576172,10610624.313354492,9184031.48651123,13900009.155273438,13947664.260864258,13212463.37890625,-6034872.531890869,-7660995.006561279,-9229090.690612793,9371068.000793457,21011516.571044922,23133810.04333496,22937623.977661133,15765215.873718262,-7893952.369689941,8541071.891784668,18806165.69519043,18448619.842529297
0.105,-74636184.69238281,-53726764.67895508,-90410575.86669922,-9039771.08001709,5906044.006347656,1627005.5770874023,9206691.74194336,7444356.918334961,10498364.448547363,5949506.759643555,5019937.992095947,9062288.284301758,-3524599.075317383,-4235743.045806885,17077465.057373047,655709.7434997559,12423544.883728027,11742547.035217285,747961.6403579712,-3567828.416824341,-2871892.9290771484,-1389633.5363388062,-4353699.684143066,16358060.836791992,10605857.849121094,3266779.899597168,7323340.892791748,-984421.0147857666,-3299856.9011688232,-1165921.926498413,7269443.035125732,17562255.859375,17341600.41809082,15352148.056030273,4868583.679199219,6967125.89263916,569649.9347686768,108768.67920160294,2845360.517501831,18293548.583984375,13530619.621276855,16784349.44152832,-7772520.542144775,5704806.804656982,8088824.272155762,12306946.754455566,8465081.214904785,13027062.41607666,13031379.699707031,12158885.00213623,-4733943.462371826,-6163473.129272461,-7669498.443603516,10907080.65032959,19480831.146240234,23395498.275756836,23161272.048950195,13514925.003051758,-6456576.347351074,5099387.168884277,17155803.680419922,16592626.571655273
0.11,-84033264.16015625,-61926692.962646484,-100130638.1225586,-12645441.055297852,1118073.1058120728,855483.6511611938,7519067.287445068,6324865.818023682,8016801.834106445,2493121.1471557617,2345994.234085083,3694753.646850586,-10431748.390197754,-11326282.501220703,16006118.774414062,-110073.86445999146,11089460.372924805,10590865.135192871,-1892995.3575134277,-5471883.296966553,-5177318.096160889,-6319199.085235596,-11495533.94317627,15278440.475463867,11439736.366271973,4168126.5830993652,7342928.886413574,-1239740.8485412598,-5099977.016448975,-2493792.0570373535,2463398.218154907,10395143.508911133,16239534.378051758,14171091.079711914,6405908.584594727,8628163.33770752,261147.97592163086,-2367244.9588775635,-644753.9329528809,12217018.127441406,6517755.031585693,15626915.93170166,-8018273.35357666,5739896.774291992,7069198.6083984375,11346155.166625977,6382728.576660156,8417126.655578613,8272402.763366699,7270545.482635498,-7462071.418762207,-8909324.645996094,-10517880.4397583,9717066.764831543,16872230.529785156,21056020.736694336,20654558.181762695,10494695.663452148,-9315408.706665039,1116258.8596343994,14720060.348510742,13938201.904296875
0.115,-83108245.84960938,-60003341.67480469,-95789619.44580078,-14144294.738769531,-545582.7713012695,-1643585.443496704,6820878.982543945,5452113.151550293,7404046.058654785,-697463.2740020752,592503.1900405884,1989807.9633712769,-11108404.159545898,-12018200.874328613,12391256.332397461,242106.3631772995,10665465.354919434,10251449.584960938,-2086460.5903625488,-5881601.810455322,-5152156.829833984,-6952569.484710693,-12216674.8046875,11704586.029052734,10233825.68359375,4548822.87979126,8937555.313110352,-1142799.6158599854,-4380105.495452881,-2171075.3440856934,1301174.521446228,7015136.241912842,12627468.10913086,10640925.407409668,6646331.310272217,9069936.752319336,166797.11639881134,-2379076.4808654785,-1933300.3759384155,7304259.300231934,1645823.9555358887,11809104.919433594,-11410181.999206543,3202940.9408569336,4255737.3046875,8159657.4783325195,4827765.941619873,3642334.461212158,3552195.0721740723,2461117.98286438,-12505774.49798584,-14038634.300231934,-15713838.577270508,6492862.701416016,14704692.840576172,16908502.57873535,16463865.280151367,7503606.796264648,-14376543.998718262,-1021685.6002807617,12908444.40460205,12103946.685791016
0.12,-77632507.32421875,-54810966.49169922,-87369926.45263672,-16032861.709594727,-380710.2143764496,-5458812.713623047,5387175.559997559,3365360.0215911865,6085835.4568481445,-3487867.593765259,-885241.8065071106,3789500.4749298096,-6650956.153869629,-7437564.849853516,9051810.264587402,-17901.094630360603,9448029.518127441,8998641.967773438,-1551342.0104980469,-5975301.265716553,-3794845.1042175293,-3344263.0767822266,-7606523.036956787,8468270.301818848,7515494.823455811,3179560.661315918,9727947.235107422,-935242.1760559082,-2729969.263076782,-808733.7613105774,3979383.4686279297,9435781.478881836,9447620.391845703,7661299.228668213,4915551.662445068,8137454.032897949,215436.33937835693,477374.22585487366,161066.1745071411,8310271.263122559,3613183.2599639893,8486475.944519043,-14568532.943725586,768936.812877655,2978309.6313476562,7618763.9236450195,6943200.588226318,3824081.1824798584,4043269.634246826,2685570.478439331,-14401823.043823242,-15959077.835083008,-17552827.835083008,6180113.315582275,15731045.722961426,16269706.726074219,16015054.702758789,6922142.98248291,-16049779.891967773,604249.7754096985,14051067.352294922,13377256.393432617
0.125,-80104995.72753906,-57749599.45678711,-90218070.98388672,-20233156.204223633,-3111913.4426116943,-8102554.3212890625,2863039.255142212,694730.4010391235,3022038.221359253,-5881756.30569458,-2891102.075576782,4457869.529724121,-5102316.379547119,-5805788.516998291,8724350.929260254,-1217416.524887085,7323942.184448242,6789181.709289551,-3051259.994506836,-6695926.189422607,-3332123.041152954,-1502010.5838775635,-5974858.283996582,8212012.29095459,5998930.45425415,805911.0641479492,8354779.243469238,-957973.8974571228,-2373346.0903167725,-204155.0576686859,5869204.998016357,11313991.54663086,9271762.84790039,7623905.181884766,2540267.9443359375,6919716.835021973,203207.03089237213,3057114.1242980957,2682502.9850006104,12805719.375610352,8443119.049072266,8417784.690856934,-14986823.081970215,-61481.61366581917,3819832.5634002686,10869827.270507812,11319068.908691406,8149074.554443359,8609815.59753418,6793778.896331787,-11992744.445800781,-13543443.67980957,-15043092.727661133,9739836.692810059,18889570.236206055,19927663.803100586,19851572.036743164,8628418.922424316,-13480412.483215332,3662273.168563843,16966735.83984375,16400285.720825195
0.13,-89384643.5546875,-66869171.142578125,-101313385.00976562,-23229143.142700195,-8634238.243103027,-6432477.4742126465,2224233.627319336,769092.2021865845,1472681.0455322266,-6381190.299987793,-4129856.1096191406,1474766.8504714966,-10049885.749816895,-10815105.438232422,11452130.317687988,-634619.8916435242,6941739.082336426,6311472.8927612305,-5965294.83795166,-6694581.031799316,-3980174.3030548096,-5120754.718780518,-11115401.268005371,10867632.865905762,7436962.127685547,74426.93412303925,6808814.04876709,-1188979.7449111938,-3172839.879989624,-906344.2945480347,3801023.7216949463,7567517.280578613,11844517.707824707,10102400.779724121,1823580.265045166,6606504.917144775,98387.68094778061,2485702.9914855957,2405689.239501953,14137035.369873047,8969841.957092285,11210358.619689941,-13286314.964294434,-123194.1431760788,4283014.77432251,13244868.278503418,12869462.966918945,10423206.329345703,10801278.114318848,8671067.237854004,-9659834.861755371,-11271739.959716797,-12788063.049316406,12269715.309143066,19990959.16748047,22241786.95678711,22066987.991333008,10069891.929626465,-11279545.783996582,4098392.963409424,17849908.82873535,17289621.353149414
0.135,-92547706.6040039,-70122245.78857422,-104817451.47705078,-20840116.500854492,-11004893.30291748,-1626897.0966339111,5411540.508270264,4812800.407409668,4097473.14453125,-4036282.539367676,-2956023.4546661377,-1960827.7082443237,-15566163.063049316,-16440502.166748047,14731240.272521973,3023667.812347412,9584231.37664795,8845350.26550293,-7367461.681365967,-4701071.262359619,-4074087.619781494,-10198657.989501953,-16923896.78955078,13991580.00946045,10428664.207458496,2211825.370788574,7318841.934204102,-1339144.9451446533,-3610636.7111206055,-1837275.505065918,-118768.52810382843,2234876.6326904297,14762859.344482422,12727925.300598145,3643655.776977539,7303353.309631348,67519.1804766655,-248867.89917945862,-154608.1155538559,10419399.26147461,4897103.309631348,14153184.89074707,-11190890.312194824,-49945.90952992439,3232734.9185943604,11473371.505737305,10015455.24597168,7609956.26449585,7732360.83984375,5671432.4951171875,-10492206.573486328,-12220122.337341309,-13747927.66571045,10436718.940734863,17794872.283935547,19975406.646728516,19513126.373291016,9839665.412902832,-12314249.038696289,1687743.4253692627,15777451.515197754,15175465.58380127
0.14,-84619407.6538086,-62563400.26855469,-94290603.63769531,-15724739.074707031,-6350961.685180664,-1522216.3200378418,8171624.183654785,7860922.813415527,7947769.641876221,-524172.7828979492,30552.737414836884,-968736.2313270569,-13844050.407409668,-14679753.303527832,14461981.773376465,4954746.246337891,12008976.936340332,11207735.061645508,-6281155.586242676,-1814030.0512313843,-2502341.5088653564,-9830183.982849121,-15219029.426574707,13720592.498779297,11217464.447021484,4302597.522735596,8627539.63470459,-1239747.0474243164,-3176908.493041992,-1944182.1575164795,-1709308.14743042,2214922.1897125244,14456764.221191406,12227934.837341309,5943842.887878418,7699516.773223877,205725.46124458313,-1921279.3111801147,-2017947.4353790283,6398513.7939453125,2132909.7747802734,13655351.638793945,-9926611.90032959,468153.59592437744,2340658.187866211,8252881.050109863,6801206.588745117,3493020.77293396,3499892.234802246,1712644.9346542358,-12483068.466186523,-14209561.347961426,-15593857.765197754,7068963.527679443,15271345.138549805,16726467.13256836,16100574.493408203,8470729.82788086,-14201804.161071777,-378103.94167900085,13521034.240722656,12901118.278503418
0.145,-74647155.76171875,-51479454.040527344,-78253730.77392578,-14613563.537597656,1206066.8468475342,-11419531.82220459,4535447.597503662,4141669.750213623,8066346.168518066,1616468.7871932983,2529038.429260254,4596404.075622559,-5066022.872924805,-5677867.889404297,8483214.378356934,-465192.64578819275,10391010.284423828,9673323.631286621,-4650314.3310546875,21389.28510248661,115487.15084791183,-2930850.5058288574,-6123349.189758301,8007946.014404297,7601617.813110352,2353682.518005371,7900658.60748291,-973105.6690216064,-2432515.6211853027,-1251568.9134597778,238219.08235549927,7014828.681945801,8945471.76361084,6910876.274108887,5735101.699829102,6430000.305175781,385301.94759368896,-1347973.4659194946,-1942332.7445983887,6068254.9476623535,3619918.3464050293,8081762.313842773,-10164904.594421387,866536.7364883423,2600125.0743865967,7248738.2888793945,6487093.925476074,2481988.4300231934,2567036.6287231445,970159.1730117798,-12746551.513671875,-14222799.301147461,-15428383.827209473,6012139.797210693,14435884.475708008,16162130.355834961,15623371.124267578,6417200.088500977,-14070420.265197754,-574687.9577636719,12760268.211364746,12165896.41571045
0.15,-71259323.12011719,-46057807.92236328,-67984611.51123047,-18463874.81689453,3643367.5289154053,-22130781.173706055,-2789206.2664031982,-3093200.922012329,4605741.97769165,1613550.6629943848,2727940.082550049,9197721.481323242,2431593.894958496,2008682.7278137207,1810594.081878662,-9014649.391174316,6335606.575012207,5801013.946533203,-4544009.208679199,198317.7363872528,2166509.1514587402,4231497.764587402,1660498.2614517212,1629083.1565856934,2939881.0863494873,-2418836.1167907715,5449091.911315918,-722848.7133979797,-1685864.4485473633,-247388.43739032745,3538452.386856079,10476750.373840332,2607858.180999756,1047205.0905227661,3349000.930786133,4228199.481964111,430684.9241256714,-135999.08351898193,-1103072.7624893188,7963908.1954956055,6641582.489013672,2031852.0069122314,-10792743.682861328,340355.9923171997,2916831.4933776855,7865370.750427246,7288253.7841796875,4173521.9955444336,4319041.728973389,2834779.2625427246,-11358394.622802734,-12484433.1741333,-13733136.177062988,6731488.7046813965,14437541.007995605,16954166.412353516,16590227.127075195,4748020.648956299,-12418056.48803711,354350.8052825928,12716957.092285156,12173592.567443848
0.155,-73132743.83544922,-49862365.72265625,-69962982.17773438,-21282146.453857422,-2867101.1924743652,-15943052.291870117,-2858210.0868225098,-2990054.3689727783,2000468.2540893555,-504983.72316360474,-350837.1710777283,6741539.478302002,430438.1012916565,-54377.94327735901,4887506.484985352,-8007080.078125,5254942.893981934,4791449.069976807,-6516503.33404541,-1420318.7227249146,1848301.1722564697,4822735.30960083,-386999.2792606354,4667685.031890869,4493220.329284668,-3520279.884338379,4467012.882232666,-638073.1463432312,-1127981.7819595337,590552.6280403137,5479053.974151611,10300190.925598145,5186236.381530762,3901190.757751465,3174538.6123657227,3871335.029602051,354834.6161842346,326751.5301704407,-379962.0270729065,9079449.653625488,8955655.097961426,4979008.197784424,-8168111.801147461,732474.0290641785,3413614.7499084473,8388991.355895996,6752285.003662109,6251882.076263428,6276977.062225342,5011775.970458984,-8745833.396911621,-9761791.229248047,-11281839.370727539,7401280.879974365,15695336.34185791,17833145.141601562,17554290.771484375,7215666.770935059,-9970457.077026367,3344568.967819214,14084346.771240234,13601984.024047852
0.16,-77748451.23291016,-64079971.31347656,-88507247.92480469,-20023134.231567383,-16101621.627807617,11480263.710021973,9535445.213317871,9127726.554870605,1518885.0164413452,-5874208.450317383,-7428689.002990723,-4045245.64743042,-12504991.53137207,-13206658.363342285,22156900.40588379,8041943.550109863,8756027.221679688,8141134.262084961,-10474697.11303711,-5835419.654846191,-2287932.872772217,-2393772.1252441406,-13549359.321594238,21546546.936035156,15604192.733764648,2625139.2364501953,5912585.258483887,-771767.6162719727,-1771151.7810821533,91773.80055189133,4147374.6299743652,9326073.64654541,21369985.580444336,19834272.384643555,8285408.973693848,6911361.6943359375,311116.5165901184,390052.52718925476,207059.8602294922,9141669.273376465,11552450.180053711,21191085.815429688,33046.58457636833,5129384.517669678,6352610.111236572,10682408.332824707,6570359.706878662,8565493.5836792,8329963.684082031,7390134.334564209,-3065968.2750701904,-4351040.840148926,-6105196.952819824,9711414.337158203,20816001.892089844,21791738.510131836,21530496.59729004,17111270.904541016,-4705420.017242432,10628838.539123535,19360630.03540039,18971559.524536133
0.165,-87708305.35888672,-87446151.73339844,-121605270.38574219,-19246639.251708984,-31055801.391601562,41511741.638183594,25003892.89855957,23939798.35510254,-218846.97675704956,-14454619.407653809,-17259361.267089844,-18344827.65197754,-30471582.412719727,-31251966.47644043,43438007.35473633,27826210.021972656,12283527.374267578,11466215.133666992,-15578455.924987793,-12744972.229003906,-9725098.609924316,-13182003.021240234,-31584501.266479492,42456272.12524414,29907320.022583008,10835583.686828613,6794103.145599365,-995154.2615890503,-4471208.572387695,-3274756.43157959,-1491441.9651031494,8148212.432861328,41935314.1784668,39847167.96875,15274238.586425781,10968152.99987793,354494.1842556,366557.0318698883,-549733.9367866516,8438918.113708496,13689815.521240234,41440677.642822266,9566231.727600098,12026700.973510742,11453807.830810547,16629529.95300293,9146656.99005127,10873427.391052246,10389430.99975586,9668638.229370117,5657079.696655273,3999264.0018463135,2226085.424423218,15520094.871520996,28485607.147216797,29623300.552368164,29428623.19946289,30286432.26623535,3760868.787765503,19637298.583984375,26850719.451904297,26622344.970703125
0.17,-100574249.26757812,-109055397.0336914,-151099517.82226562,-22565404.891967773,-41725341.796875,50908119.201660156,29553859.71069336,28267000.198364258,-4249914.169311523,-21530107.498168945,-24854045.867919922,-28373870.849609375,-43775218.96362305,-44423709.869384766,51697746.27685547,34557529.44946289,11371832.847595215,10540959.358215332,-18983528.13720703,-18090845.108032227,-16651605.606079102,-21523529.052734375,-44742027.282714844,50663124.084472656,35854991.9128418,12580390.930175781,4771428.58505249,-1039147.8538513184,-7866519.927978516,-8925031.661987305,-9949980.735778809,3548876.2855529785,50317707.06176758,47910366.05834961,17125450.134277344,11757619.857788086,369823.3664035797,-471310.2579116821,-4346094.131469727,5298441.410064697,10995053.2913208,49551898.95629883,11965616.226196289,14554152.488708496,13712195.39642334,21853145.599365234,12025074.95880127,10138604.164123535,9576737.403869629,8812631.607055664,11378663.063049316,9642299.65209961,7994507.789611816,20641647.338867188,31164205.55114746,33884902.95410156,33817813.873291016,35650249.48120117,9560107.231140137,22281538.009643555,29074914.932250977,29023614.88342285
0.175,-102907135.00976562,-111181640.625,-150879669.18945312,-25404993.057250977,-41984668.73168945,35438945.77026367,20315837.860107422,19692647.93395996,-6099574.565887451,-20887517.92907715,-24687047.958374023,-28805004.119873047,-44615417.48046875,-45168567.6574707,40020355.224609375,24135185.24169922,6938811.779022217,6278263.568878174,-17516935.348510742,-17113695.14465332,-18138961.791992188,-22812128.0670166,-45432697.29614258,39145545.959472656,27878744.12536621,5966402.530670166,1763433.814048767,-774357.5572967529,-8877537.727355957,-12907335.28137207,-16122097.01538086,-4220592.021942139,39145427.70385742,36932708.740234375,11464428.901672363,7911733.150482178,264413.5355949402,-1991225.4810333252,-9487442.016601562,-551965.4750823975,1887471.318244934,38389850.61645508,4039651.393890381,8508215.90423584,9534301.7578125,18979370.1171875,10414850.234985352,4637797.832489014,4258092.880249023,3231720.209121704,7270777.225494385,5812733.173370361,4347325.325012207,17914331.436157227,23512155.532836914,26647569.65637207,26657926.559448242,26486005.783081055,5726645.946502686,13975699.424743652,21309000.01525879,21295507.431030273
0.18,-86366157.53173828,-88779182.43408203,-115670387.2680664,-22009584.426879883,-30468606.94885254,10433715.8203125,6628297.805786133,6868414.878845215,-2721999.8836517334,-12887488.36517334,-17145744.32373047,-21073028.564453125,-33264995.574951172,-33929412.841796875,18076276.779174805,7391942.024230957,2673742.5327301025,2157840.2519226074,-12098138.809204102,-10569567.680358887,-13194152.83203125,-16487836.837768555,-34043064.11743164,17307249.069213867,12085511.207580566,-2656876.0871887207,922069.0131187439,-431619.9719905853,-6234827.518463135,-11378409.385681152,-15167588.233947754,-8883740.425109863,17525590.896606445,15838279.724121094,3661537.1704101562,2635451.078414917,116624.54158067703,-2216052.293777466,-10926449.7756958,-4778769.016265869,-7902558.80355835,16910211.56311035,-7179204.46395874,-985008.1205368042,3142167.806625366,8235110.282897949,4655477.046966553,-1135154.7241210938,-1178030.1332473755,-2492227.077484131,-4372320.652008057,-5482242.584228516,-6664273.738861084,7532219.409942627,10734985.3515625,11931132.316589355,11880236.625671387,9496603.965759277,-5607219.696044922,876330.316066742,9102165.222167969,8900721.549987793
0.185,-63227882.385253906,-59978603.36303711,-73064201.35498047,-15348435.401916504,-14835368.156433105,-7513756.275177002,-2257356.4052581787,-2000153.0647277832,1711766.004562378,-5536397.457122803,-9328957.557678223,-12282950.401306152,-18920154.571533203,-19709707.260131836,1570225.715637207,-3549860.954284668,62614.25465345383,-438720.5243110657,-8066884.0408325195,-4979823.112487793,-6583144.187927246,-7263869.285583496,-19685504.913330078,840461.9097709656,209131.1365365982,-6592327.59475708,1999015.5696868896,-379700.9885311127,-2475725.6507873535,-5440762.519836426,-8304622.650146484,-6130210.399627686,1201569.7956085205,7995.770312845707,667817.9502487183,126927.9420375824,53008.76870751381,-11403.69102358818,-6487178.325653076,-2956027.030944824,-11118274.688720703,660546.600818634,-11441555.02319336,-4445899.486541748,2512333.393096924,-493859.32087898254,611129.879951477,-770656.943321228,-627355.3371429443,-1988320.9466934204,-12261292.457580566,-13176332.473754883,-13992636.680603027,-888176.9776344299,3529719.114303589,2915638.4468078613,2716076.135635376,-1413355.4697036743,-13174122.81036377,-6007421.493530273,2673704.6241760254,2217298.5076904297
0.19,-52401809.69238281,-46034294.12841797,-54022064.208984375,-12777523.9944458,-5738130.569458008,-13241477.966308594,-4985025.882720947,-5591961.38381958,1518879.771232605,-4948514.461517334,-7286890.983581543,-8391669.273376465,-11276741.981506348,-11933114.051818848,-2268227.3387908936,-5824658.393859863,-1545579.433441162,-2051818.3708190918,-8954063.415527344,-5044750.690460205,-3917923.4504699707,-1723578.929901123,-11993240.356445312,-2818254.4708251953,-1546607.9711914062,-5339141.368865967,2318448.543548584,-645565.927028656,-1161460.3996276855,-417503.2675266266,-2129930.4962158203,139355.43596744537,-2311374.4258880615,-3241774.559020996,3394859.552383423,1123538.851737976,68842.87297725677,2533219.575881958,-581595.6592559814,2887115.001678467,-7466684.341430664,-2782534.36088562,-6347139.358520508,805182.0993423462,9051851.272583008,603396.1176872253,1709646.3441848755,5195816.0400390625,5160274.505615234,4177973.2704162598,-8959536.5524292,-9758106.231689453,-10319874.76348877,260362.3867034912,5427768.230438232,5763844.966888428,5481900.691986084,-399635.1957321167,-9560686.111450195,-3315185.070037842,4861611.843109131,4362867.35534668
0.195,-53515865.325927734,-45561450.95825195,-57440345.764160156,-14137373.924255371,-5263004.302978516,-10179383.277893066,-4153281.6886901855,-5441913.12789917,-1801295.6380844116,-7917924.404144287,-9347581.86340332,-8751135.82611084,-11094927.787780762,-11429755.210876465,2049475.908279419,-3218485.116958618,-1988912.582397461,-2413713.4552001953,-11850724.220275879,-8157698.631286621,-5567618.846893311,-1999891.757965088,-11768331.527709961,1847012.5198364258,3119808.9122772217,-2706438.3029937744,1260156.512260437,-832170.844078064,-2642581.7012786865,226702.7497291565,-1198504.3287277222,3208166.5992736816,2354207.0388793945,1494079.2322158813,6853947.639465332,2721191.40625,79479.4037938118,2335662.1265411377,896536.8866920471,6134642.124176025,-3088065.8626556396,2078386.0683441162,867565.4530525208,7782598.972320557,15264401.43585205,7032899.856567383,4183123.1117248535,9163927.07824707,8754524.230957031,8423239.707946777,-230167.32931137085,-856381.893157959,-1405384.89818573,6564450.263977051,9550027.847290039,12270380.020141602,12081777.572631836,5044856.548309326,-685347.4378585815,1678773.6415863037,8779052.734375,8518136.978149414
0.2,-49455688.4765625,-40971389.77050781,-58224201.20239258,-12071985.244750977,-6044240.474700928,-3029889.8220062256,-586842.2389030457,-1536967.8735733032,-1734648.4661102295,-7454794.883728027,-9703636.169433594,-8856094.360351562,-11987569.808959961,-12139109.61151123,6324391.841888428,957201.7192840576,-371751.7554759979,-695461.0347747803,-11619890.213012695,-8719395.637512207,-7319393.157958984,-4353573.799133301,-12627898.216247559,6356134.414672852,6671785.354614258,-1203689.9328231812,940589.0703201294,-607020.7953453064,-3964741.7068481445,-1745272.159576416,-3711902.141571045,1957133.8891983032,6595460.414886475,5761759.7579956055,6807977.676391602,2176314.353942871,102383.8147521019,-614846.94480896,-2323476.0761260986,3728136.5394592285,-2807308.9122772217,6551256.6566467285,2183943.748474121,8639510.154724121,14056049.346923828,7925206.184387207,2363947.3915100098,6093859.672546387,5521073.341369629,5613612.174987793,2260369.5392608643,1788711.428642273,1137960.7915878296,7396222.5914001465,8335257.530212402,11443654.06036377,11467443.466186523,4909058.094024658,1659815.4306411743,833725.094795227,7423356.533050537,7443599.700927734
0.205,-33901252.74658203,-27200813.29345703,-45851478.576660156,-4153318.8819885254,-2751688.7187957764,4713137.626647949,5641333.103179932,5667897.2244262695,3600970.74508667,-2876579.0462493896,-6698583.126068115,-7126290.798187256,-10526551.246643066,-10764061.92779541,7022387.504577637,5513453.960418701,2580137.014389038,2281560.6594085693,-8098471.641540527,-5819610.118865967,-6445201.396942139,-4823891.162872314,-11079938.888549805,6934903.621673584,6210444.450378418,-379690.7365322113,2464091.5393829346,-136424.85439777374,-2814673.662185669,-2783455.8486938477,-5479073.524475098,227088.0788564682,6819354.53414917,6074542.045593262,4123072.624206543,-115098.05917739868,229943.1562423706,-3081352.949142456,-5445994.853973389,-815025.269985199,-5890216.827392578,6833994.388580322,-2942031.3835144043,3446175.5752563477,7370771.408081055,556573.8081932068,-3379398.3459472656,-364573.77672195435,-708001.1963844299,-806519.5679664612,-4315652.370452881,-4783824.443817139,-5464380.264282227,147947.22199440002,2426642.656326294,3598494.052886963,3772727.2510528564,-1268104.6724319458,-5196938.514709473,-5441807.746887207,1686946.153640747,1774893.5222625732
0.21,-20345512.39013672,-17470611.572265625,-35260318.756103516,3143090.9633636475,1214236.4978790283,10709305.763244629,12012833.595275879,12625821.113586426,9097917.556762695,355167.59753227234,-3946577.310562134,-5974463.939666748,-9440642.356872559,-9817436.218261719,6385089.874267578,9218180.656433105,4620202.06451416,4344866.2757873535,-5750957.012176514,-3430426.836013794,-4497650.623321533,-3804739.475250244,-9870636.940002441,5955142.021179199,4762865.5433654785,578423.9768981934,3996102.3330688477,122841.46249294281,-67406.60220384598,-2017096.5194702148,-5151500.225067139,563023.4479904175,5691176.414489746,5050756.454467773,2437975.8834838867,-1651515.1262283325,426230.5200099945,-2289019.3462371826,-4858432.769775391,-2480635.404586792,-8558614.730834961,5552917.957305908,-8369856.834411621,-1257021.7847824097,3340177.059173584,-6080019.474029541,-6550916.1949157715,-2649715.6620025635,-2603111.743927002,-3338162.422180176,-11062111.854553223,-11601613.04473877,-12256835.9375,-6296792.984008789,-1643738.6274337769,-1222685.2178573608,-1081295.6094741821,-6011151.7906188965,-12013574.600219727,-10043880.462646484,-2246237.7548217773,-2307605.743408203
0.215,-20275638.580322266,-20056653.97644043,-38813434.60083008,4285504.8179626465,684877.5744438171,14969001.770019531,15335473.06060791,15711319.923400879,10139395.713806152,-617898.9410400391,-4163154.6020507812,-6713444.709777832,-10588814.735412598,-10937655.448913574,8417897.22442627,11076196.670532227,4605316.638946533,4485935.688018799,-6914908.409118652,-4098359.5848083496,-3857722.759246826,-3428628.921508789,-10983763.694763184,7775678.1578063965,5928517.818450928,1233926.53465271,3436938.0474090576,-24718.021973967552,1945444.4646835327,-706875.5030632019,-3570312.5,2702185.63079834,7599710.941314697,6892451.286315918,3536608.4575653076,-996972.0840454102,504105.50832748413,1484123.706817627,-1054733.6339950562,265094.45905685425,-7807067.394256592,7252547.740936279,-8172234.535217285,-586804.9263954163,6382081.985473633,-3074050.6649017334,-2024873.971939087,2464066.505432129,2696112.3943328857,1441639.6617889404,-9208376.88446045,-9735038.757324219,-10439229.011535645,-3226018.9056396484,501941.2636756897,3637454.2713165283,3620723.9627838135,-4194815.635681152,-9908528.327941895,-7783169.269561768,-320720.8216190338,-554084.8970413208
0.22,-28415842.056274414,-27535760.8795166,-49843559.26513672,1820909.857749939,-4011372.5662231445,20865497.589111328,16679534.912109375,16452371.597290039,8060760.498046875,-2908225.7747650146,-6199281.692504883,-7670293.33114624,-11679043.769836426,-11918990.135192871,15790200.233459473,12951086.044311523,3901776.075363159,3994965.076446533,-9106884.956359863,-6262053.489685059,-4566894.054412842,-3717063.4269714355,-12198318.481445312,15202496.528625488,10370875.358581543,1564649.1050720215,1334975.004196167,-370788.8722419739,2227806.568145752,484527.1706581116,-1046893.2390213013,6239543.914794922,15093147.277832031,13998852.729797363,6215469.3603515625,1002963.9005661011,377742.5289154053,5702882.766723633,3439970.016479492,5748277.66418457,-2930375.576019287,14619065.284729004,-1921443.4623718262,4035316.9441223145,12402034.759521484,7216194.152832031,7933777.809143066,11614312.171936035,11689454.078674316,10392260.551452637,-502017.3192024231,-1063217.282295227,-1912044.5251464844,6879848.003387451,7725841.522216797,14556451.797485352,14413631.439208984,2878112.554550171,-1011776.0896682739,366854.6974658966,6502936.363220215,6229415.8935546875
0.225,-36710456.84814453,-35444744.11010742,-62407917.02270508,388988.8525009155,-10464465.141296387,32534690.856933594,21360280.990600586,20731094.360351562,6822109.222412109,-3867861.50932312,-8691938.400268555,-8496373.176574707,-12820650.100708008,-13118105.8883667,28874118.80493164,18987625.122070312,5045094.013214111,5138928.413391113,-9587865.829467773,-8180126.190185547,-6096920.013427734,-4469045.162200928,-13565226.554870605,28356201.171875,17500368.118286133,3559190.034866333,63165.30704498291,-678100.7051467896,1184310.793876648,1040184.3786239624,1368075.2515792847,10370948.791503906,28068719.8638916,26352668.76220703,8755408.28704834,3079644.203186035,192041.63551330566,7545207.977294922,5847740.173339844,11069507.598876953,4061517.2386169434,27573284.149169922,5529222.9652404785,7722057.342529297,13978337.287902832,14735371.589660645,15603424.072265625,18475620.26977539,18200696.94519043,17200139.99938965,6346784.591674805,5358848.094940186,4321061.134338379,14000623.70300293,15914507.865905762,23360589.9810791,23208147.048950195,12054011.344909668,5451103.687286377,9991943.359375,14453799.2477417,14270580.291748047
0.23,-48042728.424072266,-52377429.9621582,-84861877.44140625,-369963.6459350586,-18697410.583496094,49063991.54663086,32099243.1640625,31323394.775390625,7821577.548980713,-4841818.332672119,-12206863.403320312,-11688663.482666016,-19026618.95751953,-19593637.466430664,44222961.42578125,30208761.21520996,9253346.44317627,9034264.56451416,-9000722.885131836,-10639083.862304688,-9377987.8616333,-7869752.883911133,-20002489.08996582,43475177.76489258,26530584.33532715,9076424.598693848,1003550.2910614014,-952755.868434906,-821449.5778083801,-916006.9823265076,360102.23627090454,11909273.147583008,42836200.71411133,40582099.91455078,10717699.05090332,5221105.575561523,101235.85164546967,5446184.6351623535,3647097.34916687,12970693.588256836,9013435.363769531,42411140.44189453,8199917.793273926,7556073.188781738,8713260.650634766,13965909.957885742,15299690.246582031,18394104.00390625,17838333.129882812,17113483.428955078,6303725.719451904,4511752.128601074,3228017.568588257,12821164.13116455,21055864.334106445,25892734.52758789,25805757.522583008,21057235.717773438,4467569.828033447,16924587.24975586,19545204.162597656,19477750.778198242
0.235,-64546432.49511719,-79381889.34326172,-117682945.25146484,-2604493.6180114746,-27213281.631469727,61643375.396728516,43494384.765625,42615276.33666992,9764693.260192871,-7090807.4378967285,-16107809.066772461,-17339744.567871094,-30865026.473999023,-31681432.723999023,54119915.00854492,40660655.9753418,14726717.948913574,14150007.247924805,-8946474.075317383,-14069642.066955566,-14505452.156066895,-14852550.506591797,-32000064.849853516,52903591.15600586,34180885.314941406,16242815.017700195,3363626.9569396973,-1265961.1701965332,-3392933.3686828613,-6369242.191314697,-5738731.384277344,8137529.373168945,52033378.60107422,49627048.49243164,12167798.99597168,7650139.808654785,28673.5650151968,409538.95449638367,-3118125.4386901855,9775024.4140625,8629132.270812988,51745273.59008789,4010303.497314453,4769751.54876709,1486394.2861557007,8800989.151000977,8664414.405822754,11637032.508850098,11061772.346496582,10401225.090026855,1933989.0480041504,-467012.34579086304,-2037644.386291504,7498823.642730713,20748718.26171875,23737613.677978516,23707553.86352539,26164089.20288086,-715491.2352561951,18391267.776489258,19203632.354736328,19152561.18774414
0.24,-74923431.39648438,-96618019.1040039,-137509643.5546875,-4860983.371734619,-30430984.497070312,60696361.54174805,46491661.071777344,45538894.65332031,11043781.280517578,-8638515.47241211,-17403280.25817871,-20730440.139770508,-39226661.682128906,-40052295.68481445,52213474.27368164,42286205.29174805,17482837.677001953,16841035.842895508,-8950823.783874512,-16190282.821655273,-18558477.4017334,-21080076.217651367,-40364124.2980957,50716659.54589844,35209320.068359375,20108442.306518555,5208934.783935547,-1505537.1522903442,-5197681.903839111,-12349339.485168457,-12802202.224731445,1581296.3247299194,49928466.796875,47756259.91821289,12569502.830505371,9181606.29272461,-188074.90170001984,-4099550.247192383,-10046484.94720459,3914679.527282715,3576857.328414917,49750000.0,-3242577.314376831,2464065.7901763916,-1433760.643005371,5643857.002258301,2327471.971511841,3475218.0576324463,3136291.265487671,2370416.1643981934,-1820382.2374343872,-4176166.534423828,-5911753.177642822,4521344.6617126465,15438367.84362793,20056495.666503906,20026517.868041992,23464763.641357422,-4567858.695983887,13834313.39263916,13876642.227172852,13684115.409851074
0.245,-69761566.16210938,-90176719.66552734,-128186203.00292969,-5057717.323303223,-27295345.306396484,49283618.92700195,39937358.85620117,39059947.9675293,10489127.159118652,-8333207.130432129,-15738089.561462402,-19424001.693725586,-37638187.408447266,-38302963.25683594,42782432.556152344,35441669.46411133,15408107.75756836,14964857.10144043,-8302411.079406738,-15539596.557617188,-19245916.36657715,-22172740.936279297,-38604885.10131836,41460632.32421875,29602693.557739258,18509014.129638672,5084434.032440186,-1505319.1184997559,-5138258.457183838,-14714453.69720459,-15283088.684082031,-2015933.7520599365,40900695.80078125,38999996.185302734,11620059.967041016,8477699.279785156,-475161.70144081116,-5073976.993560791,-12248389.24407959,347655.5049419403,-2234116.0774230957,40674976.34887695,-7122341.632843018,2207856.1782836914,646340.6085968018,6004247.188568115,1007588.1481170654,-212976.91762447357,-277954.0419578552,-1211525.0825881958,-2728195.905685425,-4741966.247558594,-6402495.861053467,5153543.472290039,9298149.108886719,16856620.78857422,16770954.132080078,16170759.201049805,-5121818.065643311,7066975.116729736,7839391.708374023,7427887.439727783
0.25,-60590507.50732422,-78339889.52636719,-112970916.74804688,-5106232.166290283,-26610338.21105957,44348701.47705078,34177356.7199707,33436809.539794922,7865297.794342041,-9039341.926574707,-15724336.624145508,-18458707.809448242,-33849720.0012207,-34453426.361083984,39827053.07006836,31035835.26611328,11467070.579528809,11148716.926574707,-8639530.181884766,-15017313.957214355,-19224428.176879883,-21228555.67932129,-34626121.520996094,38842029.5715332,26000116.3482666,15542503.356933594,3060464.382171631,-1317248.1060028076,-4456056.118011475,-13896386.14654541,-13930596.351623535,-727344.3937301636,38279144.287109375,36294345.85571289,10507190.704345703,6707535.266876221,-545523.1070518494,-3066021.680831909,-10310201.644897461,1174456.8347930908,-5529713.6306762695,37831180.572509766,-4688153.7437438965,3087487.4591827393,2996119.737625122,7639714.71786499,3923302.65045166,1536390.0661468506,1529432.773590088,446752.3992061615,-952118.2179450989,-3135892.152786255,-4640890.121459961,6795941.352844238,8007062.911987305,15736019.134521484,15584495.544433594,15199460.02960205,-3353773.1170654297,5306536.674499512,6647706.985473633,6117493.152618408
0.255,-64437919.61669922,-85689811.70654297,-123322090.14892578,-7055983.543395996,-34024963.37890625,56312980.65185547,38575225.830078125,37788944.244384766,5168820.858001709,-12533495.903015137,-19949750.900268555,-21984598.15979004,-37485164.642333984,-38245052.337646484,50641582.48901367,37463127.13623047,10597369.194030762,10165226.936340332,-11541769.027709961,-17973632.8125,-22252756.118774414,-23755002.975463867,-38242710.11352539,49629669.189453125,31750541.68701172,16550945.281982422,719776.3323783875,-1150367.259979248,-5548244.953155518,-13865414.6194458,-13639122.009277344,2792572.259902954,48747661.59057617,46326816.55883789,10902621.269226074,6757391.929626465,-280867.0997619629,-1109864.4733428955,-9018860.816955566,3984009.027481079,-5592331.886291504,48057296.75292969,908178.7467002869,3610104.3224334717,2233046.293258667,9564529.418945312,7581739.42565918,4808651.924133301,4615664.005279541,3485814.5713806152,2780415.7733917236,-227066.47217273712,-1734695.4345703125,8417434.692382812,13589702.606201172,18123666.763305664,17967523.5748291,26088445.66345215,-252209.24615859985,12285135.269165039,12082396.507263184,11635390.281677246
0.26,-74525779.7241211,-99850776.67236328,-143860595.703125,-7451359.748840332,-38385932.92236328,70694160.46142578,47885723.11401367,46843101.501464844,5680368.900299072,-14228530.883789062,-22659053.802490234,-22901245.1171875,-40144222.259521484,-41078380.5847168,63331474.30419922,47694053.649902344,13109997.749328613,12545850.75378418,-14650012.016296387,-21873477.935791016,-25600559.23461914,-25649591.44592285,-41034221.64916992,61893486.02294922,41038017.27294922,20564094.54345703,-192736.41705513,-1085683.822631836,-8113561.630249023,-14965784.072875977,-13773258.209228516,7813336.8492126465,60808650.970458984,58068691.25366211,12520610.809326172,9111840.24810791,77885.9630227089,-730517.4469947815,-9923840.522766113,6449409.961700439,-2629366.397857666,60043369.29321289,4330873.966217041,3556922.674179077,462056.5474033356,12363975.524902344,9941784.858703613,6482776.165008545,6095566.749572754,5089965.343475342,6806814.193725586,3166594.2668914795,1544798.3741760254,10950635.91003418,21711332.321166992,23299022.674560547,23216575.622558594,38885337.829589844,3216898.202896118,22615627.28881836,19861284.255981445,19611587.524414062
0.265,-68162361.14501953,-85312271.11816406,-127333305.35888672,-2178034.543991089,-24110923.767089844,61588096.618652344,47364044.189453125,46137004.85229492,9974445.343017578,-8330793.380737305,-16166141.510009766,-10031230.926513672,-23492725.372314453,-24360244.750976562,58703590.393066406,45918529.51049805,14054233.55102539,13574764.251708984,-13489510.536193848,-20252182.006835938,-21802551.26953125,-15763269.424438477,-24466032.028198242,57016124.7253418,39957309.72290039,21082885.7421875,431215.2862548828,-1030960.7982635498,-8591029.167175293,-12547461.50970459,-7654058.456420898,17084918.975830078,56315723.41918945,53788780.212402344,12640425.682067871,10420125.007629395,217839.67316150665,-814398.5271453857,-9488160.133361816,9478499.412536621,3222714.424133301,55656978.607177734,2924249.4106292725,3069727.659225464,856613.7552261353,14565335.273742676,10530079.84161377,7078111.171722412,6724073.41003418,5955106.258392334,7860394.477844238,4547379.493713379,2946070.671081543,13230957.984924316,25130781.173706055,27161352.157592773,27147022.247314453,38388671.875,4505487.91885376,26049858.09326172,23092109.68017578,22980245.59020996
0.27,-44964145.66040039,-41468647.00317383,-69340728.75976562,4583301.067352295,3511969.566345215,25199640.27404785,32048141.479492188,30974756.240844727,14437616.348266602,2906934.2613220215,-2548749.2084503174,13796429.634094238,10749951.362609863,10158318.519592285,34617973.32763672,27637769.69909668,10454148.292541504,10150048.25592041,-7352939.128875732,-11716426.849365234,-9764168.739318848,6113497.734069824,9817022.323608398,33292182.92236328,24268419.26574707,14760477.066040039,893493.8311576843,-947652.8763771057,-4891655.921936035,-5019281.387329102,5605509.281158447,29520801.544189453,33429721.83227539,31463655.471801758,8705253.601074219,7583456.516265869,114243.40307712555,-588781.2972068787,-6033288.00201416,13666855.812072754,10161297.798156738,32865947.723388672,-2955646.753311157,695854.902267456,1339698.1954574585,12634296.417236328,8608119.010925293,7252964.973449707,7135990.619659424,6511672.496795654,3210729.3605804443,829419.4936752319,-607217.6098823547,11589215.278625488,20475326.538085938,25375181.198120117,25335910.79711914,23508499.145507812,612383.6636543274,18475864.41040039,18554601.669311523,18444425.582885742
0.275,-33394969.940185547,-13019354.820251465,-26453702.926635742,3417849.7791290283,19940649.032592773,-12568773.26965332,13574728.965759277,12941740.989685059,15300599.098205566,10495598.793029785,7256192.684173584,30595647.81188965,35495864.86816406,35111419.677734375,9542543.411254883,6000401.020050049,5783892.631530762,5454791.069030762,-729474.9617576599,-2948560.7147216797,1253623.7239837646,23449699.40185547,34581336.975097656,8872537.612915039,5287230.491638184,5870857.715606689,-275759.10091400146,-927314.4006729126,126738.38436603546,1481368.3032989502,15855825.424194336,37064449.310302734,9661070.823669434,8030612.945556641,1292116.5227890015,2001045.9423065186,-17619.628459215164,-1183205.246925354,-3680489.3016815186,15846533.77532959,14088726.997375488,9000385.284423828,-12029212.951660156,-5409183.025360107,-3107809.7820281982,5890875.816345215,4098371.5057373047,5137865.5433654785,5234515.190124512,4507666.58782959,-6122050.762176514,-8003112.79296875,-9405920.98236084,4954432.010650635,11334549.903869629,18162574.768066406,18052610.397338867,8626153.945922852,-8344400.405883789,6433142.185211182,9584238.052368164,9399103.164672852
0.28,-50423473.3581543,-29221775.05493164,-40124385.833740234,-7683121.204376221,12465362.548828125,-28241306.30493164,4224215.030670166,4000172.6150512695,12578703.880310059,9533164.978027344,6852333.068847656,28540330.88684082,31628074.645996094,31250595.092773438,-866598.3080863953,-5112928.867340088,4333739.757537842,3781661.033630371,1761334.0616226196,-764692.6641464233,2532853.126525879,22600034.713745117,30615192.413330078,-1221216.2017822266,-4727690.21987915,356082.40962028503,-2586731.6722869873,-998326.1227607727,1972200.3936767578,706698.2984542847,14237205.505371094,33863342.28515625,-342992.2163486481,-2050879.716873169,-5847199.440002441,-1991078.1383514404,-45251.09380483627,-2960108.0417633057,-5994910.24017334,13031307.220458984,12237217.903137207,-1207350.730895996,-21663339.614868164,-13574461.936950684,-11656987.190246582,-899501.3236999512,-162851.88496112823,79935.78910827637,200875.52070617676,-757244.1697120667,-15214711.18927002,-17386964.797973633,-18999572.75390625,-2018378.0193328857,4493351.459503174,10736870.765686035,10635041.236877441,4565156.936645508,-17742031.09741211,-565726.2206077576,2720775.842666626,2474239.5877838135
0.285,-75653800.96435547,-62385437.01171875,-78376159.66796875,-20090774.536132812,-3699027.5382995605,-28072982.788085938,1549409.9855422974,1380101.9191741943,8645174.026489258,3919469.8333740234,1099554.0618896484,16405975.341796875,13024914.741516113,12635077.476501465,-1287568.0923461914,-7144590.854644775,4343400.955200195,3665843.2483673096,-160515.36798477173,-4422747.611999512,-3392262.6972198486,10860983.848571777,11929164.88647461,-1754259.3479156494,-6294399.738311768,-1292193.7704086304,-4345877.170562744,-1025224.6856689453,27815.081179142,-4869223.117828369,5548883.91494751,24998462.677001953,-1050879.2400360107,-2799982.786178589,-8692023.277282715,-2080357.551574707,-16354.961320757866,-3744432.9261779785,-9747538.566589355,7935751.438140869,6798933.029174805,-1935349.1067886353,-26950649.26147461,-18041116.71447754,-15887786.865234375,-1994467.02003479,-191695.30272483826,-3822559.118270874,-3817914.4859313965,-4824248.313903809,-18967514.038085938,-21524816.513061523,-23317615.509033203,-3277679.681777954,3616415.023803711,8273939.13269043,8267243.385314941,6513176.918029785,-21835161.209106445,80464.05762434006,1761857.271194458,1497754.0969848633
0.29,-81133430.48095703,-69488365.17333984,-85019493.10302734,-25755527.49633789,-8144581.7947387695,-32624542.236328125,-4349167.346954346,-4907661.914825439,4864091.396331787,-626868.5460090637,-2591389.1792297363,10234170.913696289,5670148.849487305,5431087.493896484,-4778636.932373047,-10223489.761352539,1150418.6391830444,586509.5257759094,-3748056.411743164,-8548598.289489746,-7831702.709197998,5317809.581756592,4652137.279510498,-5306462.287902832,-7241312.503814697,-2448679.4471740723,-4755480.2894592285,-910434.901714325,-2637776.8516540527,-8025811.195373535,1144433.9752197266,20210559.844970703,-4561631.679534912,-5926994.800567627,-6266976.356506348,276981.29415512085,34351.47553682327,-1866367.5785064697,-9652019.500732422,6148538.589477539,2785870.7904815674,-5176451.683044434,-24476156.23474121,-14798077.583312988,-9928521.156311035,2969883.918762207,4320842.266082764,-2089691.162109375,-2163793.0870056152,-2917226.552963257,-16391069.412231445,-18742319.107055664,-20412876.12915039,1811790.2278900146,6851101.875305176,11142766.952514648,11187561.03515625,4738810.5392456055,-19027053.833007812,3700769.1860198975,5105022.430419922,4833607.196807861
0.295,-70432029.7241211,-52033340.45410156,-59784656.5246582,-25955602.645874023,-2032645.9407806396,-44899585.72387695,-13736617.088317871,-14885010.719299316,1775045.8717346191,-3310103.8932800293,-3874860.2867126465,12410989.761352539,12421842.575073242,12369991.302490234,-12174108.505249023,-16510782.241821289,-4698484.420776367,-5116226.1962890625,-6978874.683380127,-10944529.53338623,-8447718.620300293,8967679.977416992,11563759.803771973,-12468635.559082031,-9545618.057250977,-4224519.729614258,-4554205.894470215,-756656.2294960022,-4114545.8221435547,-7404352.188110352,2889816.0457611084,21032762.52746582,-11429400.444030762,-12287014.00756836,-1461212.9926681519,2512087.821960449,176227.4205684662,690653.2645225525,-6704828.73916626,8274141.311645508,2152365.4460906982,-11782314.30053711,-17534282.684326172,-7109207.1533203125,795910.0008010864,8673045.15838623,9124618.530273438,3409230.2322387695,3409466.505050659,2932556.15234375,-11424843.788146973,-13241391.1819458,-14610369.682312012,7752710.819244385,9776938.438415527,15361722.946166992,15361959.457397461,-367840.1708602905,-13515126.22833252,5570108.413696289,8255946.159362793,7939093.589782715
0.3,-68140937.80517578,-45393226.623535156,-49417312.62207031,-26154510.498046875,-645070.0759887695,-49811012.268066406,-17208414.07775879,-18697607.040405273,715796.947479248,-5891674.995422363,-6515671.730041504,12957663.536071777,14918333.053588867,14824493.408203125,-13572155.952453613,-19039964.67590332,-7771506.786346436,-8233559.608459473,-9569237.70904541,-13620396.614074707,-10278296.47064209,9859503.746032715,14125293.731689453,-13686226.844787598,-8883281.707763672,-4778462.4099731445,-4741055.488586426,-717412.4121665955,-5397787.570953369,-8139477.729797363,2662762.6419067383,20534673.6907959,-12434148.788452148,-13237302.780151367,1632281.6610336304,3519559.860229492,404119.7896003723,751573.6222267151,-6448436.737060547,9284137.725830078,2107813.3583068848,-12891558.647155762,-13632835.388183594,-2395329.9522399902,5367498.874664307,10133156.776428223,10447418.212890625,6281514.1677856445,6456768.035888672,5930841.92276001,-9090722.08404541,-10788927.07824707,-12010283.470153809,9167220.115661621,9805777.549743652,17039112.091064453,17038145.065307617,-1086996.5553283691,-11001206.398010254,5379413.12789917,8328357.696533203,7917345.04699707
0.305,-80547592.16308594,-61477855.68237305,-71841804.50439453,-27701545.71533203,-7942754.745483398,-41712188.720703125,-11760228.157043457,-13036926.26953125,2104771.614074707,-8085831.642150879,-10442223.54888916,7495544.43359375,5108805.179595947,4732470.512390137,-6509779.453277588,-15333336.83013916,-6289791.584014893,-6911006.927490234,-11598971.366882324,-17318408.966064453,-15406638.145446777,2344869.1368103027,4264394.760131836,-6829743.385314941,-4640507.221221924,-3875051.498413086,-5486629.486083984,-780958.5928916931,-7089146.137237549,-12287190.437316895,-3136045.455932617,15214123.725891113,-5625966.0720825195,-6805354.595184326,1451172.8286743164,3472000.83732605,529225.5878448486,-1362106.9192886353,-10022343.635559082,6243150.71105957,-425038.6953353882,-6461874.961853027,-15527566.909790039,-3597345.5905914307,705542.1471595764,7514267.444610596,8957815.170288086,3866909.0270996094,4164780.1399230957,3299597.74017334,-10752114.295959473,-12903053.283691406,-14218382.835388184,6177584.648132324,7525087.833404541,15318901.062011719,15477883.338928223,3928238.6302948,-12998287.200927734,4859295.845031738,5861456.394195557,5364278.316497803
0.31,-90248619.07958984,-76116729.73632812,-94516777.03857422,-29170198.440551758,-13625978.469848633,-34395820.61767578,-6850477.21862793,-7506831.645965576,3005042.552947998,-9066458.702087402,-12456781.387329102,2697061.777114868,-4364128.112792969,-4996908.187866211,-948060.6317520142,-12623492.240905762,-5138518.810272217,-5812805.17578125,-12949982.643127441,-19586610.794067383,-19009540.557861328,-4373851.299285889,-5277260.780334473,-1634748.5780715942,-2553463.6974334717,-4138934.1354370117,-6486258.506774902,-835092.6041603088,-7518610.47744751,-15187754.63104248,-7959457.3974609375,10106108.665466309,-588244.0805435181,-1932831.1681747437,-250547.23024368286,2769870.0428009033,394887.65597343445,-2489626.169204712,-12586496.353149414,2338225.3646850586,-4854694.843292236,-1598271.369934082,-18476470.947265625,-6606556.8923950195,-5669295.787811279,4458940.029144287,7315102.577209473,-395366.7879104614,-127455.75606822968,-1251225.3522872925,-13695908.546447754,-16290069.580078125,-17724292.755126953,2853960.2756500244,4605849.266052246,11522712.707519531,11874116.897583008,7210148.811340332,-16295900.344848633,4109292.507171631,2808019.3996429443,2312880.039215088
0.315,-87992286.6821289,-73084251.4038086,-92232704.16259766,-31609556.198120117,-12967045.783996582,-38927310.943603516,-10506717.681884766,-10620355.606079102,-9944.509714841843,-10598893.165588379,-12723767.280578613,3293791.0556793213,-3383830.0704956055,-4065954.2083740234,-4121451.8547058105,-16632375.717163086,-8226862.907409668,-8798727.035522461,-13841987.609863281,-19159505.84411621,-17639743.80493164,-2505065.2027130127,-4380215.167999268,-4928138.256072998,-6041540.622711182,-6696340.560913086,-7563189.0296936035,-887264.4305229187,-5704622.745513916,-13317817.687988281,-6393262.3863220215,10040135.383605957,-3982524.871826172,-4926944.732666016,-1248763.3228302002,2020676.3744354248,112488.53802680969,-1766730.546951294,-11211555.480957031,1451412.7969741821,-8450493.812561035,-4712444.78225708,-18037555.694580078,-6987257.480621338,-6627905.84564209,3214009.5233917236,5913328.647613525,-3162874.460220337,-3044882.7743530273,-4139091.0148620605,-15285171.508789062,-17847103.118896484,-19264999.389648438,1788330.078125,1730235.3382110596,7205049.03793335,7536138.534545898,3848705.291748047,-17840034.48486328,2040277.0042419434,12683.126144111156,-395741.16468429565
0.32,-86161529.54101562,-67989158.6303711,-84461341.85791016,-36480739.59350586,-13920950.889587402,-46249485.01586914,-17165685.653686523,-17166877.74658203,-5300268.173217773,-14359251.022338867,-14603087.425231934,4320060.729980469,-125927.6270866394,-748700.0823020935,-9915596.008300781,-22414705.276489258,-12175834.655761719,-12608400.344848633,-14595390.319824219,-18465824.127197266,-15131134.986877441,1660833.477973938,-1304273.4861373901,-10630199.432373047,-10665560.722351074,-8589196.20513916,-8313756.942749023,-1048516.1542892456,-3814833.641052246,-10106395.721435547,-2781092.882156372,12198469.161987305,-9769335.746765137,-10187155.723571777,-1285782.2179794312,2140258.550643921,-61871.2455034256,-1987818.4795379639,-9110100.746154785,2606460.3328704834,-9915502.548217773,-10055335.998535156,-16306774.139404297,-5719643.115997314,-4019309.9975585938,3015742.301940918,3450226.068496704,-5277681.827545166,-5331757.068634033,-6289583.683013916,-15896266.93725586,-18148183.822631836,-19530555.725097656,1986255.168914795,-1028771.2812423706,3782279.2530059814,3852657.3181152344,-1659079.4324874878,-18153326.0345459,-962060.9879493713,-2672645.092010498,-3017296.314239502
0.325,-94521316.52832031,-77469039.91699219,-96773788.45214844,-40483303.07006836,-21616937.6373291,-41459548.95019531,-15726132.3928833,-15948029.518127441,-7052570.819854736,-17872432.708740234,-18298603.057861328,616643.1903839111,-5263872.6234436035,-5884136.67678833,-8216346.740722656,-21350168.228149414,-11162721.633911133,-11487138.748168945,-14960838.317871094,-19833221.435546875,-16377071.380615234,-1008756.7567825317,-6675543.308258057,-8954334.259033203,-9905944.82421875,-6432339.668273926,-7821238.5177612305,-1303957.9391479492,-4467911.720275879,-10258279.800415039,-3452477.45513916,11632940.292358398,-8237735.748291016,-8628516.19720459,-955125.3914833069,3646400.213241577,-42673.878371715546,-4932027.339935303,-9884113.311767578,2833480.1197052,-9564947.128295898,-8333086.967468262,-16992519.37866211,-5916027.545928955,-3612927.4368286133,2827337.7418518066,651542.1867370605,-7768766.8800354,-7950395.584106445,-8898502.349853516,-16746984.481811523,-18882865.90576172,-20397882.46154785,1873579.3828964233,-2604598.9990234375,2946676.254272461,2774517.53616333,-2157941.8182373047,-18884849.548339844,-2517822.265625,-4434556.484222412,-4830615.997314453
0.33,-101889701.84326172,-89509475.70800781,-116133544.921875,-38361824.03564453,-28015130.9967041,-26721000.67138672,-5594179.630279541,-6005576.133728027,-2904847.6219177246,-17228446.96044922,-19662113.189697266,-3579725.742340088,-13181208.610534668,-13846617.698669434,822367.7277565002,-13562693.59588623,-5519321.918487549,-5748743.534088135,-14517374.992370605,-21693092.346191406,-19467948.91357422,-7040584.564208984,-14669264.793395996,-66147.35722541809,-3662237.4057769775,-1224461.317062378,-5724702.35824585,-1436145.9016799927,-6809229.850769043,-12235357.284545898,-6210213.661193848,9832013.130187988,532009.7804069519,-324199.6765136719,285982.6982021332,6030402.660369873,50495.66179513931,-8003510.475158691,-11668590.545654297,2791975.736618042,-7155491.828918457,332948.38666915894,-17980348.587036133,-6796884.059906006,-5638494.01473999,3542522.90725708,501022.2792625427,-7713877.6779174805,-7949066.638946533,-8954195.976257324,-16638187.408447266,-18991476.05895996,-20752183.91418457,2217725.7537841797,-1081892.490386963,5962507.724761963,5802333.354949951,3021134.853363037,-19038091.6595459,-556992.2924041748,-3209877.7294158936,-3733890.0566101074
0.335,-93772300.72021484,-82652687.0727539,-111659507.75146484,-30791326.52282715,-23886709.213256836,-18095771.78955078,2537353.992462158,2175903.3203125,2444664.716720581,-13202322.006225586,-16471944.808959961,-1126127.2430419922,-10938694.953918457,-11587202.072143555,7807613.372802734,-7877384.185791016,-1432873.9643096924,-1605980.7538986206,-13615071.296691895,-21019639.96887207,-18974470.138549805,-6154099.941253662,-12239906.311035156,6952451.705932617,1834459.7816467285,2368978.500366211,-3384139.060974121,-1257678.8663864136,-7613609.790802002,-11084383.010864258,-4263877.868652344,12159988.403320312,7591025.829315186,6340496.063232422,2995227.813720703,8129065.51361084,136759.2066526413,-7598042.964935303,-10353959.083557129,5545575.141906738,-2253237.9627227783,7241465.091705322,-14361593.246459961,-5063852.310180664,-5315810.203552246,6201250.076293945,4121756.5536499023,-2140059.232711792,-2334223.2704162598,-3268921.136856079,-13492426.872253418,-16166921.615600586,-18007568.359375,4535504.8179626465,3823338.031768799,11768928.527832031,11811995.506286621,8664458.274841309,-16357652.66418457,4337131.023406982,1671854.9728393555,1073564.887046814
0.34,-75811607.36083984,-60162075.04272461,-83318237.3046875,-24808534.622192383,-13173429.489135742,-23197418.212890625,960884.3326568604,774547.0404624939,3141905.5461883545,-10940492.630004883,-12085126.876831055,6338747.501373291,852386.3554000854,295857.13148117065,6529779.91104126,-10556587.219238281,-2967337.8467559814,-3179756.6413879395,-13249546.05102539,-18059614.181518555,-14662859.916687012,1862859.0106964111,-160761.17753982544,5953342.914581299,1337840.5570983887,1052821.9938278198,-2975839.376449585,-852467.0600891113,-5782877.445220947,-6533390.045166016,2447516.2029266357,18488002.77709961,6755891.3230896,5553328.037261963,5368505.477905273,8970023.155212402,258834.77926254272,-4096775.0549316406,-6039228.916168213,10728411.674499512,3042586.326599121,6336036.205291748,-7293495.655059814,-1087182.2834014893,-1120568.037033081,9364689.826965332,8625552.1774292,5973869.323730469,5876606.9412231445,5118486.8812561035,-8582593.91784668,-11411975.860595703,-13013753.890991211,7837958.335876465,9080187.797546387,16636501.31225586,16796821.59423828,10408698.081970215,-11743559.837341309,8922352.79083252,7250583.171844482,6708589.07699585
0.345,-66557266.23535156,-46067398.07128906,-62511627.197265625,-25643215.17944336,-7729723.4535217285,-32985301.971435547,-6643579.006195068,-6754507.541656494,-924726.3073921204,-13400675.773620605,-11072478.294372559,10120316.505432129,8444007.873535156,7979512.691497803,113348.06680679321,-18544630.05065918,-7995121.479034424,-8296030.9982299805,-14030895.233154297,-16055192.947387695,-11767142.295837402,6479763.984680176,7583453.65524292,-280354.94685173035,-4080531.120300293,-3996025.562286377,-5101726.531982422,-515343.48726272583,-3558635.950088501,-3320411.6821289062,6884093.284606934,22210149.76501465,650403.1419754028,-249256.99830055237,4600487.232208252,8388138.771057129,402740.2400970459,-1044257.8792572021,-2609722.61428833,14041268.348693848,4582642.555236816,171783.52177143097,-3735565.185546875,752739.7871017456,2805380.10597229,10372952.461242676,10506083.488464355,9900906.562805176,9828897.476196289,9148652.076721191,-6161151.885986328,-8868490.219116211,-10126320.838928223,9285265.922546387,10609918.594360352,17050804.138183594,17074241.638183594,8203390.121459961,-9176744.46105957,9938996.315002441,9064462.661743164,8667904.8538208
0.35,-72836631.77490234,-52471397.399902344,-68527359.00878906,-31451133.728027344,-11838022.232055664,-36275768.2800293,-12201207.160949707,-12403024.673461914,-5389566.898345947,-18195125.579833984,-13819632.530212402,6415352.344512939,4422287.940979004,4035291.1949157715,-4744965.076446533,-24474157.333374023,-12180236.81640625,-12504711.151123047,-15639753.341674805,-16750608.444213867,-13099193.572998047,2067569.2558288574,3549037.456512451,-5258810.997009277,-8990738.868713379,-8933016.777038574,-8065371.513366699,-479821.0859298706,-3131032.2284698486,-3992084.02633667,5321935.653686523,19280149.459838867,-4299095.153808594,-5019487.8578186035,915850.4009246826,7142293.930053711,420582.68189430237,-222325.47402381897,-2099682.092666626,13056105.613708496,824388.6232376099,-4853350.639343262,-6761764.049530029,-1591282.1292877197,3060659.408569336,8919519.424438477,9759178.161621094,7250302.791595459,7055389.881134033,6298095.703125,-8207308.769226074,-10590725.898742676,-11776970.863342285,8024152.755737305,7548703.193664551,13264540.672302246,13018893.241882324,4512670.993804932,-10719990.730285645,7097502.2315979,5918931.484222412,5660802.364349365
0.355,-84133132.93457031,-67196456.90917969,-87492828.36914062,-36677627.56347656,-18910457.611083984,-32765041.35131836,-12890905.380249023,-13247898.10180664,-7326800.82321167,-21419389.724731445,-17157712.936401367,485011.8160247803,-3878430.6049346924,-4161696.9108581543,-5053040.027618408,-25004762.649536133,-13702788.352966309,-13993318.557739258,-17160602.569580078,-18541315.07873535,-15561192.512512207,-4933598.518371582,-4786370.277404785,-5728976.249694824,-9503185.272216797,-10983695.983886719,-9835790.634155273,-728629.5294761658,-4068257.8086853027,-5858805.179595947,1998318.6721801758,13715647.69744873,-4770282.745361328,-5547730.445861816,-1982593.6555862427,6361675.73928833,246958.4345817566,-125446.03645801544,-2852816.343307495,10408636.093139648,-4456950.664520264,-5352915.287017822,-11231954.574584961,-4827098.846435547,1440390.1100158691,7552089.214324951,9090131.759643555,2522333.1451416016,2189282.6557159424,1384292.6025390625,-11763348.579406738,-13884439.468383789,-15361441.612243652,6433677.196502686,3342118.501663208,9236275.672912598,8852432.250976562,1914653.4204483032,-13860055.923461914,3502954.9598693848,1412899.4941711426,1234411.597251892
0.36,-88796531.6772461,-73507446.2890625,-96702224.73144531,-37673740.38696289,-21604249.954223633,-28258302.688598633,-10896688.461303711,-11373468.399047852,-6866162.7769470215,-21703330.993652344,-18238121.032714844,-1283990.979194641,-6530210.494995117,-6723515.033721924,-2136300.0869750977,-22444480.895996094,-13010649.681091309,-13346814.155578613,-17590888.97705078,-19150430.67932129,-15257852.554321289,-6363935.470581055,-7446049.213409424,-2704998.49319458,-6631037.23526001,-10187070.846557617,-10043457.984924316,-1021584.153175354,-4738692.283630371,-5715266.227722168,2264235.019683838,12263665.199279785,-1747772.0975875854,-2663188.4574890137,-1496268.391609192,6448906.421661377,57418.96107792854,724693.6559677124,-2876709.222793579,10229107.856750488,-5678568.8400268555,-2314698.4577178955,-11081574.440002441,-5220207.214355469,1086533.546447754,8208715.438842773,9941147.804260254,1177860.7368469238,905176.1031150818,236147.58253097534,-12703238.487243652,-14921906.471252441,-16728351.593017578,6832930.564880371,2188687.562942505,8733808.517456055,8436706.54296875,2171781.539916992,-14882834.434509277,2945006.1321258545,131202.63814926147,-554.3709849007428
0.365,-86115905.76171875,-69404014.58740234,-92206802.36816406,-34650104.52270508,-19385389.32800293,-25227403.64074707,-8312994.003295898,-8865450.859069824,-4721378.803253174,-19912076.950073242,-16454177.856445312,1193899.9891281128,-3254228.5919189453,-3499401.807785034,1233159.4228744507,-20596343.994140625,-10848159.790039062,-11346911.430358887,-16529481.887817383,-18310708.99963379,-12539656.639099121,-2687952.5184631348,-4274565.696716309,936661.4818572998,-4242416.3818359375,-8439673.42376709,-9642991.065979004,-1076327.3239135742,-4746004.581451416,-4030253.8871765137,5733086.585998535,16186916.35131836,1838719.367980957,861898.3626365662,647337.0790481567,6603952.884674072,81267.93801784515,1411383.5096359253,-2240248.918533325,13335951.805114746,-1525916.337966919,1258392.8108215332,-7024008.274078369,-3582682.3711395264,1563559.4129562378,9802977.561950684,10978019.714355469,3665568.8285827637,3632941.0076141357,3193614.4828796387,-10591024.398803711,-13247285.842895508,-15071999.549865723,8471942.901611328,4724661.827087402,11698565.483093262,11531755.447387695,5000621.318817139,-13253915.786743164,6201412.200927734,2790091.2761688232,2721746.4447021484
0.37,-81574745.17822266,-63339698.791503906,-84653709.4116211,-30648473.739624023,-15803649.90234375,-23995380.401611328,-6723453.521728516,-7317287.445068359,-1717808.0081939697,-17460350.036621094,-13138084.411621094,3880161.2854003906,121382.2066783905,-348921.2393760681,2179597.3777770996,-21395214.080810547,-8612190.246582031,-9224018.096923828,-14872802.734375,-17182817.459106445,-10261540.412902832,715803.1463623047,-1147117.7339553833,1999294.400215149,-4814708.709716797,-7762805.461883545,-9365810.39428711,-794549.9420166016,-4765432.834625244,-2858777.0462036133,8558777.809143066,20919292.449951172,2834562.5400543213,1903777.1224975586,1019822.4782943726,5791141.033172607,319109.38024520874,659307.5394630432,-1655539.1550064087,17236166.00036621,3770778.6560058594,2220487.594604492,-4282330.03616333,-3217546.4630126953,638657.3314666748,10061670.303344727,10511301.99432373,6472920.4177856445,6583124.160766602,6264063.835144043,-8420403.480529785,-11407060.623168945,-12965463.638305664,8928134.91821289,7778692.245483398,14798686.981201172,14592498.779296875,7218402.38571167,-11410652.160644531,10010152.816772461,5973001.003265381,5974228.382110596
0.375,-77923110.96191406,-59846263.88549805,-80094573.97460938,-29132740.020751953,-13243373.87084961,-26967664.71862793,-8738062.858581543,-9293849.94506836,-143588.98997306824,-16017164.23034668,-10727075.576782227,4623033.046722412,1278687.1194839478,582532.7038764954,-1048495.1734542847,-24540534.97314453,-8670228.958129883,-9197269.439697266,-14301794.052124023,-16570320.129394531,-9519048.690795898,2226858.8542938232,-169826.12013816833,-1334566.1163330078,-7611664.295196533,-9119737.62512207,-9284242.630004883,-389209.65790748596,-4878515.243530273,-2299906.9690704346,9293399.810791016,22440845.489501953,-407926.2316226959,-1228754.162788391,-1086246.0136413574,4119736.1946105957,548594.2363739014,-593250.036239624,-884177.6847839355,19486875.534057617,5546277.5230407715,-1004422.1878051758,-5310720.443725586,-4888839.244842529,-1244046.4496612549,8632750.511169434,8983956.336975098,7190750.598907471,7168369.770050049,6812888.622283936,-8515850.067138672,-11321250.915527344,-12636745.45288086,7531852.245330811,8282966.613769531,15273355.484008789,14914966.583251953,5462520.599365234,-11309348.106384277,10450139.999389648,6502694.606781006,6511292.457580566
0.38,-73766456.6040039,-55980148.31542969,-75345230.10253906,-30392421.72241211,-12352595.329284668,-33671222.68676758,-14410161.018371582,-14815892.219543457,-1753202.7959823608,-16615501.403808594,-10996148.109436035,4248075.96206665,2188164.472579956,1486869.8120117188,-6303473.472595215,-27755002.975463867,-11613042.831420898,-11957368.850708008,-15322229.385375977,-16613176.345825195,-9255688.667297363,3934618.9498901367,886962.0561599731,-6723208.904266357,-10131310.46295166,-11748343.467712402,-9321947.09777832,-224968.67179870605,-4453544.139862061,-1259119.153022766,9436011.31439209,21394674.30114746,-5537266.731262207,-6256934.642791748,-3357369.4229125977,2867771.863937378,571163.7735366821,-412917.22655296326,342288.0172729492,19683715.8203125,3934534.788131714,-6094475.746154785,-7690874.099731445,-6278487.205505371,-1481330.2755355835,7278928.279876709,8275465.965270996,6687391.757965088,6413952.827453613,6029007.434844971,-10094313.621520996,-12371511.459350586,-13652724.266052246,6060196.876525879,6615791.797637939,13592542.64831543,13229679.107666016,773900.6280899048,-12435985.565185547,7466450.6912231445,4924842.834472656,4864744.186401367
0.385,-68057273.8647461,-49626365.661621094,-68889678.95507812,-30549274.444580078,-13826514.24407959,-35400939.94140625,-17495542.526245117,-17727020.263671875,-4093544.9600219727,-17861974.716186523,-12976055.145263672,3340175.151824951,3117460.7276916504,2652441.0247802734,-7453734.874725342,-27315404.891967773,-14010555.267333984,-14311115.264892578,-16276321.411132812,-17326934.814453125,-8782787.322998047,5786289.215087891,2241455.7933807373,-7939506.053924561,-10014428.13873291,-13277372.360229492,-9309481.620788574,-439955.08551597595,-3477882.8620910645,-166518.88191699982,9784248.352050781,20854503.631591797,-6645247.459411621,-7354593.276977539,-3682783.842086792,3139929.5330047607,393775.16508102417,1181871.0565567017,1212509.8705291748,18962732.315063477,3169889.211654663,-7237938.88092041,-8015922.546386719,-5603495.5978393555,407584.87582206726,7612971.782684326,9355683.326721191,7143765.926361084,6760324.478149414,6527099.132537842,-10685310.363769531,-12661298.751831055,-14039442.06237793,6390086.650848389,5912456.035614014,12769061.088562012,12630706.787109375,-1327805.995941162,-12888323.783874512,5360588.550567627,4408756.732940674,4298646.450042725
0.39,-63622058.8684082,-45174751.28173828,-66289718.62792969,-26742588.04321289,-17803867.34008789,-25146799.087524414,-11827180.862426758,-12012547.492980957,-2544075.9658813477,-16968133.9263916,-13693339.347839355,948211.3122940063,1656402.2302627563,1456779.0031433105,-1023200.511932373,-21455675.12512207,-11911610.60333252,-12377812.385559082,-15318436.622619629,-18495695.114135742,-8653473.854064941,5179910.182952881,1141751.8854141235,-1579216.1226272583,-6559529.3045043945,-11754243.850708008,-8908528.327941895,-761921.7038154602,-2919049.9782562256,-656990.4685020447,9218974.113464355,22113916.397094727,-597201.2877464294,-1397782.802581787,-2221080.3031921387,4733807.08694458,205639.85407352448,2257904.052734375,669811.487197876,18482625.96130371,5915508.74710083,-1272536.277770996,-5524719.23828125,-3713778.257369995,1944670.557975769,9473393.440246582,11296015.739440918,9128340.721130371,8807142.25769043,8870142.936706543,-9127292.63305664,-11316740.036010742,-12798579.216003418,8429934.50164795,8121382.713317871,14932571.411132812,15003589.630126953,2493732.9292297363,-11679562.56866455,7692093.849182129,6615201.473236084,6539998.531341553
0.395,-64984222.412109375,-48183177.94799805,-72150634.765625,-22143592.834472656,-22160505.294799805,-10833200.454711914,-1275604.9633026123,-1583258.2712173462,3066094.6369171143,-13571833.610534668,-11795469.284057617,-3291561.8419647217,-2286142.8260803223,-2397160.530090332,8107965.469360352,-13642910.00366211,-6469183.444976807,-7143864.631652832,-12981974.601745605,-19435789.108276367,-9286109.924316406,2009521.484375,-2736626.386642456,7475090.980529785,-1702678.0843734741,-8239012.718200684,-8206377.983093262,-815181.3745498657,-3451639.8906707764,-2945848.7033843994,7099864.959716797,23920379.638671875,7959082.126617432,7071271.896362305,-572096.7054367065,6374543.190002441,216965.12401103973,1802479.62474823,-1150308.609008789,18308555.603027344,9886934.280395508,7287022.590637207,-2137393.9514160156,-2639000.415802002,1320369.2436218262,11387528.419494629,12460757.2555542,10999284.744262695,10756357.192993164,11046234.130859375,-6757458.209991455,-9383111.953735352,-10962942.123413086,10500801.086425781,11600039.4821167,18800550.46081543,18838621.139526367,8509431.838989258,-9795094.49005127,12638951.301574707,9763412.475585938,9695373.53515625
0.4,-71663619.99511719,-55949947.357177734,-81532806.39648438,-21673925.399780273,-23481906.89086914,-7436598.777770996,3570744.514465332,3099011.8980407715,7541426.181793213,-10548832.893371582,-9166968.34564209,-7689945.220947266,-5070539.951324463,-5250226.020812988,11766905.784606934,-9552450.180053711,-3088044.8818206787,-3840163.9461517334,-11564929.008483887,-19574106.216430664,-10169131.2789917,-286186.3374710083,-5642251.491546631,11154664.039611816,1158809.3042373657,-6229752.540588379,-7964059.352874756,-573820.2929496765,-4497036.457061768,-5273262.023925781,4715142.250061035,24712076.18713379,11469935.417175293,10588384.628295898,7560.249883681536,6959687.232971191,464985.78786849976,894266.4265632629,-3024103.1646728516,17400527.954101562,10906050.682067871,10894062.042236328,-417596.63820266724,-3273473.024368286,-337121.844291687,12035041.809082031,12131857.872009277,10895278.930664062,10673431.396484375,10988729.476928711,-5669709.6824646,-8544010.162353516,-10222666.74041748,11132662.773132324,13081542.96875,20811933.517456055,20706346.51184082,10490200.996398926,-8971057.891845703,15176083.5647583,10961634.635925293,10712377.548217773
0.405,-73937339.78271484,-56972446.44165039,-83028800.96435547,-22893194.1986084,-20179277.420043945,-14437702.178955078,580272.9725837708,37905.15661239624,7985820.293426514,-9518157.958984375,-7823645.59173584,-10138705.253601074,-4574435.234069824,-4805667.400360107,9219599.723815918,-9453686.714172363,-4041955.9478759766,-4743761.06262207,-11836341.857910156,-18854812.622070312,-10455506.324768066,232117.33996868134,-5221958.160400391,8715924.263000488,1026010.274887085,-7270667.552947998,-8304347.038269043,-345845.37148475647,-4853203.296661377,-6011483.669281006,3568484.5447540283,23911668.77746582,9278191.566467285,8424228.66821289,-304559.6182346344,6600085.258483887,749609.2319488525,685080.2302360535,-3913110.7330322266,14890416.145324707,7993281.841278076,8745676.99432373,-1306442.4991607666,-4584509.84954834,-886096.1198806763,11151345.252990723,10745771.408081055,8950645.446777344,8738346.099853516,8992246.627807617,-6205007.553100586,-9092459.678649902,-10805214.881896973,10139915.466308594,11245306.968688965,18688455.58166504,18620832.443237305,7773833.274841309,-9554663.65814209,13234163.284301758,9316739.082336426,8781521.797180176
0.41,-60267654.41894531,-42641109.466552734,-70538063.0493164,-16963762.283325195,-14190085.411071777,-13115965.843200684,816125.9293556213,286304.20565605164,8710441.589355469,-7917403.221130371,-6944694.042205811,-10694443.702697754,-4041743.755340576,-4245925.426483154,8347363.471984863,-6604775.905609131,-4844806.19430542,-5465347.2900390625,-11828014.373779297,-17323955.535888672,-9837888.717651367,889937.0431900024,-4688329.219818115,7879925.727844238,1489624.9771118164,-8146504.4021606445,-7624866.485595703,-314931.60128593445,-4071339.1304016113,-5325841.426849365,3246640.682220459,21137422.561645508,8602249.145507812,7649539.947509766,88831.51412010193,6491597.652435303,840148.8065719604,558171.4510917664,-3853938.341140747,11302121.16241455,3678189.516067505,7993657.58895874,-3082140.2072906494,-4546432.018280029,259150.892496109,9357777.59552002,8961100.578308105,7058545.112609863,6840889.930725098,7122477.054595947,-6780787.467956543,-9627339.363098145,-11262087.82196045,8272457.122802734,7546924.114227295,13742068.29071045,13893962.860107422,5054147.243499756,-10114089.965820312,9411609.649658203,6114233.493804932,5488049.507141113
0.415,-32067447.662353516,-18941005.70678711,-50728950.50048828,-1254272.3417282104,-9344830.513000488,7777081.9664001465,13235227.584838867,12696784.019470215,14837773.323059082,-3219983.1008911133,-4986794.948577881,-11690757.751464844,-8120577.812194824,-8367866.516113281,14469326.972961426,3999228.000640869,-437080.5025100708,-974839.0913009644,-9826578.140258789,-15159236.907958984,-9070346.83227539,-1846317.2912597656,-8809206.008911133,13889033.317565918,6623322.010040283,-4683523.654937744,-4449934.959411621,-335972.69654273987,-3035636.1865997314,-4750450.134277344,1922660.8276367188,15940648.078918457,14289743.423461914,13120114.32647705,2521831.98928833,7504526.615142822,747361.5407943726,-699837.0289802551,-3848795.8908081055,7969536.781311035,-42094.990611076355,13580916.404724121,-3342764.139175415,-2419708.9672088623,2033005.714416504,7368900.775909424,7125535.96496582,6259778.97644043,5974456.310272217,6312047.958374023,-6457901.0009765625,-9235884.666442871,-10749304.77142334,6271395.683288574,3912498.4741210938,9314818.382263184,9565328.598022461,4537684.440612793,-9693800.926208496,6406126.976013184,2732260.7040405273,2318179.6073913574
0.42,-6947814.464569092,-2780623.6743927,-37836635.58959961,14249826.431274414,-8396661.758422852,34758941.650390625,30826845.169067383,30221168.518066406,23628070.831298828,1745337.0094299316,-3364015.579223633,-14993773.460388184,-16402959.823608398,-16891229.6295166,23192792.892456055,17916633.60595703,7154832.363128662,6716596.603393555,-7366580.963134766,-13542778.015136719,-9788183.212280273,-7233199.596405029,-17196973.80065918,22444499.969482422,15006393.432617188,2082838.2968902588,-380720.5855846405,-287014.9314403534,-3154028.4156799316,-5762494.087219238,-1193300.485610962,9468733.787536621,22306789.39819336,20982580.184936523,5926186.561584473,8958903.312683105,666391.1938667297,-2687443.733215332,-4859191.89453125,5470707.893371582,-3412757.158279419,21545196.533203125,-2225714.683532715,-277561.0089302063,3055248.737335205,5703089.714050293,5858513.832092285,5452114.105224609,5101338.3865356445,5293278.217315674,-6294218.063354492,-8885737.419128418,-10348930.358886719,4641432.285308838,1326415.0619506836,7499807.357788086,7577950.477600098,3627415.180206299,-9298381.805419922,4202580.451965332,18818.000331521034,-153901.07035636902
0.425,-2102491.1403656006,-5417772.29309082,-40993335.72387695,17679771.423339844,-11517732.620239258,47417037.96386719,39164680.48095703,38496013.64135742,26974819.18334961,1326029.4198989868,-5166676.5213012695,-19674308.77685547,-23761617.66052246,-24546285.62927246,27588556.28967285,26017154.693603516,10774450.302124023,10389341.354370117,-7690725.803375244,-14425499.91607666,-13112120.628356934,-11177400.588989258,-24633193.969726562,26684684.75341797,20532819.747924805,6121125.6980896,678902.2088050842,-356978.23762893677,-4927382.469177246,-8634226.79901123,-4657083.511352539,4906416.893005371,26311748.504638672,24993679.04663086,7230684.757232666,9306281.089782715,646496.832370758,-3481677.770614624,-6472513.198852539,3619704.484939575,-6207673.5496521,25507179.260253906,-2225507.974624634,-1100736.141204834,2743277.5497436523,5403878.688812256,6622360.706329346,3804806.94770813,3516846.8952178955,3338005.542755127,-7041168.212890625,-9429691.314697266,-10946112.632751465,4413795.948028564,892483.7112426758,8305218.696594238,8164755.821228027,1671684.3843460083,-9840995.788574219,3089483.9763641357,-536630.1536560059,-726490.4379844666
0.43,-15984127.044677734,-21427209.854125977,-56124362.94555664,9377433.776855469,-16654441.833496094,44342510.22338867,34946701.04980469,34277248.38256836,22159067.153930664,-5102829.933166504,-10216973.304748535,-22961914.0625,-26859638.214111328,-27705007.553100586,27524188.995361328,25237762.451171875,7239855.766296387,6764737.606048584,-11409632.682800293,-18161226.272583008,-17881029.12902832,-11752853.393554688,-27780817.03186035,26427476.88293457,19550148.010253906,3533057.928085327,-2760040.044784546,-723934.3523979187,-7284514.427185059,-11997533.798217773,-6432591.915130615,4202599.048614502,26189046.85974121,24910243.98803711,4872623.443603516,8127501.487731934,533123.8508224487,-1938610.4345321655,-6800426.006317139,2702963.8290405273,-6560340.881347656,25355194.091796875,-4333914.756774902,-4768108.367919922,2037926.6738891602,8012631.416320801,10589464.18762207,3208371.162414551,3062419.4145202637,2570008.2778930664,-6972347.736358643,-9375958.442687988,-10970097.541809082,7056655.8837890625,3926116.704940796,11155445.098876953,11018857.0022583,2957327.365875244,-9791159.629821777,5545193.672180176,2589392.900466919,2229058.027267456
0.435,-31267404.556274414,-35644714.35546875,-70041854.85839844,316269.6063518524,-20801467.895507812,39398807.525634766,27657997.131347656,27032272.338867188,15417573.928833008,-11296978.950500488,-14187649.726867676,-23454704.28466797,-27662363.052368164,-28271730.422973633,26855676.651000977,20464416.50390625,1021709.5613479614,361980.02099990845,-15221648.216247559,-21971910.47668457,-21088264.46533203,-11681658.744812012,-28717090.606689453,25539808.27331543,14491738.319396973,-2853549.4804382324,-7303139.686584473,-1138535.1419448853,-8535504.341125488,-13784706.115722656,-6473036.766052246,4912551.8798828125,25444965.362548828,24075777.053833008,1005378.7231445312,6670988.082885742,295423.1798648834,840335.7267379761,-4573858.261108398,3147478.5804748535,-4437694.072723389,24684061.05041504,-6394160.270690918,-7640218.257904053,2792464.256286621,13374653.816223145,16518709.182739258,6049967.7658081055,5899668.6935424805,5363510.608673096,-4355749.130249023,-6976410.865783691,-8558182.716369629,12320254.3258667,9318467.140197754,15295121.192932129,15345389.366149902,9057971.000671387,-7287858.963012695,11691988.945007324,8019589.424133301,7647423.267364502
0.44,-34979347.229003906,-39334403.99169922,-73230773.92578125,-1823920.3691482544,-22118774.4140625,39028964.99633789,24781726.837158203,24180839.53857422,13576191.902160645,-11682531.356811523,-13974230.766296387,-22934766.76940918,-30063381.19506836,-30415071.487426758,25754711.151123047,17036569.595336914,-1820054.4118881226,-2562790.1554107666,-15610239.028930664,-22470907.21130371,-21080995.559692383,-14766544.342041016,-31338068.00842285,24338449.478149414,10133963.584899902,-7188122.749328613,-8399367.332458496,-1185915.9469604492,-8164986.610412598,-13402558.326721191,-7051269.054412842,2475070.7149505615,24202844.619750977,22635522.842407227,-875889.241695404,6124070.167541504,163112.67018318176,2532786.8461608887,-1433729.648590088,3743597.5074768066,-3740568.3994293213,23592044.830322266,-6384505.271911621,-7171604.633331299,5331905.364990234,18060424.8046875,20646667.48046875,10629374.504089355,10245068.550109863,9807215.690612793,-1069961.1902236938,-3803475.1415252686,-5243512.153625488,16814775.466918945,12624602.317810059,18600229.263305664,18793411.254882812,13662359.237670898,-3884754.180908203,15996097.564697266,11119440.078735352,10930756.568908691
0.445,-29920726.776123047,-36387073.5168457,-68174667.35839844,803138.8521194458,-21326227.18811035,38162029.26635742,24645919.799804688,24001169.204711914,16309852.600097656,-7824623.584747314,-11533321.380615234,-23994321.823120117,-34613140.10620117,-34935695.64819336,22523519.51599121,16262216.567993164,-224237.48672008514,-844363.7490272522,-12670242.309570312,-19572898.864746094,-19492742.53845215,-20793127.059936523,-36018924.713134766,21179929.733276367,9154546.737670898,-6838254.451751709,-5522013.187408447,-900332.4508666992,-7302989.959716797,-12566061.973571777,-9864024.16229248,-3551797.1515655518,20977872.848510742,19241390.228271484,237267.80712604523,6216722.9652404785,275663.6142730713,1716419.3391799927,-859137.4158859253,2286596.5366363525,-7524896.621704102,20404619.216918945,-5355790.615081787,-5194189.071655273,7030241.4894104,17972440.719604492,19759986.877441406,11789350.509643555,11158290.86303711,10776000.9765625,-829447.4482536316,-3414283.9908599854,-4689835.071563721,16610483.169555664,10546691.89453125,18456539.154052734,18674695.96862793,11066843.032836914,-3289180.7556152344,13426455.4977417,8866260.528564453,8801069.259643555
0.45,-25398267.74597168,-34274684.90600586,-63602695.46508789,3323126.5544891357,-20249834.060668945,35654819.48852539,24590333.938598633,23844757.080078125,19194841.384887695,-5045852.184295654,-10405614.852905273,-26182104.110717773,-37911533.35571289,-38342372.89428711,20112159.729003906,18030239.10522461,2928606.7485809326,2496832.3707580566,-9225876.808166504,-16332294.464111328,-18839468.002319336,-25271984.100341797,-39241046.90551758,18856376.64794922,11892091.751098633,-3323886.3945007324,-1924397.349357605,-729206.383228302,-7121095.180511475,-13084463.119506836,-13408483.505249023,-7999188.423156738,18688219.07043457,16868906.021118164,2674463.987350464,6200656.890869141,424813.3897781372,-1109556.5557479858,-4102370.262145996,-1111077.7854919434,-12847044.944763184,17956937.789916992,-5297787.666320801,-4772792.339324951,5275816.440582275,13047215.461730957,14360968.589782715,7367702.960968018,6725788.593292236,6465050.69732666,-3692812.204360962,-6083036.422729492,-7345140.9339904785,11730650.901794434,5441815.8531188965,14897938.72833252,15133070.945739746,5720738.887786865,-5950230.598449707,7252912.521362305,3889001.8463134766,3780382.8716278076
0.455,-23379022.5982666,-33271884.91821289,-61665870.666503906,5441542.148590088,-18437780.380249023,37400207.51953125,26449464.797973633,25649494.171142578,20929620.74279785,-4733265.399932861,-10124058.723449707,-25742286.682128906,-36343059.53979492,-36793079.3762207,22559844.970703125,21983631.134033203,5562856.197357178,5193821.430206299,-6946531.295776367,-14749274.253845215,-18830951.690673828,-24263717.651367188,-37515529.63256836,21288373.947143555,16730506.896972656,802932.1432113647,-9584.056213498116,-850478.4107208252,-7201230.525970459,-14201920.509338379,-14348034.858703613,-6530313.014984131,21145305.633544922,19317718.505859375,4692945.48034668,6221131.324768066,363294.780254364,-4165390.968322754,-8228073.1201171875,-3249396.800994873,-14340147.018432617,20246452.33154297,-5990183.8302612305,-5627871.036529541,1603174.328804016,7473999.977111816,8072654.724121094,1443567.6336288452,997313.916683197,1099697.3514556885,-5761094.570159912,-8146990.776062012,-9565012.93182373,6284498.691558838,2278669.3572998047,10814304.35180664,11104196.548461914,5631549.835205078,-8207579.612731934,4992005.348205566,965423.6435890198,835249.7816085815
0.46,-19200345.993041992,-28380216.598510742,-55904472.35107422,8773177.146911621,-13515078.5446167,42198429.107666016,30298093.795776367,29622909.545898438,23435811.99645996,-3744484.6630096436,-7453149.795532227,-20515119.552612305,-30137624.740600586,-30555522.918701172,26108877.182006836,24810361.862182617,7392996.311187744,6974804.878234863,-5129433.631896973,-13861702.919006348,-17253036.499023438,-18990800.857543945,-31286376.953125,24849807.739257812,19438575.744628906,3689639.3299102783,836379.885673523,-935810.8043670654,-6420413.970947266,-13741229.057312012,-11882198.333740234,-1814558.6252212524,24654077.529907227,22923404.693603516,5702219.486236572,6787158.966064453,176480.63600063324,-5864538.669586182,-9431605.339050293,-2073025.2265930176,-12224686.622619629,23777524.948120117,-6077328.681945801,-5206190.10925293,501114.24922943115,4757745.742797852,4162874.221801758,-872432.8875541687,-1154620.5282211304,-653176.7249107361,-5021851.062774658,-7490858.554840088,-9020890.235900879,3679821.014404297,1620241.5227890015,7871711.254119873,8154641.151428223,9004870.414733887,-7765255.451202393,7217164.039611816,372402.69780158997,366102.57625579834
0.465,-12632724.76196289,-20149768.829345703,-44334888.45825195,11197783.470153809,-6612302.303314209,40015560.150146484,30673303.604125977,30294456.481933594,26247613.90686035,-1053821.325302124,-2903943.0618286133,-14284322.738647461,-24381954.193115234,-24967144.012451172,22867649.07836914,21919334.411621094,7738752.841949463,7312299.728393555,-3430417.537689209,-12803457.260131836,-14466355.323791504,-15104144.096374512,-25683465.9576416,21794948.57788086,15992298.126220703,4089525.2227783203,1620730.7577133179,-745585.7992172241,-5183487.415313721,-11720731.735229492,-9494269.371032715,-599655.9858322144,21602745.056152344,20074975.967407227,5462606.906890869,7546749.591827393,95440.60379266739,-5770567.417144775,-7431905.746459961,195180.53531646729,-12058186.531066895,20874114.990234375,-5869291.78237915,-3246098.756790161,3502573.7285614014,4602815.1512146,3587591.8865203857,387058.0494403839,94154.76024150848,597912.847995758,-4089624.4049072266,-6494364.7384643555,-7901645.660400391,3604718.9235687256,-399675.51827430725,4836004.734039307,4991498.4703063965,6843466.758728027,-6822776.794433594,7063779.830932617,-1638621.5686798096,-1550764.0838623047
0.47,-10735556.602478027,-17166900.634765625,-37556987.76245117,8958736.419677734,-3789068.2220458984,29507045.74584961,24887252.807617188,24755399.703979492,25813053.131103516,-361112.95223236084,-1656450.5100250244,-13330728.530883789,-24824512.481689453,-25802913.665771484,14132781.982421875,14484515.190124512,5722428.798675537,5342312.335968018,-3449604.9880981445,-13157009.12475586,-13951409.339904785,-16649404.525756836,-26334764.48059082,13264479.637145996,8436713.218688965,2266559.839248657,1450893.2828903198,-545432.2099685669,-5288648.60534668,-10532154.083251953,-10781199.45526123,-4819537.63961792,13219217.300415039,11838482.856750488,4155104.160308838,7810107.231140137,126435.14573574066,-4384621.620178223,-4826381.683349609,618156.1946868896,-15572520.25604248,12574586.868286133,-6442515.3732299805,-2034881.1149597168,7119929.790496826,5536893.367767334,5976533.889770508,1940339.207649231,1529160.3803634644,1587535.02368927,-5277191.638946533,-7502207.279205322,-8662391.662597656,4572137.355804443,-4586821.556091309,1682546.854019165,1694105.0291061401,-1341790.795326233,-7715774.5361328125,1984392.523765564,-5643312.931060791,-5676129.341125488
0.475,-17023357.391357422,-23795576.095581055,-44643585.205078125,3111489.5343780518,-8109988.212585449,23089368.82019043,18879152.297973633,18724205.017089844,21343475.341796875,-3975617.8855895996,-5964357.376098633,-17976440.4296875,-30880491.256713867,-32152935.028076172,10383234.977722168,9791096.687316895,2499480.2474975586,2066298.9616394043,-5944606.304168701,-15957010.269165039,-16782123.565673828,-21006465.911865234,-32552791.595458984,9472971.91619873,4148469.4480895996,515976.6674041748,-638384.8786354065,-624032.6762199402,-7008824.348449707,-10755135.536193848,-14216099.739074707,-8719808.578491211,9588728.904724121,8129965.782165527,3209300.0411987305,7830016.613006592,168367.28155612946,-2401394.844055176,-2746762.51411438,554927.5279045105,-17087060.928344727,8942280.769348145,-6909678.936004639,-2283339.262008667,7986061.096191406,7750191.688537598,10429237.365722656,3228292.465209961,2724519.4911956787,2343606.2335968018,-6391889.0953063965,-8538736.343383789,-9609715.461730957,6744049.072265625,-6048118.591308594,1870568.6330795288,1861529.82711792,-5033521.65222168,-8621167.182922363,-1274831.0565948486,-6918585.777282715,-7176557.540893555
0.48,-23853570.93811035,-31150844.57397461,-56076526.6418457,-510367.751121521,-13112848.281860352,27591056.82373047,18946514.129638672,18575592.041015625,17490415.573120117,-7729250.431060791,-10319015.502929688,-20874034.881591797,-34628559.11254883,-35842037.200927734,15435615.539550781,11733633.041381836,814546.9427108765,179811.16473674774,-8142638.206481934,-18383014.678955078,-18521158.21838379,-21533546.447753906,-36393497.467041016,14313780.784606934,6725125.312805176,759028.2559394836,-3136794.8055267334,-752052.366733551,-7949622.631072998,-9563581.466674805,-14604667.663574219,-6369250.297546387,14474622.72644043,12817419.052124023,4184838.7718200684,8326065.0634765625,311984.8668575287,-505471.52757644653,181504.44328784943,3527992.9637908936,-12078511.238098145,13857017.517089844,-5343585.014343262,-1945623.517036438,7381078.243255615,11252511.024475098,14812582.015991211,6337470.054626465,5820680.618286133,5368026.7333984375,-4424064.159393311,-6617554.664611816,-7829320.907592773,10201597.213745117,-1603479.7430038452,7096320.629119873,7194692.134857178,1156354.6657562256,-6701200.008392334,2920194.8642730713,-2578231.3346862793,-2934616.0888671875
0.485,-21561096.19140625,-27915214.53857422,-54117980.95703125,1494543.5523986816,-10552372.932434082,33261497.497558594,22751161.575317383,22286983.489990234,18727764.129638672,-6135710.716247559,-8320295.333862305,-16497913.360595703,-30292135.23864746,-31249700.54626465,20744972.229003906,16070333.480834961,1905684.3519210815,1110484.24243927,-6681078.4339904785,-16977247.23815918,-14993571.281433105,-16085884.094238281,-32071899.4140625,19605182.647705078,11705972.671508789,2252416.6107177734,-3356506.586074829,-568079.7100067139,-6327013.4925842285,-5466137.409210205,-10451859.474182129,189564.83900547028,19739725.11291504,18042282.104492188,6672720.432281494,9128981.590270996,634554.3265342712,316591.7098522186,3940165.9965515137,8597686.767578125,-4947913.16986084,19193145.751953125,-1926224.4701385498,172242.96927452087,8348557.472229004,13645420.07446289,16276170.73059082,10505157.470703125,10020820.617675781,9731863.975524902,-675020.7543373108,-2882243.1564331055,-4263433.456420898,12681282.043457031,4478024.482727051,12658056.259155273,12882035.255432129,8989416.122436523,-3099763.870239258,10209593.772888184,3297071.695327759,2992910.385131836
0.49,-13279746.055603027,-18495391.845703125,-41242088.317871094,5989311.218261719,-3615873.8136291504,31810796.7376709,25086254.119873047,24782758.712768555,23323648.45275879,-997465.6701087952,-2435614.585876465,-9688631.057739258,-23574634.552001953,-24420322.41821289,20789806.365966797,18767417.907714844,4542110.443115234,3810448.408126831,-2951802.4921417236,-13537265.77758789,-9524021.14868164,-10954391.479492188,-25308948.516845703,19909046.173095703,14639157.29522705,3552237.033843994,-932643.5923576355,-267964.2140865326,-4220470.905303955,-2325595.6172943115,-7186789.035797119,3035643.8159942627,19992464.065551758,18431613.92211914,8938406.944274902,9663982.391357422,835348.0696678162,-790383.3985328674,5147571.086883545,10257583.618164062,-3199999.5708465576,19455888.748168945,1440462.350845337,2492255.687713623,10463410.377502441,13070017.81463623,14358989.715576172,11729844.093322754,11262863.159179688,11095405.578613281,1596957.4451446533,-615878.7608146667,-2046462.5358581543,12289114.952087402,6476378.917694092,13300601.0055542,13578447.341918945,10172108.65020752,-976727.9624938965,13477958.679199219,5409649.37210083,5169129.848480225
0.495,-12508586.883544922,-19290039.0625,-41181255.34057617,7982027.530670166,-3854185.8196258545,32134609.22241211,27560962.677001953,27413827.896118164,25865379.333496094,340223.9680290222,-1246517.6582336426,-9596106.52923584,-25429752.349853516,-26416418.075561523,23303855.895996094,23083072.662353516,7251016.616821289,6714758.87298584,-2208250.045776367,-13556920.051574707,-9502463.340759277,-13233878.135681152,-27166723.251342773,22568897.247314453,18303010.940551758,5493208.408355713,1709011.0778808594,-359330.6243419647,-5107370.853424072,-4783838.748931885,-10189889.907836914,-1572808.861732483,22507337.57019043,20936939.239501953,10637601.852416992,10424377.44140625,555164.5159721375,-3310559.7496032715,1508589.6253585815,6387012.958526611,-6328227.996826172,21904598.236083984,4182460.7849121094,3493083.2386016846,10684883.117675781,11757899.284362793,12233736.991882324,9057173.728942871,8567320.823669434,8489562.98828125,2609134.6740722656,178136.25931739807,-1270416.8558120728,11027993.202209473,5586464.405059814,11525625.228881836,11766114.234924316,9297549.2477417,-252396.43454551697,13660176.277160645,4832140.922546387,4639838.695526123
0.5,-24316329.956054688,-34877914.42871094,-64557960.510253906,6976839.542388916,-13639503.479003906,44115997.314453125,34325141.90673828,34023818.96972656,24537012.100219727,-4402000.904083252,-7024559.97467041,-16333391.189575195,-36154926.30004883,-37369621.27685547,35106369.01855469,32202560.424804688,9654449.462890625,9193601.608276367,-6355666.637420654,-18196178.436279297,-15782096.862792969,-20693857.192993164,-38055431.3659668,34093498.22998047,26237106.323242188,9368414.878845215,2524161.8156433105,-807890.1767730713,-8640645.027160645,-10880400.657653809,-16693887.710571289,-8404426.574707031,33821685.791015625,31908594.131469727,12922588.348388672,12343999.862670898,30586.067587137222,-5386898.517608643,-3832003.8318634033,2012817.3828125,-6768344.879150391,33177639.00756836,6992919.921875,3965440.511703491,8478811.264038086,13085283.279418945,12822350.50201416,6779421.806335449,6262214.183807373,6366144.65713501,4754931.449890137,1912436.7237091064,362204.76031303406,12169754.981994629,6854156.017303467,13833785.057067871,13961215.97290039,14298331.260681152,1441575.050354004,16124866.485595703,6023116.588592529,5951198.577880859
