time,Fp1,Fpz,Fp2,AF3,AF4,F7,F5,F3,F1,Fz,F2,F4,F6,F8,FT7,FC5,FC3,FC1,FCz,FC2,FC4,FC6,FT8,T7,C5,C3,C1,Cz,C2,C4,C6,T8,TP7,CP5,CP3,CP1,CPz,CP2,CP4,CP6,TP8,P7,P5,P3,P1,Pz,P2,P4,P6,P8,PO7,PO5,PO3,POz,PO4,PO6,PO8,CB1,O1,Oz,O2,CB2
0.0,15285604.476928711,14648394.584655762,14165218.353271484,15394249.91607666,15236175.537109375,16613286.972045898,15731884.002685547,15767203.330993652,25236806.869506836,15132219.314575195,15204099.655151367,15250266.075134277,15210831.642150879,15148191.452026367,16623588.562011719,15942704.200744629,17187192.916870117,15634002.685546875,15175075.53100586,15059427.261352539,15037750.244140625,15157302.856445312,15359098.434448242,16291492.462158203,16220464.706420898,16046812.057495117,14865343.09387207,14767098.426818848,14598146.438598633,14817358.97064209,15428902.626037598,14815274.238586426,15706918.716430664,16248680.114746094,17081720.35217285,15013407.707214355,14607187.271118164,14582768.440246582,14660057.067871094,15266229.629516602,15278205.871582031,15751083.374023438,15695091.247558594,15745871.543884277,15892953.872680664,14588842.391967773,14373200.416564941,15118144.989013672,15129878.997802734,15283543.586730957,15710419.654846191,15721089.363098145,14808266.639709473,14574523.92578125,14306882.858276367,15154109.954833984,15131147.384643555,14245476.722717285,14828648.567199707,14636868.476867676,14351370.811462402,14356660.842895508
0.005,437092071.5332031,436924926.7578125,425391693.1152344,435501953.125,445577392.578125,427330810.546875,437761932.3730469,438000701.9042969,694412902.8320312,437814788.8183594,444335754.39453125,445411743.1640625,444681213.37890625,450968353.2714844,427255493.1640625,431424255.37109375,461419403.0761719,450023376.46484375,435192077.63671875,437428619.3847656,437129913.3300781,444772613.5253906,442761047.36328125,432418243.4082031,436056243.8964844,441211761.4746094,432970367.4316406,433675659.1796875,429310882.5683594,436210327.1484375,440684722.9003906,438174224.8535156,428151245.1171875,436725830.078125,471614593.5058594,436608367.9199219,427667541.50390625,428648529.0527344,428936126.7089844,435175354.00390625,435154418.9453125,429259094.23828125,427869476.3183594,429531280.5175781,445519531.25,412196929.9316406,419286529.5410156,429170043.9453125,429267272.94921875,435341644.2871094,428624450.68359375,428953338.6230469,418588531.4941406,412093383.7890625,417758880.6152344,430760711.6699219,429978118.8964844,414197448.73046875,419219757.0800781,413162261.9628906,418862670.8984375,419178680.4199219
0.01,311544219.9707031,313852905.2734375,299341705.3222656,309544189.453125,326127563.4765625,295652221.6796875,310766845.703125,311520690.91796875,684202087.4023438,313281951.9042969,323266448.9746094,324172576.9042969,323168365.4785156,333256103.515625,295827056.8847656,302479705.8105469,347365447.9980469,330751159.66796875,308789978.02734375,311914794.921875,311405090.33203125,324314544.6777344,321226837.1582031,300119934.08203125,308978820.80078125,317115783.69140625,305842163.0859375,306805145.2636719,300116271.97265625,310189117.4316406,317513610.83984375,314294799.8046875,295407897.94921875,310008911.1328125,360388366.69921875,309912750.2441406,297358306.8847656,299278106.6894531,299812835.6933594,309868713.37890625,310043609.6191406,296759338.37890625,295047546.38671875,297213775.6347656,324103576.66015625,274688140.8691406,285716461.1816406,300250793.45703125,300576873.7792969,310100891.11328125,295964263.9160156,296426086.42578125,282671447.75390625,274396240.234375,283558685.3027344,302441101.07421875,301564239.5019531,277600372.3144531,283411926.26953125,276291259.765625,284888763.4277344,285623657.2265625
0.015,-154900054.93164062,-150844238.28125,-161698776.2451172,-157785995.48339844,-139295593.26171875,-173262802.12402344,-159262298.58398438,-157954895.01953125,200426986.69433594,-153901000.9765625,-143727188.11035156,-143756866.45507812,-144731918.33496094,-134132202.1484375,-172634048.46191406,-165630050.6591797,-120394149.78027344,-136989166.25976562,-159392135.6201172,-156659484.86328125,-157160095.21484375,-142390991.2109375,-145282089.23339844,-171962570.1904297,-159446060.18066406,-151094238.28125,-161956069.94628906,-161030380.24902344,-168145599.36523438,-158426589.9658203,-149652511.5966797,-152606384.27734375,-174861068.72558594,-158358505.24902344,-110381004.3334961,-159777938.84277344,-171592971.8017578,-168750228.88183594,-168056076.0498047,-156486267.08984375,-156022232.05566406,-173924255.37109375,-175196472.16796875,-173405166.62597656,-145442047.11914062,-192044708.25195312,-181506164.55078125,-166945968.6279297,-166332580.56640625,-156242828.36914062,-174499847.41210938,-174084030.1513672,-185222900.390625,-192529800.41503906,-183496978.75976562,-165052032.47070312,-165517837.52441406,-188453918.45703125,-184782775.87890625,-190225875.8544922,-182621124.26757812,-181432449.3408203
0.02,-369033020.01953125,-366911773.6816406,-375089324.9511719,-374266326.9042969,-356904510.4980469,-389900726.3183594,-376631988.5253906,-375187347.4121094,-58074672.69897461,-370890136.71875,-361899566.6503906,-362325683.59375,-363375823.9746094,-354021453.8574219,-389025939.94140625,-381227600.09765625,-340008911.1328125,-354706298.828125,-376635284.4238281,-374585632.32421875,-374864074.70703125,-360831115.72265625,-362934539.7949219,-386591217.0410156,-375306030.2734375,-367958374.0234375,-378461120.60546875,-377753936.7675781,-384430175.78125,-376057403.5644531,-366944061.2792969,-369670074.4628906,-387875762.9394531,-374250915.52734375,-330961090.0878906,-377648620.60546875,-388537902.83203125,-384833587.6464844,-384161743.1640625,-372349365.234375,-371787750.2441406,-387274169.921875,-388311981.2011719,-386707580.56640625,-367275390.625,-403123596.19140625,-395375396.7285156,-382037658.69140625,-381268707.2753906,-372080749.51171875,-387600982.6660156,-387287597.65625,-394786956.7871094,-403594360.3515625,-397068695.0683594,-380548767.08984375,-380765960.6933594,-397233093.26171875,-394573425.29296875,-401373931.8847656,-396533050.5371094,-395038848.8769531
0.025,-206466186.5234375,-207317718.50585938,-216963607.78808594,-212415176.39160156,-197293731.68945312,-229138687.13378906,-213408996.58203125,-212173568.72558594,108318061.82861328,-209731445.3125,-201545959.47265625,-201542373.65722656,-202846740.72265625,-194065979.00390625,-228376586.9140625,-217799713.13476562,-177239456.1767578,-191628646.85058594,-214950302.12402344,-213512176.51367188,-213646179.19921875,-200660049.43847656,-201964828.49121094,-218630676.26953125,-211159057.6171875,-204365188.5986328,-216044860.83984375,-216338531.49414062,-222171554.5654297,-214392379.7607422,-205410339.35546875,-208118118.2861328,-218533935.546875,-210041778.56445312,-163870010.37597656,-215139587.40234375,-226886657.71484375,-222645614.62402344,-222017501.8310547,-209970458.984375,-209516464.23339844,-217925521.85058594,-219221420.28808594,-217203063.96484375,-207957595.8251953,-238122909.54589844,-232111267.08984375,-218743759.15527344,-218002716.06445312,-209675842.28515625,-218138351.4404297,-217925109.86328125,-224502578.73535156,-238341384.8876953,-233780380.24902344,-217296539.30664062,-217691894.53125,-229031845.09277344,-224213439.94140625,-236440795.8984375,-233107406.61621094,-231546081.54296875
0.03,-37644565.58227539,-38149284.36279297,-49346084.59472656,-40588005.06591797,-27301349.639892578,-58714305.87768555,-41042415.618896484,-39934028.62548828,304121276.85546875,-38659065.24658203,-30376255.03540039,-30024738.311767578,-31450450.897216797,-21266063.690185547,-58176822.662353516,-44747840.881347656,-3056015.2530670166,-18864532.470703125,-43238334.65576172,-42232883.45336914,-42485168.45703125,-29043483.73413086,-29561542.510986328,-44028038.024902344,-37969993.591308594,-31007898.330688477,-43797721.86279297,-45826766.96777344,-50550987.243652344,-42707500.45776367,-33581947.326660156,-35718040.466308594,-42271739.9597168,-36732666.015625,14447290.420532227,-42765647.888183594,-55489780.42602539,-51181373.596191406,-50405864.71557617,-37965805.05371094,-37580757.14111328,-41625896.45385742,-43123462.67700195,-40701938.62915039,-34923118.591308594,-67184188.84277344,-60622196.197509766,-46422920.22705078,-45788566.58935547,-37685321.80786133,-41793109.89379883,-41677665.71044922,-49475814.81933594,-67193977.35595703,-62364414.21508789,-44843463.89770508,-45492366.790771484,-56292980.1940918,-49020580.29174805,-65487510.681152344,-61426654.81567383,-59958999.63378906
0.035,-23424942.016601562,-21197265.625,-30344293.59436035,-23420587.53967285,-10190736.770629883,-41806171.41723633,-26114360.809326172,-24968210.220336914,311101531.9824219,-22163587.57019043,-12986124.992370605,-12906408.309936523,-14172692.29888916,-1279188.1561279297,-41351520.53833008,-27796030.044555664,12184988.975524902,-4157445.4307556152,-27423149.10888672,-25999362.94555664,-26382148.74267578,-11163187.980651855,-10763970.375061035,-30565507.888793945,-23035078.048706055,-15875284.194946289,-28130674.362182617,-31161706.924438477,-35179882.04956055,-27078794.479370117,-17063398.361206055,-17950033.18786621,-28709718.704223633,-21804901.123046875,27550312.042236328,-27796909.33227539,-39942226.40991211,-35797142.028808594,-34773670.1965332,-22432662.963867188,-21933958.053588867,-28124351.501464844,-29431671.142578125,-27193775.177001953,-18242990.493774414,-53194400.787353516,-45503532.40966797,-31055528.64074707,-30500167.846679688,-22144773.483276367,-28283105.850219727,-28229104.99572754,-36969203.94897461,-53329414.36767578,-47156017.3034668,-29462800.979614258,-30082614.89868164,-42570629.11987305,-36495967.864990234,-51571998.596191406,-46193904.876708984,-44847595.21484375
0.04,47509529.11376953,50901473.99902344,45243762.9699707,46217651.3671875,61664714.81323242,27424377.44140625,40376399.993896484,41443897.24731445,341213562.01171875,47217712.40234375,57739841.46118164,57479141.23535156,56392440.79589844,71710327.1484375,27908576.96533203,39832962.03613281,75689651.48925781,61478919.982910156,39710830.68847656,42729999.54223633,42502048.49243164,59361118.31665039,60659904.47998047,33062442.779541016,41583457.946777344,48684940.338134766,38183719.635009766,35825328.8269043,31670972.82409668,40161422.72949219,51512145.99609375,51441871.643066406,32531967.163085938,42589118.95751953,84732749.93896484,37987754.821777344,27191764.83154297,31198431.01501465,32264957.427978516,43999675.75073242,44677818.298339844,33182918.548583984,32146472.930908203,33862506.86645508,46294971.46606445,13622913.360595703,21218980.78918457,35248111.724853516,35798099.517822266,44390342.712402344,32991497.039794922,33058071.13647461,24565294.26574707,13133745.193481445,19754819.869995117,36782020.568847656,36394439.697265625,23068960.189819336,24950489.044189453,15045828.819274902,20562906.26525879,21824880.599975586
0.045,143518554.6875,146809265.13671875,142331893.92089844,139378204.34570312,158018875.1220703,117337631.22558594,131919036.86523438,132806060.79101562,408553039.55078125,140857345.5810547,152464370.72753906,152334457.39746094,151243789.67285156,167639205.9326172,117818389.89257812,130416305.54199219,163845916.74804688,153215179.44335938,131376739.50195312,136138198.85253906,136146636.96289062,153538589.47753906,155384750.36621094,122524490.35644531,130961608.88671875,138058883.6669922,129334976.19628906,128166809.08203125,123760391.23535156,132519454.95605469,144637481.68945312,144228851.31835938,120847808.83789062,131667922.97363281,169258789.0625,129846237.18261719,119545433.0444336,123358123.77929688,124201766.96777344,135753799.43847656,136440460.20507812,121613006.59179688,120683082.5805664,122108993.53027344,135074722.29003906,106811592.10205078,113559806.82373047,127175796.50878906,127785568.23730469,136204010.00976562,121481307.98339844,121604225.1586914,113757835.3881836,106144386.2915039,112209846.49658203,128748001.09863281,128492767.33398438,114940536.49902344,114088020.32470703,108138816.8334961,112808547.97363281,113997703.5522461
0.05,-165840225.21972656,-160217727.6611328,-165044815.06347656,-168857910.15625,-148075225.83007812,-195820343.01757812,-176949768.06640625,-175941131.59179688,93619956.97021484,-165993789.67285156,-154140136.71875,-154061141.96777344,-155095504.7607422,-139295349.12109375,-195383255.0048828,-178770019.53125,-145397079.46777344,-153464797.9736328,-175529342.6513672,-169949783.3251953,-170065658.56933594,-153397003.17382812,-151470733.64257812,-186963134.765625,-176795867.91992188,-169676162.71972656,-177168807.98339844,-177913665.77148438,-181867614.74609375,-173488128.66210938,-161986358.64257812,-162769851.6845703,-184639556.88476562,-176228134.15527344,-139553817.74902344,-174805465.6982422,-185677902.2216797,-182309097.29003906,-181612930.29785156,-169621429.44335938,-169243484.4970703,-184205993.65234375,-184930099.4873047,-183499221.8017578,-170695800.78125,-197169296.26464844,-190900680.5419922,-177938720.703125,-177298431.39648438,-169420806.88476562,-184063690.18554688,-183884750.36621094,-191254379.27246094,-197658905.02929688,-192152938.84277344,-176288497.9248047,-176650756.8359375,-190757507.32421875,-190964294.43359375,-195780487.06054688,-191947830.2001953,-190889663.69628906
0.055,-892444030.7617188,-882413269.0429688,-885663513.1835938,-891414184.5703125,-870229736.328125,-919752136.2304688,-900795410.15625,-899316833.4960938,-657351135.2539062,-886482910.15625,-874886962.890625,-875073181.1523438,-875694458.0078125,-862235229.4921875,-919342346.1914062,-899667114.2578125,-868117065.4296875,-875221984.8632812,-894948974.609375,-888829833.984375,-889360717.7734375,-874856262.2070312,-873094177.2460938,-909989807.1289062,-895953125.0,-889228576.6601562,-896151855.46875,-896294921.875,-899519714.3554688,-892207946.7773438,-882424072.265625,-882050170.8984375,-901149291.9921875,-895311828.6132812,-863482299.8046875,-891341735.8398438,-902733093.2617188,-899947937.0117188,-898974792.4804688,-887457458.4960938,-887576904.296875,-901504821.7773438,-901752441.40625,-900406250.0,-886790405.2734375,-912094970.703125,-906700378.4179688,-895482238.7695312,-894967041.015625,-887766296.3867188,-901079650.8789062,-900834838.8671875,-907259216.3085938,-912312255.859375,-907712280.2734375,-893929382.3242188,-894518615.7226562,-907902404.7851562,-907081542.96875,-910835266.1132812,-908053283.6914062,-907226989.7460938
0.06,-1208351196.2890625,-1196831665.0390625,-1196564575.1953125,-1206640014.6484375,-1185990844.7265625,-1230468872.0703125,-1216854736.328125,-1215163330.078125,-1042085693.359375,-1199834960.9375,-1188218261.71875,-1188788574.21875,-1188874389.6484375,-1179064208.984375,-1230141113.28125,-1211929931.640625,-1186718383.7890625,-1192887939.453125,-1207848144.53125,-1200221435.546875,-1200877685.546875,-1190055664.0625,-1188336669.921875,-1224755859.375,-1208601318.359375,-1202641845.703125,-1209574218.75,-1207470825.1953125,-1210459228.515625,-1204386230.46875,-1196349975.5859375,-1193787597.65625,-1213306274.4140625,-1207889404.296875,-1188151611.328125,-1202328613.28125,-1213102172.8515625,-1210752807.6171875,-1209157592.7734375,-1200457397.4609375,-1200852416.9921875,-1214046508.7890625,-1213966552.734375,-1212961303.7109375,-1199556152.34375,-1218901245.1171875,-1216163085.9375,-1207535156.25,-1207270263.671875,-1201050170.8984375,-1213695312.5,-1213389526.3671875,-1217683471.6796875,-1219031250.0,-1216853637.6953125,-1206327514.6484375,-1207013427.734375,-1217024536.1328125,-1217640380.859375,-1218169677.734375,-1217373535.15625,-1216837646.484375
0.065,-481156158.4472656,-472883575.4394531,-470696350.09765625,-483394500.7324219,-463564270.01953125,-501425872.8027344,-491558532.71484375,-490353088.37890625,-388299804.6875,-475905181.8847656,-464079711.9140625,-464416748.046875,-464373870.8496094,-457797790.52734375,-501331329.3457031,-486381744.3847656,-468976593.0175781,-473306243.8964844,-483992767.3339844,-474575256.34765625,-474835296.6308594,-467920013.4277344,-465678375.2441406,-499300262.4511719,-484869384.765625,-479553955.078125,-486401519.7753906,-481740203.8574219,-484542877.1972656,-479569580.078125,-472444976.8066406,-468787414.55078125,-490295104.98046875,-484308074.9511719,-476058441.1621094,-478063751.2207031,-486871002.1972656,-484730163.57421875,-482634277.34375,-477672210.6933594,-477819793.7011719,-490396301.26953125,-490563232.421875,-489879974.3652344,-478934020.99609375,-489127197.265625,-489623413.0859375,-482843627.9296875,-482734741.2109375,-477987762.4511719,-490458282.4707031,-490187042.2363281,-492125030.5175781,-489252410.8886719,-490146118.1640625,-482034576.4160156,-482507934.5703125,-489099060.05859375,-492106353.7597656,-488912628.1738281,-490091766.3574219,-489790130.6152344
0.07,595502685.546875,600315673.828125,601450622.5585938,590539916.9921875,609276672.3632812,573528381.3476562,585680053.7109375,586088317.8710938,670784667.96875,597405883.7890625,608725646.9726562,609065185.546875,608781982.421875,614999511.71875,573367736.8164062,588453308.1054688,601838195.8007812,598837463.3789062,589998901.3671875,599288757.3242188,599429199.21875,604788208.0078125,608692077.6367188,577831970.2148438,589520019.53125,594113830.5664062,588392517.0898438,592699096.6796875,590931091.3085938,594905761.71875,602223693.8476562,605375244.140625,584455566.40625,589792785.6445312,596585083.0078125,594897949.21875,588619384.765625,590685791.015625,592725769.0429688,596629943.8476562,596978637.6953125,585307800.2929688,584630798.3398438,585298828.125,594092773.4375,587216003.4179688,586195495.6054688,592997985.8398438,593188476.5625,596802062.9882812,584960205.078125,585091186.5234375,583193176.2695312,587249633.7890625,585612182.6171875,593658264.1601562,593602233.8867188,586971801.7578125,583316772.4609375,587465881.3476562,586477111.8164062,586690551.7578125
0.075,659007568.359375,664478942.8710938,664351501.4648438,656469970.703125,674290039.0625,635112121.5820312,650079895.0195312,649975097.65625,781318786.6210938,662143127.4414062,672121276.8554688,672586914.0625,672059631.3476562,681932861.328125,634975524.9023438,653795654.296875,668352416.9921875,664326660.15625,655890319.8242188,662494995.1171875,662475952.1484375,670272827.1484375,677241088.8671875,646209411.6210938,656973571.7773438,659974792.4804688,656579345.703125,656769042.96875,656495117.1875,659720153.8085938,668373229.9804688,671622558.59375,653549011.2304688,657141113.28125,672160583.4960938,658383422.8515625,654010009.765625,656132385.2539062,657477600.0976562,664888549.8046875,665334533.6914062,654425292.96875,653649414.0625,654548461.9140625,664066223.1445312,650004272.4609375,652378601.0742188,660424377.4414062,660820800.78125,665110961.9140625,654219421.3867188,654309265.1367188,648718017.578125,650245788.5742188,651664367.6757812,661345764.1601562,661523193.359375,652234497.0703125,648990234.375,650727233.8867188,652589111.328125,652864990.234375
0.08,-521421691.89453125,-512690124.51171875,-512213684.08203125,-519628173.828125,-501703796.38671875,-547061767.578125,-535645263.671875,-536132141.11328125,-330716064.453125,-515508239.74609375,-506536712.6464844,-506851959.2285156,-507216064.453125,-491145538.3300781,-546806701.6601562,-525006286.62109375,-507050964.35546875,-514053039.55078125,-521797851.5625,-518566772.4609375,-519167419.43359375,-505877014.16015625,-495231658.9355469,-529247497.55859375,-518865600.5859375,-518086547.8515625,-518740722.65625,-523913696.2890625,-523302978.515625,-520368347.16796875,-509282684.3261719,-503483001.7089844,-520882568.359375,-518450561.5234375,-492809509.27734375,-522400512.6953125,-525886779.78515625,-523636413.57421875,-523351745.60546875,-509698608.3984375,-509738708.49609375,-520940856.93359375,-521339477.5390625,-520220092.7734375,-508313995.3613281,-533479797.36328125,-526444030.76171875,-517349121.09375,-516796875.0,-509933441.1621094,-520863830.56640625,-520513549.8046875,-531377990.72265625,-533314331.0546875,-527245727.5390625,-515882080.078125,-515943420.41015625,-527122497.55859375,-530935058.59375,-532439453.125,-527182312.01171875,-526737243.65234375
0.085,-1647813964.84375,-1637215332.03125,-1636160400.390625,-1644048217.7734375,-1625258178.7109375,-1676889892.578125,-1672589965.8203125,-1673947021.484375,-1404862548.828125,-1642508544.921875,-1633278076.171875,-1634390014.6484375,-1634555297.8515625,-1612666992.1875,-1676179931.640625,-1654013061.5234375,-1633570556.640625,-1643220581.0546875,-1650056274.4140625,-1648988037.109375,-1650022460.9375,-1630764892.578125,-1617551879.8828125,-1654688842.7734375,-1646145141.6015625,-1646715087.890625,-1644986206.0546875,-1654387939.453125,-1653248046.875,-1650364135.7421875,-1636356323.2421875,-1627075805.6640625,-1647413574.21875,-1645331420.8984375,-1610859497.0703125,-1652737548.828125,-1655530883.7890625,-1653408691.40625,-1654110351.5625,-1634774291.9921875,-1635286499.0234375,-1648071044.921875,-1648232055.6640625,-1647028686.5234375,-1633406738.28125,-1664472900.390625,-1654869750.9765625,-1645355346.6796875,-1644694213.8671875,-1635370971.6796875,-1648024902.34375,-1647244506.8359375,-1660914306.640625,-1664673461.9140625,-1655795532.2265625,-1643371459.9609375,-1643947631.8359375,-1656063110.3515625,-1660225219.7265625,-1663471313.4765625,-1656536376.953125,-1655872558.59375
0.09,-1526526733.3984375,-1516340576.171875,-1516900512.6953125,-1522595581.0546875,-1503491088.8671875,-1559486328.125,-1557558959.9609375,-1560245849.609375,-1251371582.03125,-1524427368.1640625,-1514215332.03125,-1515178344.7265625,-1515588500.9765625,-1490135986.328125,-1558637573.2421875,-1535961059.5703125,-1514603637.6953125,-1525150512.6953125,-1532276855.46875,-1532146850.5859375,-1533218261.71875,-1509670288.0859375,-1496080322.265625,-1534303588.8671875,-1527679565.4296875,-1528053955.078125,-1524641113.28125,-1537084716.796875,-1534602905.2734375,-1531797729.4921875,-1515658935.546875,-1505106933.59375,-1527765136.71875,-1526656372.0703125,-1484555297.8515625,-1534518554.6875,-1536140014.6484375,-1534675170.8984375,-1535917114.2578125,-1513092773.4375,-1513462280.2734375,-1527851684.5703125,-1528309570.3125,-1527089477.5390625,-1511477050.78125,-1543492431.640625,-1534040649.4140625,-1524121826.171875,-1523335815.4296875,-1513518310.546875,-1528135375.9765625,-1527150634.765625,-1539827880.859375,-1543934448.2421875,-1535194702.1484375,-1521886962.890625,-1522755493.1640625,-1537422241.2109375,-1538840454.1015625,-1542506103.515625,-1535751220.703125,-1534919555.6640625
0.095,-486577117.9199219,-477235595.703125,-479801879.8828125,-482195953.3691406,-463547882.0800781,-520334838.8671875,-514700622.55859375,-518342529.296875,-194660064.69726562,-486110107.421875,-475224151.6113281,-475347229.00390625,-476260589.5996094,-449067047.1191406,-519685119.62890625,-494286102.2949219,-472811737.0605469,-483164550.78125,-492153472.9003906,-492442321.77734375,-493354003.90625,-467967285.15625,-455248229.98046875,-492734436.03515625,-485804992.67578125,-485625823.9746094,-481592926.0253906,-496103210.44921875,-491799133.30078125,-488663421.6308594,-472169586.1816406,-463105163.57421875,-483880371.09375,-484857513.4277344,-436982910.15625,-491860870.3613281,-492600097.65625,-492002929.6875,-493216430.6640625,-468875122.0703125,-468693847.65625,-482958007.8125,-483914550.78125,-482656585.6933594,-461972991.9433594,-497515960.6933594,-489277221.6796875,-478612792.96875,-477775482.1777344,-468876159.66796875,-483443603.515625,-482677581.7871094,-493461730.95703125,-497804321.2890625,-490624633.7890625,-476388793.9453125,-477107543.9453125,-495729858.3984375,-492260467.5292969,-496274841.30859375,-490262084.9609375,-489428863.5253906
0.1,234011672.9736328,243051177.97851562,241289062.5,238232299.8046875,257069641.11328125,201752731.3232422,210924194.3359375,207277114.86816406,523361389.16015625,235079681.39648438,246229705.81054688,246545639.03808594,245491699.21875,274383666.9921875,202201278.68652344,230805435.18066406,252476654.05273438,242032608.03222656,231164550.78125,230939270.01953125,230189971.92382812,255430938.72070312,268052429.19921875,230686050.41503906,239429626.46484375,239622650.14648438,242941482.5439453,228526062.01171875,233039077.75878906,237599380.49316406,253019561.76757812,260474365.234375,242824615.47851562,240237686.15722656,289461456.2988281,233690689.08691406,232404647.82714844,232634841.9189453,231820816.04003906,256304595.94726562,256772125.24414062,244003677.36816406,242862503.0517578,244180145.26367188,272430480.95703125,228213027.95410156,235822250.36621094,247232833.8623047,247933670.0439453,256453979.4921875,243670379.63867188,244046203.61328125,232975433.34960938,228225219.7265625,234473556.5185547,249346328.73535156,248939590.45410156,228082366.94335938,234202560.4248047,229711410.52246094,235463516.23535156,236148605.3466797
0.105,85219306.94580078,94426361.08398438,95484970.09277344,87551437.37792969,107852203.36914062,51303001.403808594,60985553.74145508,57878990.173339844,359883148.1933594,86399963.37890625,97883872.98583984,97750320.43457031,97069885.25390625,128640792.84667969,51809429.16870117,82236068.72558594,105157051.08642578,93751403.80859375,82737197.87597656,82959472.65625,82392860.41259766,106901573.18115234,120703163.14697266,80233642.578125,90047889.70947266,90909187.31689453,92817451.47705078,81136161.80419922,83393157.95898438,90117553.7109375,104440872.19238281,112076194.7631836,93059951.78222656,90908569.3359375,138377822.87597656,84847122.19238281,82227180.48095703,82945640.56396484,82536361.69433594,106446205.13916016,106748512.2680664,93720634.46044922,92716567.99316406,94094924.92675781,127486488.34228516,76174018.85986328,84596916.19873047,96644447.32666016,97132247.92480469,106411468.50585938,93640625.0,93843406.6772461,81150764.46533203,76238716.12548828,83322341.91894531,98681228.63769531,98380340.57617188,77156890.86914062,82255317.68798828,77671913.14697266,84173324.58496094,84769309.9975586
0.11,-374122894.2871094,-363519195.5566406,-361510742.1875,-372956573.4863281,-351391967.7734375,-414618560.7910156,-403432830.8105469,-406237640.3808594,-101479598.99902344,-373873474.12109375,-362086212.1582031,-362893005.37109375,-363239135.7421875,-329027130.1269531,-413926086.42578125,-381962066.6503906,-356353240.9667969,-369315521.2402344,-378790771.484375,-378628265.3808594,-378969879.1503906,-354392730.7128906,-339878326.4160156,-385831268.3105469,-376153259.27734375,-372747772.2167969,-371648712.1582031,-380078369.140625,-380400421.1425781,-372173187.2558594,-357939147.94921875,-349764739.9902344,-374818603.515625,-375044952.3925781,-327025115.9667969,-379832397.4609375,-382509033.203125,-380744384.765625,-380973785.4003906,-357294677.734375,-357161499.0234375,-374468353.2714844,-375397186.2792969,-373923675.5371094,-341748168.9453125,-391679931.640625,-380879669.1894531,-367792480.46875,-367377105.7128906,-357478851.3183594,-374545288.0859375,-374220397.94921875,-386714416.50390625,-391820800.78125,-382280548.0957031,-365776794.43359375,-366193328.8574219,-389789123.53515625,-385753082.2753906,-390256988.5253906,-381805999.7558594,-381064971.9238281
0.115,-450354064.94140625,-436227966.30859375,-436095977.7832031,-447042755.1269531,-425334289.55078125,-496704620.3613281,-480930053.7109375,-483905761.71875,-158572479.24804688,-449636779.78515625,-437864318.84765625,-438685211.1816406,-439229095.4589844,-404342224.12109375,-496024536.1328125,-461570648.1933594,-433231048.5839844,-447502746.58203125,-455387390.13671875,-456093872.0703125,-456253417.96875,-430757202.1484375,-417427825.9277344,-466767364.5019531,-457789764.4042969,-451491210.9375,-450121185.3027344,-457125701.9042969,-457693786.62109375,-449390808.10546875,-434437103.2714844,-427585754.39453125,-457642333.984375,-456481201.171875,-404048278.80859375,-460120880.1269531,-460873596.19140625,-457993896.484375,-458188507.0800781,-433724761.9628906,-433424896.2402344,-456892669.6777344,-457989685.05859375,-456369628.90625,-429951782.2265625,-471943389.8925781,-458425445.5566406,-443651000.9765625,-443162353.515625,-433791778.5644531,-457219940.1855469,-456727691.6503906,-466490631.1035156,-472254760.7421875,-460161560.05859375,-441637664.7949219,-442139526.3671875,-471331146.2402344,-465578918.45703125,-470428009.0332031,-459623046.875,-458613098.14453125
0.12,-121574378.96728516,-102701393.1274414,-103528472.90039062,-114942474.36523438,-92156936.64550781,-168050415.0390625,-149005554.19921875,-152280014.03808594,183250427.24609375,-118129493.7133789,-105962593.07861328,-106114273.07128906,-107163497.92480469,-73526016.23535156,-167655975.34179688,-131254730.22460938,-102100074.7680664,-116134216.30859375,-123740509.03320312,-124753158.56933594,-124834739.6850586,-98592208.86230469,-86924728.39355469,-135460113.52539062,-128146026.61132812,-121290206.90917969,-119464012.1459961,-126285034.1796875,-124928176.87988281,-117115669.25048828,-101242881.77490234,-96726905.8227539,-127603141.78466797,-126906730.65185547,-71679801.94091797,-130467117.30957031,-129134094.23828125,-125334236.14501953,-125404212.95166016,-99654289.24560547,-99056083.67919922,-126289550.78125,-127608207.70263672,-125896347.04589844,-104128448.48632812,-139318649.2919922,-124910026.55029297,-108411476.1352539,-107879959.10644531,-99477371.21582031,-126840522.76611328,-126347496.03271484,-133558074.95117188,-139647659.3017578,-126847747.80273438,-106386817.9321289,-106810913.0859375,-140309585.57128906,-132564514.16015625,-137709121.70410156,-125847320.55664062,-124724876.4038086
0.125,191312210.0830078,214142578.125,216400390.625,198342529.296875,225696762.08496094,146560913.0859375,164546920.7763672,161155593.8720703,478220611.5722656,197361022.94921875,211594039.9169922,212054016.11328125,210795578.0029297,244488418.57910156,146670883.17871094,183168945.3125,211763198.85253906,200354888.91601562,191796401.97753906,192361053.46679688,192268600.4638672,219132904.05273438,231542617.79785156,182509750.36621094,187440155.02929688,192581283.56933594,194079116.82128906,188483306.88476562,191492660.52246094,199634643.5546875,216900619.50683594,221237960.8154297,189601486.2060547,188392257.6904297,240269683.83789062,184906005.859375,186437133.7890625,190972045.8984375,191215774.5361328,218232742.3095703,218909103.3935547,190999435.4248047,189614501.953125,191216033.93554688,212599960.32714844,179064163.2080078,191879196.1669922,209667953.49121094,210160186.76757812,218527648.92578125,190431488.03710938,190821929.93164062,183653701.78222656,178705627.44140625,190118011.47460938,211787368.77441406,211473312.3779297,178651123.046875,184780151.3671875,180492980.95703125,191405380.24902344,192394302.36816406
0.13,248391143.79882812,273767822.265625,281425292.96875,253065216.06445312,287483886.71875,199496719.36035156,216442321.77734375,213107772.82714844,506198974.609375,255075805.6640625,272990478.515625,273485168.45703125,272486633.30078125,311039825.4394531,199567871.09375,236456954.9560547,266146301.26953125,258798187.25585938,248997573.85253906,252193740.84472656,252023223.87695312,281244873.046875,297468444.82421875,238435546.875,243273208.61816406,247256393.4326172,247903762.8173828,244957717.8955078,248197784.42382812,257671875.0,277827178.9550781,285291381.8359375,247336410.52246094,244015838.62304688,290175170.8984375,242080764.7705078,242285858.15429688,247690948.48632812,248334915.1611328,277623535.15625,278134796.1425781,248463928.22265625,247131622.31445312,248463302.6123047,271656555.17578125,237559524.5361328,248400741.57714844,267742370.60546875,268221496.58203125,277813720.703125,247999023.4375,248366760.25390625,239813003.54003906,237074157.71484375,246971984.86328125,270109680.17578125,269758331.2988281,239320343.01757812,240960723.87695312,238685165.40527344,248092697.1435547,248903121.9482422
0.135,197295608.5205078,224792419.43359375,236318893.4326172,200501434.32617188,240782516.4794922,138015502.9296875,158784332.27539062,155542160.0341797,454073394.7753906,203651550.29296875,225290267.94433594,225527542.1142578,224828598.02246094,272519714.35546875,138170593.26171875,178441665.64941406,212146453.85742188,208126647.94921875,197355056.7626953,202477233.88671875,202232467.6513672,236587020.87402344,257283416.74804688,179039245.60546875,188362213.13476562,193106079.1015625,193395401.00097656,192758224.4873047,196554840.08789062,207157546.9970703,231918884.27734375,243333358.76464844,194306777.95410156,189180160.52246094,234407440.18554688,189609130.859375,189146865.84472656,196124206.54296875,197160873.41308594,231148361.2060547,231480606.07910156,195355026.2451172,194044021.6064453,195217056.27441406,219152084.35058594,186724166.8701172,197327514.6484375,219503662.109375,220005767.82226562,231110061.6455078,194942703.2470703,195382934.5703125,187218917.8466797,186194839.47753906,195972045.8984375,222186691.2841797,221665496.82617188,189403366.0888672,188215286.2548828,187825408.93554688,196834060.6689453,197594024.65820312
0.14,295682220.4589844,325611663.8183594,338395446.77734375,299548614.5019531,342739074.70703125,227534454.34570312,254219116.2109375,251033325.1953125,580434814.453125,302167236.328125,326445526.1230469,326738739.0136719,325963684.08203125,382339630.1269531,227608779.90722656,272930511.4746094,310816925.0488281,308306732.1777344,296418334.9609375,302800689.6972656,302642669.6777344,342670440.6738281,365947937.01171875,270036346.4355469,285755828.8574219,291169403.0761719,291929260.25390625,292224761.9628906,298925109.86328125,309307861.328125,338835693.359375,352149505.6152344,293885406.4941406,286790985.1074219,336550567.6269531,288496368.4082031,289150482.1777344,298502502.44140625,299941131.5917969,340092559.8144531,340382568.359375,295208923.33984375,293850769.04296875,295174713.1347656,319239349.3652344,290791564.94140625,301961181.640625,327754180.9082031,328188568.1152344,339905151.3671875,294755859.375,295196685.7910156,291241149.90234375,290445068.359375,300355072.0214844,330587890.625,329951751.7089844,291403594.9707031,292091217.0410156,292160217.28515625,301351226.8066406,302101745.60546875
0.145,583543762.2070312,615998046.875,629043579.1015625,588167541.5039062,632787170.4101562,513610473.6328125,542384155.2734375,539241760.2539062,887967712.4023438,590217468.2617188,616399475.0976562,617172424.3164062,616064147.9492188,676272338.8671875,513439575.1953125,561710083.0078125,600989379.8828125,598972290.0390625,584808837.890625,593332458.4960938,593459411.6210938,636110046.3867188,659747985.8398438,557767761.2304688,576915161.1328125,580894897.4609375,582178466.796875,582635986.328125,593727478.0273438,602808776.8554688,635006164.5507812,647944274.9023438,587437561.0351562,577979431.1523438,631847900.390625,579493103.0273438,581778442.3828125,593280822.7539062,595118591.3085938,639400573.7304688,639764465.3320312,589096191.40625,587691162.109375,589331359.8632812,615719055.1757812,589747558.59375,599836853.0273438,627959960.9375,628220031.7382812,639303527.8320312,588577819.8242188,588853515.625,592049194.3359375,589622436.5234375,597999511.71875,630661804.1992188,630090515.1367188,586093322.7539062,592991821.2890625,591241455.078125,599488037.109375,600118408.203125
0.15,810515441.8945312,845117858.8867188,858304260.2539062,815185363.7695312,860966491.6992188,743122802.734375,770228881.8359375,767230529.7851562,1108582031.25,816642089.84375,844374755.859375,845574523.9257812,844307006.8359375,903131591.796875,742849792.4804688,790939575.1953125,830075744.6289062,828288696.2890625,810221069.3359375,821834838.8671875,822175781.25,863567504.8828125,886229614.2578125,789233398.4375,808143859.8632812,809841552.734375,810741577.1484375,810800048.828125,824643737.7929688,832807312.0117188,864650817.8710938,876163757.3242188,820120483.3984375,808956176.7578125,862964904.7851562,809888183.59375,812278991.6992188,824278381.3476562,826369689.9414062,870066772.4609375,870520080.5664062,821914489.7460938,820500793.4570312,822305541.9921875,852969726.5625,825145690.9179688,832550292.96875,860157775.8789062,860283813.4765625,870239013.671875,821356384.2773438,821448242.1875,831377441.40625,824979858.3984375,830765747.0703125,862640380.859375,862208801.2695312,817011108.3984375,832596008.3007812,826368164.0625,832594360.3515625,833044738.7695312
0.155,677744934.0820312,713899963.3789062,726390197.7539062,683372192.3828125,729229370.1171875,611436950.6835938,638208862.3046875,635582336.4257812,969784545.8984375,683266113.28125,711489807.1289062,712651550.2929688,711576965.3320312,766647827.1484375,611366455.078125,658593261.71875,699632995.6054688,697072998.046875,674661865.234375,688221069.3359375,688387329.1015625,727346313.4765625,748121093.75,658993041.9921875,677469238.28125,678838073.7304688,678368041.9921875,676575195.3125,689855712.890625,698598266.6015625,728299926.7578125,737564758.3007812,688726196.2890625,678025573.7304688,731322387.6953125,678416381.8359375,678924377.4414062,689664245.6054688,691742309.5703125,731137207.03125,731587097.1679688,690442565.9179688,689046630.859375,690787292.4804688,724023437.5,691069763.1835938,696994934.0820312,721833007.8125,721941528.3203125,731490234.375,689882080.078125,689991455.078125,702587036.1328125,690628417.96875,695412048.3398438,724311645.5078125,723873535.15625,679721374.5117188,703920166.015625,691902770.9960938,697075927.734375,697441101.0742188
0.16,208413085.9375,245446533.203125,256631835.9375,215823318.4814453,260840820.3125,139654678.34472656,169165924.07226562,167059570.3125,518610778.80859375,214128936.76757812,241463745.1171875,242258499.1455078,241521591.18652344,293652221.6796875,139841964.7216797,187420669.55566406,232894470.21484375,227977264.40429688,203304412.84179688,216434188.84277344,216122390.7470703,254360260.00976562,272974212.6464844,187197891.23535156,207143661.49902344,210765213.0126953,208854537.9638672,203947052.00195312,215139816.2841797,225512710.57128906,253511260.98632812,259686553.95507812,215833679.19921875,207729080.2001953,263462249.75585938,207496429.44335938,205661193.84765625,215023941.04003906,216912841.796875,251958694.4580078,252287536.62109375,217318847.65625,215978134.15527344,217654769.89746094,250473083.49609375,212434234.61914062,219756134.03320312,241680419.921875,241817947.3876953,252220016.4794922,216821441.65039062,217156021.11816406,227489944.4580078,211845764.16015625,218239974.97558594,244413452.1484375,243765121.45996094,199565795.8984375,228571792.60253906,213158950.80566406,219465744.0185547,219808746.33789062
0.165,-168341033.93554688,-130365631.10351562,-119048126.22070312,-161058410.64453125,-114654335.02197266,-241768554.6875,-209715042.1142578,-211490859.98535156,165308456.42089844,-161966400.14648438,-135255035.40039062,-134698440.5517578,-135191848.7548828,-82895378.11279297,-241619781.49414062,-192886688.23242188,-143739196.77734375,-151033370.9716797,-174256225.5859375,-162262985.2294922,-162895339.9658203,-123257286.07177734,-105195289.6118164,-195572784.42382812,-173586975.09765625,-166895339.9658203,-169244461.0595703,-176341613.76953125,-165639663.69628906,-154040054.32128906,-125904029.8461914,-121872482.29980469,-167144821.1669922,-172749572.75390625,-112670768.73779297,-172602859.4970703,-175342437.74414062,-165892456.0546875,-164137710.57128906,-130475173.95019531,-130251525.87890625,-165942581.1767578,-167182022.09472656,-165401306.15234375,-132634063.72070312,-173158554.07714844,-163131546.0205078,-142433486.93847656,-142250885.00976562,-130455093.38378906,-166318679.8095703,-165775558.4716797,-159437286.37695312,-173540817.2607422,-164752288.81835938,-139411941.5283203,-140286956.78710938,-186002304.07714844,-158747589.11132812,-172257232.66601562,-163707427.97851562,-163532653.80859375
0.17,-47809795.37963867,-6887187.0040893555,7361554.6226501465,-42957439.42260742,9427377.700805664,-126471488.95263672,-93926322.93701172,-95802085.87646484,281806365.9667969,-40253566.74194336,-11907125.473022461,-11202940.940856934,-11578711.50970459,44987800.59814453,-126663665.77148438,-76255264.28222656,-26645971.298217773,-34073444.36645508,-53161056.51855469,-40687953.94897461,-41186759.94873047,693661.2725257874,21254966.735839844,-81912002.56347656,-58058795.92895508,-48973720.55053711,-50494937.896728516,-57322357.177734375,-44532527.923583984,-32922847.747802734,-3101867.198944092,1994537.353515625,-51553699.4934082,-57042900.08544922,4803696.155548096,-54135417.93823242,-55730808.25805664,-45017974.853515625,-43204948.42529297,-7835948.944091797,-7555408.000946045,-50446132.65991211,-51602439.880371094,-49686550.14038086,-14411666.870117188,-53930015.563964844,-42277839.66064453,-20760837.55493164,-20477794.647216797,-7958356.857299805,-50764961.24267578,-50193103.7902832,-45246765.13671875,-53983890.533447266,-43964836.12060547,-17589691.162109375,-18530113.220214844,-65474975.5859375,-44703578.94897461,-52875930.78613281,-42644313.81225586,-42837303.161621094
0.175,478324340.8203125,525248046.875,543893493.6523438,482265106.2011719,542665893.5546875,395836975.09765625,428905639.6484375,426688781.73828125,779223510.7421875,489051574.70703125,520792907.71484375,521938110.3515625,521577453.61328125,584945861.8164062,395307067.87109375,448729583.7402344,496642608.6425781,491118896.484375,476309051.5136719,490763244.62890625,490670257.5683594,534448486.328125,559110961.9140625,439391540.52734375,466398590.0878906,477151214.5996094,477064270.01953125,471602233.88671875,487359527.5878906,498229278.5644531,529851684.5703125,538440490.7226562,475070831.2988281,467376525.87890625,526840515.13671875,474459228.515625,475181945.80078125,486731994.62890625,488745513.9160156,526599914.55078125,527021057.12890625,476476562.5,475291870.1171875,477169952.3925781,514186767.578125,479088775.6347656,490766876.2207031,513973388.671875,514331970.21484375,526488586.42578125,476015380.859375,476519805.9082031,483700439.453125,479080322.265625,489181396.484375,517172058.10546875,516261596.6796875,469347381.5917969,484430267.3339844,480089416.50390625,490922698.9746094,490403778.0761719
0.18,917371398.9257812,970772216.796875,992557678.2226562,924158691.40625,989378845.2148438,834877258.3007812,869710021.9726562,867316101.0742188,1195289672.8515625,933220214.84375,967528015.1367188,969169616.6992188,968674926.7578125,1037259399.4140625,834227661.1328125,891488037.109375,937381591.796875,933119934.0820312,921358520.5078125,937378173.828125,937595336.9140625,982164978.0273438,1009298095.703125,878530578.6132812,909713928.2226562,921465637.2070312,922531982.421875,917135375.9765625,934815490.7226562,944875915.5273438,977231506.3476562,988151733.3984375,920673767.0898438,910559082.03125,966171997.0703125,920297729.4921875,923066650.390625,934179321.2890625,936401672.3632812,975067871.09375,975481750.4882812,922601562.5,921293701.171875,923002197.265625,957567321.7773438,928707702.6367188,939468383.7890625,963413635.2539062,963661621.09375,974984436.0351562,921860778.8085938,922367431.640625,932552185.0585938,928405334.4726562,938042419.4335938,966558288.5742188,965598022.4609375,919732788.0859375,933544982.9101562,929539428.7109375,939951721.1914062,939390258.7890625
0.185,897338378.90625,953215332.03125,975550659.1796875,907563354.4921875,972437927.2460938,818767028.8085938,854542053.2226562,852276123.046875,1169274780.2734375,917050170.8984375,951783020.0195312,953709167.4804688,953001098.6328125,1022050842.2851562,818177246.09375,877608520.5078125,921177734.375,915828186.0351562,906365051.2695312,922797668.4570312,923089660.6445312,966926879.8828125,993688110.3515625,863792907.7148438,896798645.0195312,908376342.7734375,909915466.3085938,903118164.0625,921357238.7695312,930541809.0820312,962618896.484375,972921264.6484375,908569274.9023438,897574584.9609375,950574462.890625,907103698.7304688,910621704.1015625,920780700.6835938,923114135.7421875,960449096.6796875,960657714.84375,910745239.2578125,909377868.6523438,910966369.6289062,942520568.8476562,917546325.6835938,926687133.7890625,949539123.5351562,949558044.4335938,960328796.3867188,909841064.453125,910435729.9804688,921680053.7109375,916985229.4921875,925316345.2148438,952521606.4453125,951451660.15625,907343139.6484375,922753295.8984375,918247924.8046875,927045654.296875,926667480.46875
0.19,446284667.96875,499549255.37109375,520791931.15234375,456948852.5390625,519150085.44921875,372067871.09375,406833404.5410156,404833557.12890625,711745666.5039062,466364318.84765625,500724609.375,502444763.18359375,501718353.2714844,567451049.8046875,371652008.0566406,430439819.3359375,471350952.1484375,463897277.83203125,456480407.71484375,473299438.4765625,473528839.1113281,515498474.12109375,540931396.484375,419484069.82421875,450208038.3300781,460738464.35546875,462208343.5058594,454548309.3261719,472553619.3847656,480762512.20703125,512454528.80859375,521323486.328125,461460876.46484375,451013885.4980469,502508789.0625,459337188.7207031,462174011.23046875,472094879.1503906,474419769.2871094,509710449.21875,509722900.390625,463274749.7558594,462058135.9863281,463592803.9550781,498282958.984375,470626983.6425781,477839630.1269531,498849792.48046875,498837860.1074219,509530364.9902344,462488739.0136719,463156402.5878906,473950134.27734375,470187255.859375,476429779.0527344,501601745.60546875,500575927.734375,458357666.015625,474891174.31640625,471301239.0136719,477747924.8046875,477556854.2480469
0.195,-204240341.18652344,-154487777.70996094,-134095382.69042969,-194188873.29101562,-133478118.89648438,-276890930.17578125,-242407379.15039062,-244088195.80078125,45175785.064697266,-184114120.48339844,-149308898.92578125,-148372955.32226562,-148815200.80566406,-86718139.6484375,-276944030.76171875,-219344924.9267578,-179388259.8876953,-187663833.61816406,-193813552.8564453,-175815048.21777344,-175713500.9765625,-135632369.9951172,-110680114.74609375,-227182571.4111328,-199470855.71289062,-189056945.80078125,-187801727.29492188,-194530700.68359375,-177418502.8076172,-169608139.03808594,-138030700.68359375,-129096801.7578125,-188878448.48632812,-198558227.5390625,-148427154.54101562,-189875640.86914062,-188384567.2607422,-177655624.38964844,-175390823.3642578,-141705535.88867188,-141740798.9501953,-187893310.546875,-188770507.8125,-187343276.97753906,-144065399.16992188,-179866867.0654297,-173463211.0595703,-153160446.1669922,-152851837.15820312,-141960769.6533203,-188381057.7392578,-187683624.26757812,-176931991.57714844,-179901351.92871094,-174865951.53808594,-150562026.97753906,-151306686.4013672,-193095489.50195312,-176210525.5126953,-179094772.3388672,-174116470.33691406,-174135879.51660156
0.2,-814673583.984375,-764842224.1210938,-744217773.4375,-801902465.8203125,-740942993.1640625,-887697570.8007812,-850114868.1640625,-851344787.5976562,-571971740.7226562,-789923522.9492188,-754229553.2226562,-754263977.0507812,-754489135.7421875,-694576599.1210938,-887193237.3046875,-828573852.5390625,-785950561.5234375,-793568237.3046875,-799565368.6523438,-780306335.4492188,-780428955.078125,-741580139.1601562,-717093750.0,-837035705.5664062,-809037231.4453125,-796293884.2773438,-794866638.1835938,-799747802.734375,-784177978.515625,-775640808.1054688,-744647399.9023438,-735522827.1484375,-798582763.671875,-807972778.3203125,-758181396.484375,-796909301.7578125,-796132202.1484375,-784148864.7460938,-781892639.1601562,-750080749.5117188,-750125366.2109375,-798440063.4765625,-798970336.9140625,-797669189.453125,-748948669.4335938,-791108337.4023438,-783309326.171875,-762328796.3867188,-761573730.46875,-750477355.9570312,-798654846.1914062,-797933166.5039062,-786480468.75,-790846496.5820312,-784624816.8945312,-759748474.1210938,-760172180.1757812,-804580871.5820312,-785919006.3476562,-790107788.0859375,-784485900.8789062,-784161315.9179688
0.205,-1087370849.609375,-1034736206.0546875,-1013651123.046875,-1069113525.390625,-1007811767.578125,-1159572021.484375,-1117603271.484375,-1118409667.96875,-824938354.4921875,-1054660644.53125,-1018913879.3945312,-1019387451.171875,-1019909667.96875,-961421081.5429688,-1158618530.2734375,-1097458251.953125,-1050286010.7421875,-1057574829.1015625,-1063701049.8046875,-1043922241.2109375,-1044328247.0703125,-1006372375.4882812,-984063232.421875,-1109392822.265625,-1078965576.171875,-1062468994.140625,-1060082763.671875,-1063678588.8671875,-1049429809.5703125,-1039817871.09375,-1010598022.4609375,-1004087280.2734375,-1068443481.4453125,-1077808959.9609375,-1025920532.2265625,-1063914550.78125,-1062285766.6015625,-1049293334.9609375,-1046945068.359375,-1018568359.375,-1018677978.515625,-1068718872.0703125,-1069108764.6484375,-1067764770.5078125,-1022063049.3164062,-1062650390.625,-1052334594.7265625,-1031096557.6171875,-1030054077.1484375,-1019106018.0664062,-1068781738.28125,-1068087646.484375,-1056477905.2734375,-1062408569.3359375,-1053651245.1171875,-1028527343.75,-1028807250.9765625,-1078020507.8125,-1055902099.609375,-1061379638.671875,-1053793823.2421875,-1052971191.40625
0.21,-763276916.5039062,-709906066.8945312,-689599975.5859375,-741985595.703125,-681682739.2578125,-832343811.0351562,-789461425.78125,-790336791.9921875,-469245697.0214844,-726484680.1757812,-691598693.8476562,-691625183.1054688,-692804321.2890625,-635491699.21875,-831431213.3789062,-769520080.5664062,-719953369.140625,-728562622.0703125,-734301696.7773438,-714370178.2226562,-714926757.8125,-677995727.5390625,-659199462.890625,-783047668.4570312,-752567443.8476562,-733883300.78125,-730027038.5742188,-733301940.9179688,-718992797.8515625,-709362304.6875,-682536437.9882812,-681086669.921875,-742223571.7773438,-751491516.1132812,-696343383.7890625,-736193054.1992188,-732513610.8398438,-719049743.6523438,-716561523.4375,-692701171.875,-692788024.9023438,-742266418.4570312,-742818969.7265625,-741270996.09375,-702729125.9765625,-735837707.5195312,-724180541.9921875,-704450622.5585938,-703304748.5351562,-693181823.7304688,-742302429.1992188,-741780517.578125,-731216735.8398438,-735759277.34375,-725737060.546875,-702024719.2382812,-702312622.0703125,-754726501.4648438,-730453796.3867188,-734424804.6875,-725473388.671875,-724396545.4101562
0.215,-1173988.699913025,48432552.337646484,66545326.232910156,18143730.16357422,75664855.95703125,-66562011.71875,-27502372.74169922,-29052043.914794922,305987762.4511719,31765283.584594727,65653633.11767578,66490371.70410156,64953384.39941406,121705589.2944336,-66148109.436035156,-6972989.082336426,41533824.9206543,30457145.69091797,25055608.74938965,45349948.88305664,44944961.54785156,80664581.29882812,96662780.76171875,-18384197.235107422,8893453.598022461,26478923.797607422,31276750.564575195,27779029.846191406,43209693.908691406,51731708.52661133,76830947.87597656,74467803.95507812,18701740.264892578,9795677.185058594,65808135.986328125,24156673.431396484,29375463.485717773,42770740.5090332,45365814.208984375,65727615.35644531,65873107.91015625,19401060.104370117,18506683.349609375,20128026.962280273,54123542.78564453,26850580.2154541,37892288.20800781,55541351.318359375,56691436.767578125,65553405.76171875,19260616.302490234,19536731.719970703,28548118.591308594,26890394.21081543,36000839.23339844,57726428.9855957,57412246.70410156,6650363.445281982,29484548.568725586,28190019.607543945,37125564.57519531,37900287.62817383
0.22,599423583.984375,643056579.5898438,658966674.8046875,614481628.4179688,667899108.8867188,535976989.74609375,570251037.5976562,568065368.6523438,892991638.1835938,624472961.4257812,657299316.40625,658594238.28125,657319580.078125,713469787.5976562,535907958.984375,590384338.3789062,637347412.109375,624034973.1445312,617828735.3515625,638223449.7070312,638201904.296875,672432495.1171875,687217773.4375,581547607.421875,605977355.9570312,620779357.9101562,625166870.1171875,621208862.3046875,636924865.7226562,644755676.2695312,669134948.7304688,666379333.4960938,614838867.1875,606853759.765625,660003784.1796875,618710021.9726562,623243591.3085938,636181030.2734375,638812561.0351562,657778869.6289062,658157775.8789062,616282226.5625,615129760.7421875,616541198.7304688,649202880.859375,621858520.5078125,631671325.6835938,648897155.7617188,649891479.4921875,657920471.1914062,615950988.7695312,616121276.8554688,623738037.109375,622007812.5,629696411.1328125,650895996.09375,650499572.7539062,605175964.3554688,624623535.15625,622986816.40625,631377807.6171875,631551269.53125
0.225,668863037.109375,707306396.484375,722132690.4296875,680359008.7890625,729566711.4257812,605013061.5234375,637375427.2460938,635261779.7851562,943160949.7070312,687514282.2265625,718780883.7890625,719923095.703125,719140258.7890625,773124755.859375,604787353.515625,654783081.0546875,702572204.5898438,688021667.4804688,679717529.296875,699223083.4960938,699561584.4726562,731834594.7265625,745910644.53125,645702270.5078125,669684082.03125,682954467.7734375,685870544.4335938,681258178.7109375,695186462.4023438,703939331.0546875,727712524.4140625,726040100.0976562,676943420.4101562,670739746.09375,720252502.4414062,680438049.3164062,681917114.2578125,694340393.0664062,696918395.9960938,715398315.4296875,715705505.3710938,678701354.9804688,677478027.34375,678692016.6015625,709971374.5117188,678719787.5976562,688067077.6367188,706794616.6992188,707384582.5195312,715607849.1210938,678212097.1679688,678479858.3984375,684489807.1289062,678940795.8984375,686361389.1601562,708778564.453125,708093505.859375,667888305.6640625,685143615.7226562,679626159.6679688,687916381.8359375,687739379.8828125
0.23,556214538.5742188,590529541.015625,604752075.1953125,564687683.1054688,610920837.4023438,491567321.77734375,524139099.12109375,522558532.71484375,827211975.0976562,570297058.1054688,600069274.9023438,601050964.3554688,600509338.3789062,651301025.390625,491257049.5605469,537410278.3203125,587132324.21875,572124084.4726562,561025756.8359375,579234680.1757812,579742492.6757812,610168640.1367188,623129028.3203125,526713195.80078125,550081359.8632812,563520446.7773438,564799743.6523438,559493469.2382812,570691284.1796875,581333496.09375,604054077.1484375,602009155.2734375,555189453.125,551251953.125,599600891.1132812,560019836.4257812,557608154.296875,569828063.9648438,572252197.265625,589671752.9296875,589669433.59375,556965637.2070312,555650573.7304688,557054809.5703125,586638061.5234375,550918457.03125,560354675.2929688,580644470.2148438,580715942.3828125,589751770.0195312,556387634.2773438,556769348.1445312,560166320.8007812,551068359.375,558910400.390625,582792541.5039062,581692138.671875,544510437.0117188,560681701.6601562,551650634.765625,560185424.8046875,560039489.7460938
0.235,758487243.6523438,789063171.3867188,802123168.9453125,763796386.71875,808802490.234375,696108276.3671875,727234436.0351562,725863525.390625,1039526611.328125,767614196.7773438,797298461.9140625,798582214.3554688,798080810.546875,847453796.3867188,695449584.9609375,737711914.0625,787234497.0703125,771945739.7460938,757669921.875,775688903.8085938,776216735.8398438,806091003.4179688,818239440.9179688,727586608.8867188,747799926.7578125,760538574.21875,760360351.5625,754789184.5703125,764452819.8242188,776362548.828125,798315979.0039062,794483276.3671875,751215332.03125,748804321.2890625,797316162.109375,756593261.71875,751176147.4609375,763531555.1757812,765784423.828125,781994995.1171875,781829833.984375,753145690.9179688,751534973.1445312,753377624.5117188,783040161.1328125,743128417.96875,752103515.625,772697509.765625,772432861.328125,781997253.4179688,752437622.0703125,752810180.6640625,752520874.0234375,743163391.1132812,750516479.4921875,775071105.9570312,773801025.390625,740010192.8710938,753128295.8984375,743777893.0664062,752013366.6992188,751912536.6210938
0.24,1024983154.296875,1053052368.1640625,1065109497.0703125,1027946411.1328125,1073046264.6484375,968812500.0,995697570.8007812,994166076.6601562,1308972656.25,1029781738.28125,1060878662.109375,1062458374.0234375,1062088378.90625,1112572631.8359375,967827209.4726562,1006273742.6757812,1053162841.796875,1037625732.421875,1019975036.6210938,1039426513.671875,1039884155.2734375,1070396484.375,1082847167.96875,998466491.6992188,1015832336.4257812,1025292236.328125,1023536010.7421875,1018749877.9296875,1028472045.8984375,1040382568.359375,1062531372.0703125,1057717285.15625,1019030151.3671875,1016589965.8203125,1062784423.828125,1022188903.8085938,1015129089.3554688,1027547729.4921875,1029789794.921875,1045911132.8125,1045889160.15625,1021181335.4492188,1019349731.4453125,1021311645.5078125,1052022338.8671875,1009016296.3867188,1016482788.0859375,1036703857.421875,1036473266.6015625,1045956420.8984375,1020286315.9179688,1020657653.8085938,1016747680.6640625,1009033874.5117188,1014504699.7070312,1039160278.3203125,1038210205.078125,1010069274.9023438,1017490478.515625,1009758972.1679688,1016426696.7773438,1016191040.0390625
0.245,609466186.5234375,636704162.5976562,649365051.2695312,610949829.1015625,656613159.1796875,558619873.046875,581774108.8867188,580535034.1796875,878263122.5585938,612938171.3867188,645091125.4882812,646159851.0742188,645960021.9726562,696636169.4335938,557966430.6640625,593658264.1601562,638611389.1601562,623451721.1914062,602903320.3125,624195373.5351562,624390502.9296875,654689392.0898438,667585449.21875,585638671.875,605017517.0898438,610678161.6210938,607279479.9804688,604442871.09375,614154174.8046875,625545410.15625,647928710.9375,643532348.6328125,608913818.359375,605809814.453125,646894409.1796875,609334228.515625,601413818.359375,613447204.5898438,615910888.671875,632584899.9023438,632720947.265625,610740600.5859375,609257385.2539062,610765563.9648438,640720397.9492188,597652404.7851562,603259338.3789062,623299377.4414062,623423950.1953125,632605102.5390625,609835021.9726562,610388061.5234375,604505798.3398438,597757202.1484375,601227844.2382812,625584228.515625,625180297.8515625,601919616.6992188,605198669.4335938,598663085.9375,602844177.2460938,602577941.8945312
0.25,-521354003.90625,-495676361.0839844,-481843017.578125,-522601257.32421875,-477118591.30859375,-573628051.7578125,-550792114.2578125,-550990844.7265625,-271799987.79296875,-518030700.68359375,-486867828.3691406,-486962097.16796875,-487227447.5097656,-440357177.734375,-573322265.625,-539150512.6953125,-493339447.0214844,-506950469.9707031,-529377624.51171875,-507301025.390625,-507643768.3105469,-479842163.0859375,-468218017.578125,-550970031.7382812,-526171264.6484375,-521679931.640625,-526009460.44921875,-526830993.65234375,-518280761.71875,-506928466.796875,-485800964.35546875,-490471710.2050781,-522360595.703125,-525073669.43359375,-487211730.95703125,-521763244.62890625,-530099182.12890625,-518649719.23828125,-515914733.88671875,-499985778.80859375,-499985961.9140625,-521553222.65625,-522178771.97265625,-521262695.3125,-493340545.6542969,-534300354.00390625,-529584045.41015625,-509723236.0839844,-509155975.3417969,-500185363.76953125,-522124389.6484375,-521308227.5390625,-527102478.02734375,-534111938.4765625,-531104675.29296875,-507719970.703125,-507885925.29296875,-531168273.92578125,-526582824.70703125,-533042785.64453125,-530661254.8828125,-530664245.60546875
0.255,-1387584472.65625,-1366712646.484375,-1354256103.515625,-1393159057.6171875,-1349935913.0859375,-1446188476.5625,-1422227783.203125,-1421591430.6640625,-1136641723.6328125,-1387387207.03125,-1358593383.7890625,-1359378051.7578125,-1359899902.34375,-1318466064.453125,-1445186279.296875,-1412430541.9921875,-1364682373.046875,-1376215576.171875,-1400136962.890625,-1378470458.984375,-1379399291.9921875,-1354760620.1171875,-1346233154.296875,-1426301025.390625,-1399926147.4609375,-1394389892.578125,-1398447998.046875,-1399033935.546875,-1391620727.5390625,-1379665161.1328125,-1360983154.296875,-1368238403.3203125,-1397548950.1953125,-1398615356.4453125,-1358359008.7890625,-1395161621.09375,-1403183105.46875,-1391861450.1953125,-1389076538.0859375,-1375490966.796875,-1375802124.0234375,-1397642944.3359375,-1397637939.453125,-1396868530.2734375,-1369177612.3046875,-1410414062.5,-1404951660.15625,-1385510742.1875,-1384707153.3203125,-1375955688.4765625,-1397770263.671875,-1396868652.34375,-1401884277.34375,-1410236938.4765625,-1405904174.8046875,-1383635375.9765625,-1384053100.5859375,-1410577026.3671875,-1401426391.6015625,-1409140258.7890625,-1406438476.5625,-1406221923.828125
0.26,-1193477905.2734375,-1178709716.796875,-1170707641.6015625,-1201348388.671875,-1162404052.734375,-1254333251.953125,-1231472778.3203125,-1231111328.125,-916318969.7265625,-1198914428.7109375,-1171510131.8359375,-1171868652.34375,-1172515014.6484375,-1132910278.3203125,-1253520629.8828125,-1222906860.3515625,-1174917846.6796875,-1185366821.2890625,-1211629760.7421875,-1190518066.40625,-1191646850.5859375,-1167848144.53125,-1162017822.265625,-1232409179.6875,-1211763305.6640625,-1206476562.5,-1209709960.9375,-1212490112.3046875,-1204441040.0390625,-1191906494.140625,-1174458984.375,-1185053100.5859375,-1210673583.984375,-1210498168.9453125,-1164690795.8984375,-1209657104.4921875,-1216723388.671875,-1204886718.75,-1202288330.078125,-1190131591.796875,-1190542114.2578125,-1210721801.7578125,-1210833496.09375,-1209749389.6484375,-1180956665.0390625,-1226277709.9609375,-1219541381.8359375,-1199885620.1171875,-1199192382.8125,-1190671997.0703125,-1210696166.9921875,-1209946655.2734375,-1214807861.328125,-1226204101.5625,-1220469238.28125,-1197927612.3046875,-1198696533.203125,-1225573242.1875,-1214239379.8828125,-1225157714.84375,-1220858398.4375,-1220794067.3828125
0.265,-298060455.3222656,-286074707.03125,-281757202.1484375,-303721313.4765625,-268888336.1816406,-352765411.3769531,-332100769.04296875,-332506408.69140625,3012277.841567993,-306939422.6074219,-278660919.1894531,-278150573.73046875,-278739440.91796875,-236505157.47070312,-352551971.4355469,-324289489.74609375,-277847473.14453125,-288702850.3417969,-318381164.55078125,-297012878.41796875,-297782135.0097656,-272161987.3046875,-266679199.21875,-326476348.8769531,-313231109.6191406,-310953186.03515625,-313972351.07421875,-319680236.81640625,-309420410.15625,-296963592.5292969,-277889282.2265625,-289607269.2871094,-311871490.4785156,-312050598.14453125,-263644531.25,-316019805.9082031,-322531250.0,-310125610.3515625,-307639099.12109375,-293858917.2363281,-294000061.03515625,-311132324.21875,-311755737.3046875,-310372253.41796875,-283407379.1503906,-330777862.5488281,-324579528.80859375,-303233795.1660156,-302808319.0917969,-294241790.7714844,-311295593.26171875,-310775268.5546875,-315269378.6621094,-330822631.8359375,-325935485.83984375,-301192962.6464844,-301956237.79296875,-324305450.4394531,-314572052.0019531,-329711639.4042969,-325410247.8027344,-325555480.95703125
0.27,413255157.4707031,426297119.140625,430851867.67578125,410731872.55859375,443409820.5566406,366486633.30078125,388987731.93359375,388779144.2871094,705862426.7578125,404094238.28125,434208465.5761719,435060028.0761719,434412750.2441406,478774932.8613281,366513916.015625,392716705.3222656,437812835.6933594,426413574.21875,393249450.68359375,415668518.06640625,415495635.9863281,442565460.2050781,449252410.8886719,393110504.1503906,404574127.1972656,403639923.0957031,399831817.6269531,392891204.8339844,405031188.96484375,416872467.0410156,438973419.1894531,428778167.7246094,406840606.6894531,405792999.2675781,450587463.37890625,399022277.83203125,391858367.9199219,404307769.7753906,407035705.56640625,423849517.8222656,424106536.8652344,408275878.90625,407380035.4003906,408765289.3066406,430224639.8925781,388155639.6484375,391002288.8183594,414554870.60546875,414894042.96875,423723052.9785156,407875610.3515625,408198730.46875,405951385.4980469,388057159.4238281,389361633.30078125,416485900.87890625,416046386.71875,398277984.6191406,406682464.5996094,389365264.8925781,390590942.3828125,390697998.046875
0.275,664098510.7421875,677243713.3789062,683597106.9335938,660361877.4414062,691616394.0429688,619089782.7148438,648656494.140625,649958129.8828125,919604553.2226562,653284545.8984375,683827331.5429688,684534423.828125,683601806.640625,725495300.2929688,619331542.96875,642962707.5195312,687893310.546875,677063964.84375,641361022.9492188,664764953.6132812,664930297.8515625,690502990.7226562,697401855.46875,639894836.4257812,654137207.03125,652439331.0546875,647561279.296875,641585327.1484375,653968994.140625,665335266.1132812,688798400.8789062,679962036.1328125,655726684.5703125,655320800.78125,692303649.9023438,649524414.0625,641287414.5507812,653373840.3320312,656554321.2890625,673972961.4257812,674426940.9179688,657430908.203125,656513061.5234375,657799438.4765625,675939819.3359375,641792175.2929688,640645324.7070312,664904968.2617188,665407714.84375,674063903.8085938,656911926.2695312,657052551.2695312,657961425.78125,641711059.5703125,639122741.6992188,666559936.5234375,666363586.4257812,648802856.4453125,658660766.6015625,643131713.8671875,640541320.8007812,641207275.390625
0.28,739344482.421875,748769226.0742188,754201904.296875,730971923.828125,759356933.59375,691952453.6132812,728145935.0585938,731113098.1445312,963016235.3515625,723707824.7070312,752650085.4492188,753411437.9882812,752268127.4414062,789354431.1523438,692181091.3085938,712083251.953125,757489196.7773438,747437255.859375,710523315.4296875,734018981.9335938,734083557.1289062,756330993.6523438,761519958.4960938,706005615.234375,720592041.015625,719768249.5117188,714471130.3710938,710131347.65625,721445495.6054688,732853820.8007812,755062377.9296875,745018615.7226562,719419311.5234375,721472045.8984375,750456176.7578125,717174072.265625,709093383.7890625,720850830.078125,724239440.9179688,738728332.5195312,739103759.765625,721204162.5976562,720115417.4804688,721445251.4648438,743455078.125,710022827.1484375,707622680.6640625,730536193.8476562,731195678.7109375,738915161.1328125,720585937.5,720612976.0742188,722231689.453125,709958618.1640625,706292480.46875,731895324.7070312,731693115.234375,711788757.3242188,722857727.0507812,711293701.171875,707753967.2851562,708604064.9414062
0.285,712203674.3164062,717808532.7148438,720209899.9023438,701719177.2460938,726751159.6679688,665803833.0078125,702952026.3671875,706644348.1445312,931846557.6171875,693559082.03125,720626831.0546875,721714355.46875,720681762.6953125,755836242.6757812,665692016.6015625,682156860.3515625,728545288.0859375,717656188.9648438,680853820.8007812,703523864.7460938,703296020.5078125,723508422.8515625,726928344.7265625,677963562.0117188,688488647.4609375,687895874.0234375,682962219.2382812,679578796.3867188,689430114.7460938,701086364.7460938,721566162.109375,708759521.484375,684599487.3046875,689002136.2304688,712314514.1601562,683557312.0117188,677200988.7695312,688730407.7148438,691848632.8125,703053222.65625,703279907.2265625,686331726.0742188,684979797.3632812,686391235.3515625,715718078.6132812,674990173.3398438,674619323.7304688,695785766.6015625,696445678.7109375,703174865.7226562,685599792.4804688,685723022.4609375,684650634.765625,674884277.34375,673256835.9375,696960083.0078125,696728210.4492188,676248718.2617188,685127685.546875,676118164.0625,674732177.734375,675172668.4570312
0.29,451734130.859375,458017608.6425781,459878479.00390625,443782684.3261719,468001464.84375,410485260.0097656,444663604.7363281,448260589.5996094,682150573.7304688,435764282.2265625,462347778.3203125,463485168.45703125,462715972.9003906,499574035.64453125,410252075.1953125,425545837.40234375,473740295.41015625,460708343.5058594,424793609.6191406,446399047.8515625,446062774.6582031,466436737.0605469,469948059.08203125,424721099.8535156,432301910.4003906,431023956.2988281,426467315.6738281,423330902.0996094,431977111.81640625,443614410.4003906,463992004.39453125,449539123.53515625,428191558.8378906,432728729.2480469,453159698.4863281,424751861.5722656,420138244.62890625,431334197.9980469,434013397.2167969,444892639.16015625,445139404.296875,429570343.0175781,428339202.8808594,429653961.1816406,460788574.21875,415187805.17578125,416910552.9785156,437675720.21484375,438345153.80859375,444869995.1171875,428858795.1660156,429244445.80078125,425692413.3300781,415014312.7441406,415472351.07421875,438876434.3261719,438741790.7714844,420144348.14453125,425986724.8535156,416298187.2558594,416701385.4980469,416639801.0253906
0.295,211606628.41796875,220790527.34375,225332885.7421875,206270370.48339844,231616714.47753906,174072158.81347656,205966033.93554688,209354965.20996094,443039306.640625,199402328.49121094,226039184.5703125,226895202.63671875,226267059.32617188,263419616.69921875,174095397.94921875,189456649.78027344,239012268.06640625,224882247.9248047,189156311.03515625,209901443.4814453,209770706.1767578,230095901.4892578,234580886.8408203,188904495.2392578,198074630.7373047,196212158.203125,191114700.3173828,187747848.5107422,195958724.97558594,207154144.28710938,228145751.953125,213662597.65625,196288452.1484375,198672958.37402344,218208526.61132812,189285690.3076172,184838897.70507812,195551391.6015625,198103607.17773438,210809936.5234375,211270019.53125,197273147.5830078,196546936.03515625,197657745.36132812,221646774.2919922,181156585.69335938,181949279.78515625,203307312.01171875,204096160.88867188,210778594.97070312,196738632.20214844,197260711.66992188,194732772.82714844,180952987.67089844,180674804.6875,204729019.16503906,204602966.30859375,188248733.5205078,194944213.8671875,182293121.33789062,181536178.5888672,181301315.3076172
0.3,412941375.7324219,420409698.4863281,425532501.2207031,406253204.3457031,429253448.4863281,377316650.390625,407331451.4160156,410687377.9296875,633230895.9960938,398208831.7871094,423089508.0566406,423935974.12109375,423358398.4375,454787628.1738281,377423461.9140625,390210479.7363281,438063262.9394531,424611877.44140625,386947235.1074219,406622863.76953125,406779663.0859375,424328430.17578125,427878479.00390625,388617431.640625,399229003.90625,396408172.6074219,389496154.78515625,385173767.08984375,393744445.80078125,403952728.2714844,423722473.14453125,408872497.55859375,399588226.3183594,399951385.4980469,418862152.0996094,389252685.546875,383461303.7109375,393445373.53515625,396151733.3984375,409349029.5410156,409990966.796875,400678100.5859375,400206604.00390625,401258911.1328125,414967590.33203125,384230438.2324219,381876495.3613281,402808990.4785156,403580352.7832031,409534362.79296875,400257537.8417969,400613525.390625,400256896.97265625,384022735.5957031,380883972.16796875,404407287.59765625,403989685.05859375,389806365.9667969,400507659.9121094,385207885.7421875,381746246.3378906,381517333.984375
0.305,787848388.671875,786925537.109375,786789489.7460938,777932250.9765625,791580017.0898438,759305236.8164062,783850280.7617188,787311096.1914062,1000222229.0039062,764321960.4492188,785063903.8085938,786301208.4960938,785887084.9609375,806826049.8046875,759047302.2460938,764566528.3203125,807112976.0742188,793497558.59375,752095092.7734375,769875244.140625,770062988.28125,782558349.609375,782434509.2773438,764813842.7734375,771385009.765625,765788208.0078125,756108215.3320312,750311645.5078125,758876831.0546875,767268798.828125,783486999.5117188,766890014.6484375,770335937.5,772082946.7773438,788638427.734375,757280090.3320312,749840942.3828125,758445129.3945312,760985290.5273438,772060607.9101562,772572509.765625,771879882.8125,771103088.3789062,772272644.0429688,780235107.421875,754047546.3867188,749658874.5117188,767853027.34375,768267639.1601562,772412231.4453125,771392883.3007812,771504028.3203125,769326232.9101562,753805297.8515625,748745300.2929688,769321716.3085938,768508422.8515625,757672851.5625,769574523.9257812,754714904.7851562,749917480.46875,749631713.8671875
0.31,515642028.80859375,505182037.3535156,497586700.4394531,504662017.8222656,505806518.5546875,501490905.76171875,516979919.43359375,520823364.2578125,727749511.71875,483641113.28125,500104095.4589844,501387176.5136719,501237274.1699219,512314025.87890625,500992156.9824219,497190856.93359375,533805297.8515625,516689453.125,471875640.8691406,487280212.40234375,487204772.94921875,495099395.7519531,490943542.48046875,500959442.1386719,500492828.3691406,490723175.0488281,478012603.7597656,471467926.0253906,478434722.9003906,484423675.5371094,497133758.5449219,478890625.0,493784332.2753906,501192565.91796875,512760925.29296875,479585906.9824219,471246673.5839844,477943695.0683594,479639129.6386719,488437652.5878906,488442291.2597656,495242431.640625,494134979.2480469,495380157.4707031,503280578.61328125,475606506.34765625,471700134.27734375,485938354.4921875,485942962.6464844,488529449.4628906,494694274.90234375,494846405.0292969,486490325.9277344,475306854.2480469,470666259.765625,487047180.17578125,486088714.5996094,479561248.7792969,486578094.4824219,476097229.00390625,471734832.7636719,471442718.5058594
0.315,-529627746.58203125,-544761474.609375,-555919738.7695312,-539689514.1601562,-546799133.3007812,-530933776.85546875,-522637573.2421875,-518094848.6328125,-321284088.1347656,-565838562.0117188,-551383056.640625,-550845825.1953125,-550875244.140625,-544983825.6835938,-531001403.80859375,-541733032.2265625,-508514587.40234375,-530842834.47265625,-577009521.484375,-563233764.6484375,-563525085.4492188,-557585266.1132812,-563324768.0664062,-537331481.9335938,-541652893.0664062,-554735717.7734375,-569959228.515625,-575671875.0,-570975891.1132812,-566789550.78125,-555112670.8984375,-573202392.578125,-554647888.1835938,-540876220.703125,-535662231.4453125,-568875793.4570312,-576828125.0,-571216796.875,-570486816.40625,-561283874.5117188,-561879211.4257812,-554166748.046875,-555058105.46875,-553879516.6015625,-545161743.1640625,-573199829.1015625,-576078918.4570312,-564225036.6210938,-564226318.359375,-561793823.2421875,-554588378.90625,-554082458.4960938,-567553344.7265625,-573517944.3359375,-577133789.0625,-563352966.3085938,-564180786.1328125,-567105102.5390625,-567655883.7890625,-572642211.9140625,-576849914.5507812,-576939086.9140625
0.32,-1358123291.015625,-1372756835.9375,-1382902832.03125,-1367979736.328125,-1376111083.984375,-1356506347.65625,-1349718994.140625,-1344695312.5,-1159257446.2890625,-1395629272.4609375,-1380956420.8984375,-1381266113.28125,-1381488159.1796875,-1375872436.5234375,-1355840576.171875,-1369291259.765625,-1336975097.65625,-1362119628.90625,-1407917358.3984375,-1394370117.1875,-1394545288.0859375,-1387691894.53125,-1392276489.2578125,-1366607421.875,-1371400024.4140625,-1385836914.0625,-1402397949.21875,-1406725097.65625,-1402368286.1328125,-1398389648.4375,-1385187133.7890625,-1401834960.9375,-1386119873.046875,-1370664062.5,-1369981689.453125,-1402646118.1640625,-1408894897.4609375,-1402331420.8984375,-1401742675.78125,-1389548461.9140625,-1390379272.4609375,-1386650268.5546875,-1387022705.078125,-1385910766.6015625,-1379336791.9921875,-1403431152.34375,-1406929199.21875,-1393986694.3359375,-1393619506.8359375,-1390407592.7734375,-1386856201.171875,-1386043945.3125,-1399704956.0546875,-1403731689.453125,-1407828125.0,-1393112670.8984375,-1393776855.46875,-1394513427.734375,-1399815673.828125,-1402750732.421875,-1408236816.40625,-1408042480.46875
0.325,-1095447265.625,-1107949340.8203125,-1116566894.53125,-1105753295.8984375,-1110902709.9609375,-1097197753.90625,-1088409545.8984375,-1083763183.59375,-894919616.6992188,-1132526245.1171875,-1117269409.1796875,-1117632324.21875,-1118273925.78125,-1109998291.015625,-1096262695.3125,-1109279785.15625,-1077187866.2109375,-1101509399.4140625,-1146697998.046875,-1132904296.875,-1132816894.53125,-1123438720.703125,-1126021728.515625,-1105290161.1328125,-1112082275.390625,-1126752807.6171875,-1143305175.78125,-1147797485.3515625,-1141115722.65625,-1136378906.25,-1120824462.890625,-1136546997.0703125,-1122940185.546875,-1111562866.2109375,-1109850463.8671875,-1145435302.734375,-1149680053.7109375,-1141176147.4609375,-1139804443.359375,-1124513305.6640625,-1124972167.96875,-1123513305.6640625,-1123728637.6953125,-1122570312.5,-1119631469.7265625,-1140463623.046875,-1145569335.9375,-1129255981.4453125,-1128625854.4921875,-1125037231.4453125,-1123601196.2890625,-1122854003.90625,-1134303222.65625,-1140781982.421875,-1146423095.703125,-1128441650.390625,-1128991333.0078125,-1129135131.8359375,-1134225219.7265625,-1139728393.5546875,-1146619384.765625,-1146209106.4453125
0.33,-102585662.84179688,-113936805.72509766,-122869094.84863281,-111827896.11816406,-114616256.71386719,-104636955.26123047,-94427711.4868164,-90843208.31298828,121327453.61328125,-136923019.4091797,-121956245.42236328,-121709083.5571289,-122710800.17089844,-111251251.22070312,-104034484.86328125,-115058403.01513672,-82913871.76513672,-105901924.13330078,-150892501.8310547,-137909744.2626953,-137812469.48242188,-126341896.0571289,-127802749.63378906,-105888984.68017578,-117043518.06640625,-131355651.85546875,-147148345.94726562,-154141220.09277344,-145144042.96875,-140285476.6845703,-123431015.01464844,-139376831.0546875,-123524269.1040039,-116669288.6352539,-107110153.19824219,-150631011.96289062,-154371597.29003906,-145563507.08007812,-143493118.2861328,-127118377.68554688,-126854286.19384766,-123257980.34667969,-123836273.19335938,-122609031.6772461,-120518310.546875,-143433731.07910156,-148873275.75683594,-130448593.13964844,-129924896.24023438,-126929275.51269531,-123348411.5600586,-122977767.94433594,-134275360.10742188,-143816375.73242188,-149982986.4501953,-129959381.10351562,-130353530.88378906,-132568099.97558594,-133987670.8984375,-142605667.1142578,-149321182.25097656,-148722930.90820312
0.335,613917114.2578125,602105590.8203125,592206237.7929688,606864562.9882812,603657775.8789062,615971496.5820312,626122680.6640625,628870971.6796875,864496704.1015625,582578491.2109375,596569580.078125,597302001.953125,596309204.1015625,609252258.3007812,616090759.2773438,607143371.5820312,640155456.5429688,616007568.359375,571447631.8359375,582314636.2304688,582179626.4648438,593360534.6679688,592004577.6367188,618998840.3320312,605843444.8242188,593070922.8515625,577872863.7695312,567701904.296875,576360412.5976562,580267272.9492188,596384399.4140625,580128479.0039062,598768188.4765625,606321472.1679688,626440002.4414062,574391723.6328125,569098754.8828125,575791259.765625,577588378.90625,592906127.9296875,593651855.46875,599890563.9648438,598842956.5429688,600054687.5,605905212.4023438,578216857.9101562,574213439.9414062,591181457.5195312,591465881.3476562,593470397.9492188,599707092.2851562,599730590.8203125,586465454.1015625,577794250.4882812,572775878.90625,591388305.6640625,591098205.5664062,584270629.8828125,586843872.0703125,579193603.515625,574030334.4726562,574691955.5664062
0.34,689089782.7148438,675488464.3554688,665038818.359375,682536926.2695312,676394470.2148438,693119506.8359375,702929382.3242188,705638793.9453125,940220947.265625,656520263.671875,669487792.96875,670327148.4375,669772216.796875,681597229.0039062,692887573.2421875,684223022.4609375,717810729.9804688,691110351.5625,647926513.671875,656873718.2617188,656715515.1367188,665085144.0429688,663951538.0859375,692250610.3515625,681100769.0429688,670640625.0,655540039.0625,644171325.6835938,650880065.9179688,653967651.3671875,667890441.8945312,652488952.6367188,669572021.484375,681738342.2851562,707415222.1679688,652983398.4375,645988647.4609375,650484130.859375,651389099.1210938,665035644.53125,665660095.2148438,671058776.8554688,669762573.2421875,670927917.4804688,682390502.9296875,653115905.7617188,650311340.3320312,663688354.4921875,663912170.4101562,665352966.3085938,670641418.4570312,670613586.4257812,656515686.0351562,652699584.9609375,648803344.7265625,664064819.3359375,663610595.703125,653539489.7460938,656870971.6796875,654074829.1015625,650030456.5429688,650336853.0273438
0.345,572196899.4140625,556872314.453125,545768981.9335938,564113586.4257812,554206848.1445312,574019775.390625,583065063.4765625,586154113.7695312,794602905.2734375,534335815.4296875,546623657.2265625,547586303.7109375,547531372.0703125,557142211.9140625,573513488.7695312,562532470.703125,594378662.109375,566757263.1835938,525529846.19140625,534384033.203125,534629821.77734375,540064819.3359375,540337707.5195312,565435302.734375,555392211.9140625,545844116.2109375,530691101.07421875,521019226.07421875,527330871.58203125,530587097.16796875,542993774.4140625,529590942.3828125,542033569.3359375,555957153.3203125,578121643.0664062,529195678.7109375,522508483.88671875,527040832.51953125,527527587.890625,540530578.6132812,540699340.8203125,543551269.53125,542182922.3632812,543375488.28125,557446228.0273438,531373107.91015625,527604675.29296875,538548583.984375,538866333.0078125,540414062.5,542816711.4257812,543004272.4609375,530288574.21875,530951965.33203125,526251586.9140625,539387390.1367188,538624206.5429688,531107177.734375,530577514.6484375,532070739.74609375,527289978.02734375,526925476.07421875
0.35,663825561.5234375,648663635.2539062,636838867.1875,655029479.9804688,642793395.9960938,664812194.8242188,671957031.25,675134948.7304688,856850463.8671875,622763427.734375,634777404.7851562,636041687.0117188,636043579.1015625,644474975.5859375,664133178.7109375,650497802.734375,678919738.7695312,652246765.1367188,612377319.3359375,622704711.9140625,623381286.6210938,628090698.2421875,630471252.4414062,653983642.578125,641011474.609375,629962890.625,614743835.4492188,607503540.0390625,615583862.3046875,619111511.2304688,632144409.1796875,620360168.4570312,631781494.140625,641303222.65625,655808593.75,614348815.9179688,609246704.1015625,615076843.2617188,615970336.9140625,629392761.2304688,629367614.7460938,633265258.7890625,631884277.34375,633177490.234375,644546875.0,622888610.8398438,616387390.1367188,627066772.4609375,627421691.8945312,629229919.4335938,632402954.1015625,632837585.4492188,621771301.2695312,622455261.2304688,615108520.5078125,628054687.5,627281250.0,627003173.828125,622019470.2148438,623404785.15625,616254272.4609375,615600036.6210938
0.355,869886169.4335938,856534545.8984375,844857116.6992188,862791931.1523438,850412170.4101562,874230712.890625,879912231.4453125,882737792.96875,1058548828.125,831548522.9492188,843138732.9101562,844547973.6328125,844110534.6679688,851756103.515625,873610473.6328125,860683227.5390625,887507934.5703125,860966857.9101562,821187866.2109375,832396484.375,833033142.0898438,838031921.3867188,841014465.3320312,868390930.1757812,853441345.2148438,840922973.6328125,825126403.8085938,817817504.8828125,826962158.203125,829579772.9492188,843564392.0898438,831107482.9101562,849943298.3398438,853533386.2304688,865397094.7265625,825784851.0742188,820692687.9882812,826188476.5625,827515502.9296875,840405578.6132812,840668151.8554688,851395263.671875,850064514.1601562,851470581.0546875,858283630.3710938,837735107.421875,828735656.7382812,839020690.9179688,839293212.890625,840640014.6484375,850751586.9140625,851266845.703125,841253906.25,837381103.515625,827342712.4023438,839572204.5898438,839203796.3867188,844459899.9023438,841549255.3710938,838426086.4257812,828804382.3242188,828642028.8085938
0.36,958231811.5234375,945800903.3203125,934755493.1640625,953630310.0585938,941310485.8398438,964806701.6601562,972042907.7148438,974510437.0117188,1160648803.7109375,924945678.7109375,935019470.2148438,936213623.046875,935341186.5234375,939677551.2695312,964366699.21875,956197631.8359375,984998291.015625,956544006.3476562,916472229.0039062,926263183.59375,926456848.1445312,929212341.3085938,929673400.8789062,963386169.4335938,953384338.3789062,942725952.1484375,925609375.0,915283447.265625,922453369.140625,923251586.9140625,934997192.3828125,919296203.6132812,950790832.5195312,953486755.3710938,970394958.4960938,926490844.7265625,919017883.3007812,921739013.671875,922716003.4179688,932161315.9179688,932815612.7929688,952223754.8828125,951020202.6367188,952491760.2539062,960051452.6367188,935162963.8671875,925327270.5078125,932791381.8359375,932987121.5820312,932822387.6953125,951906738.28125,952321594.2382812,944234802.2460938,934995849.609375,923862548.828125,932706726.0742188,932709533.6914062,937369323.7304688,944663940.4296875,936145263.671875,925500488.28125,926013427.734375
0.365,875544677.734375,861955871.5820312,850544189.453125,872640502.9296875,858621948.2421875,878651611.328125,889898681.640625,892365295.4101562,1084483886.71875,844834106.4453125,852472106.9335938,853308593.75,852414733.8867188,850629821.7773438,878259399.4140625,875199035.6445312,906979675.2929688,876702819.8242188,837731384.2773438,844700988.7695312,844525329.5898438,841961730.9570312,838334899.9023438,875032531.7382812,873734191.8945312,868174133.3007812,849887207.03125,836891906.7382812,840447143.5546875,840029235.8398438,846297729.4921875,827071044.921875,866631591.796875,873958251.953125,896994262.6953125,849733459.4726562,840273803.7109375,840068603.515625,840144775.390625,844251220.703125,844963928.2226562,868042175.2929688,867022399.9023438,868422058.1054688,885689086.9140625,852441284.1796875,843466674.8046875,846566955.5664062,846824707.03125,845026306.1523438,867828308.1054688,868073242.1875,862966247.5585938,852416259.765625,842164733.8867188,846164855.9570312,846130126.953125,845759704.5898438,863497619.6289062,853429016.1132812,843670776.3671875,844220275.8789062
0.37,646545654.296875,631774475.0976562,619207397.4609375,644974609.375,628984069.8242188,644651428.2226562,658530944.8242188,661255676.2695312,845891967.7734375,616578857.421875,622883178.7109375,623426696.7773438,622741394.0429688,616425720.2148438,644203735.3515625,642508239.7460938,675001464.84375,645052856.4453125,609168762.2070312,614652099.609375,614400390.625,607830139.1601562,602180847.1679688,635374877.9296875,637796447.7539062,637163574.21875,618956542.96875,606653869.6289062,608366149.9023438,608180603.0273438,610554016.1132812,590269775.390625,625977905.2734375,638137878.4179688,661726440.4296875,617508361.8164062,609134338.3789062,608266906.7382812,607794860.8398438,608357299.8046875,608821960.4492188,627241394.0429688,626456481.9335938,627600219.7265625,658202026.3671875,617519226.0742188,610404846.1914062,610635009.765625,611094238.28125,608963134.765625,626927307.1289062,627036560.0585938,623232971.1914062,617478759.765625,609357055.6640625,610310852.0507812,610044555.6640625,604381774.9023438,623708007.8125,618307861.328125,610503234.8632812,610574157.7148438
0.375,329572601.3183594,315458831.7871094,302828216.5527344,329022186.2792969,313857788.0859375,327166351.3183594,340307922.36328125,343224517.8222656,517957702.63671875,300933319.0917969,308768402.0996094,309065002.44140625,308417022.7050781,303261962.890625,326798339.84375,322803649.90234375,354287414.55078125,325533020.01953125,292958404.5410156,299786773.6816406,299562927.24609375,294357299.8046875,290198394.7753906,314550262.4511719,314096069.3359375,315832366.9433594,298651641.8457031,288931793.2128906,292010620.1171875,292965728.7597656,296991394.04296875,278002685.546875,301576873.7792969,314526184.08203125,334971435.546875,296850280.76171875,291350006.1035156,291985229.4921875,291780181.8847656,292859313.96484375,293090850.8300781,302558868.4082031,301972473.14453125,302858154.296875,340287292.48046875,298355957.03125,293147430.4199219,293639190.6738281,294277770.99609375,293229522.7050781,302191375.7324219,302233337.40234375,296427734.375,298247344.9707031,292188140.8691406,293515655.5175781,293179168.7011719,283871765.13671875,296721710.2050781,299146636.9628906,292968322.75390625,292826721.19140625
0.38,137639511.10839844,124869796.75292969,113659172.05810547,136585876.46484375,124748580.93261719,136840499.8779297,148854385.37597656,151743759.15527344,326399719.23828125,109396621.70410156,120526618.95751953,120709007.2631836,119952697.75390625,120190422.05810547,136658157.3486328,130709335.32714844,162586471.5576172,133270996.09375,101805648.80371094,111367027.28271484,111131050.10986328,110969802.85644531,109529769.89746094,123307373.046875,121135383.60595703,123793403.62548828,107078399.65820312,97691642.76123047,103571067.8100586,105652030.94482422,114669387.81738281,96606353.75976562,111187049.86572266,121585243.22509766,141966751.0986328,105570304.87060547,101099090.57617188,103508110.04638672,104058914.18457031,107834960.9375,107983695.98388672,112047721.86279297,111397926.3305664,112342933.65478516,145956970.21484375,109283042.90771484,104861442.56591797,107510177.61230469,108091606.14013672,108033767.70019531,111708595.2758789,111742736.81640625,103383659.36279297,109207038.87939453,103833793.64013672,107534797.66845703,107165115.35644531,95765777.58789062,103539215.08789062,110284599.30419922,104492996.21582031,104575042.72460938
0.385,293537963.8671875,281675079.3457031,271692779.5410156,291240264.8925781,281615356.4453125,289849822.9980469,304256561.2792969,306996093.75,487410766.6015625,262945159.91210938,276098907.4707031,276555480.95703125,275903717.0410156,280952423.0957031,289665405.2734375,285452850.3417969,319906433.10546875,288358978.2714844,255767349.24316406,266877685.546875,266724731.4453125,270082336.42578125,270213989.2578125,275083648.6816406,277669281.0058594,281833465.5761719,264333160.40039062,252081619.2626953,259598327.63671875,262316223.14453125,274336944.5800781,255614471.43554688,270463653.5644531,278005065.91796875,303068542.48046875,262761810.30273438,256352813.72070312,259448944.09179688,260717102.05078125,266123870.84960938,266240997.31445312,271605712.890625,270555480.95703125,271910156.25,297216430.6640625,267108215.33203125,261639923.09570312,266237762.45117188,266497344.97070312,266230163.57421875,271194000.2441406,271249145.5078125,263635467.52929688,267106811.5234375,260612915.0390625,266416595.45898438,265723632.8125,253809371.9482422,263785186.76757812,268084899.90234375,261484924.31640625,261588958.74023438
0.39,681871826.171875,672445312.5,662796508.7890625,680944519.0429688,671002990.7226562,672124206.5429688,691170898.4375,693781066.8945312,874603637.6953125,649788635.2539062,662450561.5234375,663525756.8359375,663266906.7382812,670505798.3398438,671680541.9921875,671802490.234375,708145690.9179688,675167846.6796875,641975891.1132812,652706298.828125,652818420.4101562,656130737.3046875,657394348.1445312,657235839.84375,665748657.2265625,671446960.4492188,652895324.7070312,638195373.5351562,645434448.2421875,648281982.421875,659896118.1640625,641193542.4804688,659893737.7929688,665894714.3554688,695018615.7226562,650924316.40625,642229614.2578125,645127929.6875,646851501.4648438,652561889.6484375,652658813.4765625,661468322.7539062,660002319.3359375,661715576.171875,682276123.046875,655232360.8398438,647730041.5039062,653496948.2421875,653427978.515625,652647521.9726562,660864868.1640625,660929382.3242188,656602478.0273438,655167541.5039062,646826660.15625,653911743.1640625,652752990.7226562,641939758.3007812,656810913.0859375,655803039.5507812,648049316.40625,647630371.09375
0.395,907406127.9296875,903438354.4921875,894544250.4882812,911109130.859375,901232727.0507812,897396545.4101562,917523437.5,920066101.0742188,1095794921.875,879151489.2578125,890763244.6289062,892323791.5039062,892414489.7460938,901063903.8085938,896677185.0585938,899363037.109375,934155639.6484375,901450927.734375,870528320.3125,880496643.0664062,880854553.2226562,883383972.1679688,886966674.8046875,886849609.375,894221374.5117188,899046203.6132812,880209899.9023438,866369201.6601562,872714843.75,875535400.390625,886690063.4765625,870966979.9804688,888655517.578125,894297485.3515625,922290588.3789062,878282470.703125,869429382.3242188,872261291.5039062,874204528.8085938,881314208.984375,881450988.7695312,890350891.1132812,888828247.0703125,890497375.4882812,910163635.2539062,882944091.796875,874451171.875,881578918.4570312,881454040.5273438,881428649.9023438,889626159.6679688,889695007.3242188,886279174.8046875,882676147.4609375,873581909.1796875,882258239.7460938,880987915.0390625,872037963.8671875,886531005.859375,883173950.1953125,875000976.5625,874008361.8164062
0.4,799986816.40625,800903259.2773438,793674621.5820312,806702941.8945312,799637756.3476562,798373779.296875,813157592.7734375,815674438.4765625,989417480.46875,777587585.4492188,789984252.9296875,791565124.5117188,791729980.46875,802514038.0859375,797477844.2382812,798386108.3984375,828862731.9335938,796216735.8398438,769386840.8203125,779853210.4492188,780236267.0898438,784196289.0625,790347229.0039062,794765502.9296875,794557495.1171875,795647583.0078125,776698425.2929688,765120300.2929688,771408081.0546875,774657287.5976562,787788330.078125,776577087.4023438,788911376.953125,794791381.8359375,818459594.7265625,775363769.53125,767508789.0625,770971801.7578125,773015625.0,783478942.8710938,783641723.6328125,790394714.3554688,789083496.09375,790471862.7929688,807666076.6601562,779800170.8984375,772300964.3554688,781677795.4101562,781729919.4335938,783608886.71875,789675903.3203125,789813964.84375,782216735.8398438,779387207.03125,771257751.4648438,782552246.09375,781601989.7460938,774609497.0703125,782513488.7695312,780110351.5625,772635253.90625,771535400.390625
0.405,619543273.9257812,619746459.9609375,613657653.8085938,623448547.3632812,619829833.984375,626096862.7929688,633549743.6523438,636071594.2382812,811335021.9726562,597278259.2773438,612224731.4453125,613589050.2929688,613684814.453125,626673400.8789062,625012268.0664062,622377929.6875,648626708.984375,614423645.0195312,590323852.5390625,602559753.4179688,602861572.265625,610028991.6992188,616942199.7070312,626515869.140625,620612915.0390625,617906799.3164062,597764282.2265625,586325744.6289062,593480041.5039062,597798522.9492188,614024108.8867188,605571105.9570312,615249206.5429688,621096069.3359375,642229797.3632812,597197998.046875,588886535.6445312,593194824.21875,595461791.9921875,609134155.2734375,609180297.8515625,616582519.53125,615348022.4609375,616627380.3710938,628130310.0585938,599794006.3476562,593747924.8046875,605689880.3710938,605886962.890625,609228881.8359375,615849548.3398438,616145263.671875,602366394.0429688,599404235.8398438,592529479.9804688,606676818.8476562,606004455.5664062,601432189.9414062,602723876.953125,600334960.9375,593775329.5898438,592844665.5273438
0.41,643460571.2890625,638404357.9101562,632178039.5507812,641843200.6835938,638906494.140625,649254394.53125,653962890.625,656500366.2109375,828592224.1210938,615043151.8554688,632326171.875,633623474.1210938,633691589.3554688,648508117.6757812,648016601.5625,644863220.2148438,668776855.46875,632873046.875,608601440.4296875,622638183.59375,622969360.3515625,633125976.5625,639775512.6953125,649870422.3632812,644690124.5117188,640927612.3046875,618770141.6015625,605338439.9414062,613335815.4296875,618502929.6875,637079956.0546875,629116699.21875,640699768.0664062,645272644.0429688,667189392.0898438,619270812.9882812,608705993.6523438,613107666.015625,615924255.3710938,631132080.078125,631010131.8359375,642105346.6796875,640724365.234375,642103759.765625,649384704.5898438,619747070.3125,613437988.28125,627328857.421875,627532958.984375,631182861.328125,641301452.6367188,641715759.2773438,624784851.0742188,619438598.6328125,612283203.125,628414978.0273438,627658691.40625,625783569.3359375,625140075.6835938,620241333.0078125,613463806.1523438,612528869.6289062
0.415,785340454.1015625,776720703.125,770417480.46875,782067016.6015625,777179504.3945312,784971008.3007812,791953918.4570312,794458984.375,957922119.140625,752279418.9453125,770247192.3828125,771640869.140625,771693664.5507812,788477722.1679688,783864196.7773438,783933837.890625,806798889.1601562,771035949.7070312,745205749.5117188,759936767.578125,760348327.6367188,772450866.6992188,780619201.6601562,785865539.5507812,783740234.375,781059265.1367188,757702453.6132812,742962646.484375,751155334.4726562,755929809.5703125,776493591.3085938,769161865.234375,781608764.6484375,784183959.9609375,807378967.2851562,759564086.9140625,747183837.890625,750781494.140625,754283142.0898438,770776733.3984375,770665344.2382812,783044982.9101562,781607788.0859375,782958496.09375,791260437.0117188,759843139.6484375,751678955.078125,766889221.1914062,767093688.9648438,770814819.3359375,782262512.2070312,782602600.0976562,766474243.1640625,759541503.90625,750738159.1796875,768121459.9609375,767144042.96875,766399169.921875,766704589.84375,760093139.6484375,751962768.5546875,750849365.234375
0.42,798588317.8710938,790869567.8710938,785279235.8398438,798449645.9960938,791609252.9296875,796885437.0117188,805292663.5742188,807685668.9453125,966974975.5859375,766786804.1992188,783901794.4335938,785341430.6640625,785320983.8867188,803266174.3164062,796162048.3398438,798442382.8125,819810791.015625,785364501.953125,758784118.6523438,772799926.7578125,773101440.4296875,786021179.1992188,797471679.6875,798663635.2539062,796305419.921875,794016906.7382812,770941345.2148438,756575195.3125,764512817.3828125,768047424.3164062,790737548.828125,785288513.1835938,794053588.8671875,796512390.1367188,818480529.7851562,773270202.6367188,760982482.9101562,763963256.8359375,767748168.9453125,786879089.3554688,786940917.96875,795320800.78125,794050598.1445312,795125061.0351562,807370300.2929688,774928161.6210938,765724548.3398438,782286437.9882812,782568420.4101562,786877014.1601562,794658447.265625,794792297.3632812,779918212.890625,774592224.1210938,764863769.53125,783697937.0117188,782662780.7617188,780078491.2109375,780000854.4921875,775128967.2851562,766202453.6132812,765033020.0195312
0.425,675431274.4140625,669347778.3203125,663816162.109375,678068237.3046875,670150695.8007812,680268310.546875,685178466.796875,687437377.9296875,850651733.3984375,646011474.609375,661674072.265625,663100952.1484375,663015686.0351562,678881469.7265625,679769165.0390625,679100280.7617188,697676208.4960938,663480346.6796875,637238037.109375,649729370.1171875,649739624.0234375,661826843.2617188,674719909.6679688,679354614.2578125,673398986.8164062,669728454.5898438,647103515.625,633021667.4804688,640604553.2226562,643563110.3515625,666992492.6757812,662747802.734375,667440307.6171875,673486999.5117188,691711486.8164062,648087890.625,636611389.1601562,640056518.5546875,643482238.7695312,665008056.640625,665132690.4296875,668572692.8710938,667396240.234375,668276916.5039062,682771667.4804688,650082275.390625,641972229.0039062,659808166.5039062,660164978.0273438,664863464.3554688,667897766.1132812,667950317.3828125,652154846.1914062,649779235.8398438,640997985.8398438,661344482.421875,660351257.3242188,654455017.0898438,652231811.5234375,650491455.078125,642411621.09375,641362304.6875
0.43,615112426.7578125,607677246.09375,600614074.7070312,617071350.0976562,607644653.3203125,627899963.3789062,627073852.5390625,629258605.9570312,793865478.515625,583889953.6132812,598386108.3984375,599891296.3867188,599804321.2890625,610426452.6367188,627253601.0742188,620408203.125,635740905.7617188,600320007.3242188,574318664.5507812,585673767.0898438,585532348.6328125,595193847.65625,605735412.5976562,620497131.3476562,610928344.7265625,605837768.5546875,582489196.7773438,567651000.9765625,574819152.8320312,578320434.5703125,599879455.5664062,594437072.7539062,600075805.6640625,611118896.484375,625472290.0390625,581872863.7695312,570162963.8671875,574412475.5859375,577296203.6132812,598089233.3984375,598068725.5859375,601315551.7578125,599929199.21875,600991882.3242188,614694824.21875,582471740.7226562,575630798.3398438,593429504.3945312,593820556.640625,597757751.4648438,600409057.6171875,600638854.9804688,583431030.2734375,582274780.2734375,574567565.9179688,594950439.453125,593938171.3867188,586437011.71875,583642761.2304688,583029907.2265625,575880920.4101562,574946838.3789062
0.435,691690307.6171875,681221435.546875,672599243.1640625,691904541.015625,680250671.3867188,707938781.7382812,704004150.390625,706169128.4179688,861052368.1640625,656515625.0,670661010.7421875,672296203.6132812,672186340.3320312,678382324.21875,707057739.2578125,696007751.4648438,709106323.2421875,672735473.6328125,646279968.2617188,657925598.1445312,657960266.1132812,665401489.2578125,672689514.1601562,696641967.7734375,684938964.84375,679869201.6601562,655141845.703125,639913269.0429688,646791442.8710938,650599731.4453125,669685791.015625,662017822.265625,672764343.2617188,685376708.984375,697956481.9335938,655304382.3242188,642518920.8984375,646461608.8867188,649293029.7851562,666739868.1640625,666591979.9804688,674198852.5390625,672509704.5898438,673960998.5351562,685642517.0898438,655790344.2382812,647472839.3554688,663369750.9765625,663837158.203125,666332885.7421875,673100952.1484375,673580139.1601562,657596130.3710938,655684692.3828125,646486816.40625,664751770.0195312,663765075.6835938,657847045.8984375,657891845.703125,656245239.2578125,647545166.015625,646659118.6523438
0.44,775194641.1132812,762958740.234375,754411132.8125,775047790.5273438,762122375.4882812,791375488.28125,787399719.2382812,789529479.9804688,930909362.7929688,738337219.2382812,753015930.1757812,754625976.5625,754423217.7734375,760404541.015625,790455688.4765625,778799926.7578125,790920166.015625,754855468.75,727768066.40625,741179138.1835938,741491088.8671875,748942993.1640625,755926818.8476562,782052917.4804688,769262329.1015625,764510009.765625,739136901.8554688,724827331.5429688,732168151.8554688,734984008.7890625,754249084.4726562,745947021.484375,760900329.5898438,769905456.5429688,782866149.9023438,742408325.1953125,729144470.2148438,731750183.1054688,735127624.5117188,750549499.5117188,750451599.1210938,762407165.5273438,760604309.0820312,762285034.1796875,772758911.1328125,746525695.8007812,734152832.03125,747889526.3671875,748468383.7890625,750234863.28125,761377258.3007812,761897338.8671875,749322509.765625,746445129.3945312,733289550.78125,749129699.7070312,748367370.6054688,745876464.84375,749509521.484375,746765686.0351562,734185607.9101562,733348571.7773438
0.445,756444335.9375,743899719.2382812,736233520.5078125,756044372.5585938,743956604.0039062,772241088.8671875,768175170.8984375,770238830.5664062,907510253.90625,719621398.9257812,735385314.9414062,736783874.5117188,736530334.4726562,745184448.2421875,771349365.234375,759901550.2929688,771273742.6757812,735755004.8828125,708339904.7851562,724016296.3867188,724354248.046875,733880676.2695312,743089294.4335938,765290100.0976562,752624389.6484375,746767333.984375,721634033.203125,708170166.015625,716950866.6992188,718617370.6054688,740772949.21875,733631103.515625,749268676.7578125,753284362.7929688,767005737.3046875,727261291.5039062,714431762.6953125,716376037.5976562,720379455.5664062,737097290.0390625,737085144.0429688,750792663.5742188,748986755.3710938,750660156.25,762146118.1640625,735893554.6875,720549987.7929688,734044372.5585938,734622253.4179688,736931274.4140625,749926696.7773438,750250244.140625,739150024.4140625,735804016.1132812,719699768.0664062,735244323.7304688,734750366.2109375,735178222.65625,739130493.1640625,736032531.7382812,720709228.515625,719920227.0507812
0.45,678061950.6835938,665909057.6171875,658440490.7226562,676426147.4609375,666524169.921875,693284912.109375,688063659.6679688,690094604.4921875,834486511.2304688,640581298.828125,657521728.515625,658721923.828125,658533752.4414062,668790222.1679688,692317687.9882812,680133911.1328125,690724060.0585938,655187072.7539062,627606506.3476562,644887084.9609375,644958862.3046875,656329528.8085938,666605712.890625,684028869.6289062,672801757.8125,665253723.1445312,640259948.7304688,626320495.6054688,636533630.3710938,638751281.7382812,663057189.9414062,656569824.21875,670775329.5898438,673290466.3085938,686901123.046875,645527404.7851562,633117675.78125,635901245.1171875,640071350.0976562,658499633.7890625,658486022.9492188,672371520.9960938,670472778.3203125,672101867.6757812,687114135.7421875,653970825.1953125,639756103.515625,654630187.9882812,655070068.359375,658419189.453125,671506286.6210938,671617919.921875,657440795.8984375,653899719.2382812,638838317.8710938,655865478.515625,655411193.8476562,656732177.734375,657335510.2539062,654240783.6914062,640078430.1757812,639311767.578125
0.455,631516418.4570312,621364562.9882812,613969055.1757812,629922424.3164062,622200866.6992188,644833190.9179688,639474853.515625,641534851.0742188,794608459.4726562,594538757.3242188,612279724.1210938,613428283.6914062,613302551.2695312,622248657.2265625,643860900.8789062,631832092.2851562,642862915.0390625,607805358.8867188,580176696.7773438,597868591.3085938,597666442.8710938,608561950.6835938,616998718.2617188,632943359.375,622623657.2265625,615249328.6132812,589966430.6640625,575603820.8007812,585860961.9140625,590059692.3828125,613141052.2460938,605243286.1328125,618103759.765625,622880676.2695312,636141723.6328125,594008544.921875,581649658.203125,585356689.453125,589165344.2382812,605842895.5078125,605893615.7226562,619687744.140625,617719970.703125,619364624.0234375,637916687.0117188,596813842.7734375,586459655.7617188,601599060.0585938,601945129.3945312,605799560.546875,618731933.59375,618783020.0195312,599429077.1484375,596822204.5898438,585505798.3398438,602826171.875,602207336.4257812,602237182.6171875,599439880.3710938,597438659.6679688,586808471.6796875,586097229.0039062
0.46,635460021.9726562,629164916.9921875,622859008.7890625,636747863.7695312,630638977.0507812,646686218.2617188,642835876.4648438,644927001.953125,800162170.4101562,602973693.8476562,620776672.3632812,621943420.4101562,621761413.5742188,628015747.0703125,645943908.6914062,636407775.8789062,649650146.484375,616645690.9179688,589494201.6601562,606688842.7734375,606456054.6875,614687561.0351562,620487731.9335938,638676330.5664062,626810302.734375,621765197.7539062,596451904.296875,583716857.9101562,592530273.4375,597920166.015625,617809875.4882812,607575439.453125,619901794.4335938,626923400.8789062,640596130.3710938,601311767.578125,589178955.078125,592269775.390625,595543151.8554688,607701965.3320312,608003906.25,621235168.4570312,619489624.0234375,621092712.4023438,639196838.3789062,598830566.40625,590862182.6171875,603766662.5976562,604148315.4296875,607723449.7070312,620353393.5546875,620442932.1289062,598431091.3085938,598949401.8554688,589906066.8945312,604883422.8515625,604147521.9726562,601577270.5078125,598628967.2851562,599828063.9648438,591103149.4140625,590477294.921875
0.465,660353881.8359375,657108947.7539062,651942626.953125,664395568.8476562,659391906.7382812,671266235.3515625,667982360.8398438,670045654.296875,820584594.7265625,633383300.78125,650685546.875,651846252.4414062,651571472.1679688,656225891.1132812,670714172.3632812,663781921.3867188,679028991.6992188,648523498.5351562,622461608.8867188,639059509.2773438,639027404.7851562,644636230.46875,649715515.1367188,670836975.0976562,656420532.2265625,653227600.0976562,628406738.28125,618600585.9375,625878906.25,630571228.0273438,648923828.125,637530212.4023438,649652404.7851562,656556030.2734375,670710937.5,636095886.2304688,624261108.3984375,625784790.0390625,628780883.7890625,638135009.765625,638642333.984375,650686584.4726562,649390625.0,650821350.0976562,664282714.84375,633580261.2304688,624459716.796875,634860351.5625,635236328.125,638259521.484375,650031860.3515625,650137634.2773438,629372802.734375,633747009.2773438,623458740.234375,635845031.7382812,635118896.484375,629858520.5078125,629667907.7148438,634605651.8554688,624623901.3671875,623963439.9414062
0.47,670703552.2460938,667590881.3476562,661807189.9414062,674022338.8671875,669944702.1484375,682596008.3007812,677282592.7734375,679286132.8125,824297607.421875,644702453.6132812,661766845.703125,662909484.8632812,662622497.5585938,667840515.1367188,681888183.59375,674695129.3945312,689689758.3007812,660033508.3007812,634932495.1171875,651430297.8515625,651653076.171875,656856262.2070312,663012512.2070312,684092590.3320312,669355529.7851562,665697998.046875,641335571.2890625,632988891.6015625,639786254.8828125,643247497.5585938,663128417.96875,651969665.5273438,663513366.6992188,669668151.8554688,683139709.4726562,651088989.2578125,638735595.703125,639631469.7265625,642718688.9648438,653208374.0234375,653587707.5195312,664508544.921875,663524047.8515625,664778564.453125,674465454.1015625,651331848.1445312,639949157.7148438,650407104.4921875,650619140.625,653435974.1210938,663969604.4921875,664058837.890625,645686157.2265625,651413574.21875,638848083.4960938,651357910.15625,650627929.6875,643247192.3828125,645973876.953125,651947875.9765625,640100646.9726562,639278137.2070312
0.475,621521240.234375,617959960.9375,610375671.3867188,622780700.6835938,619929870.6054688,633887390.1367188,626326538.0859375,628302490.234375,775206481.9335938,592963928.2226562,610565124.5117188,611665344.2382812,611384887.6953125,618244995.1171875,632953308.1054688,623257019.0429688,637050292.96875,606521118.1640625,581518432.6171875,598205505.3710938,598591735.8398438,605302673.3398438,611907958.984375,629643554.6875,617045166.015625,612268249.5117188,588273986.8164062,578987060.546875,585987976.0742188,589217346.1914062,611280334.4726562,599897766.1132812,610415588.3789062,617600036.6210938,630050231.9335938,597444274.9023438,584006835.9375,585629943.8476562,588823791.5039062,601445617.6757812,601502258.3007812,611583679.1992188,610596374.5117188,611836181.640625,622710083.0078125,597526611.328125,586349304.1992188,598645690.9179688,598711730.9570312,601787475.5859375,610962829.5898438,611058776.8554688,593648437.5,597458496.09375,585162536.6210938,599646301.2695312,598860534.6679688,589809997.5585938,593913391.1132812,597763671.875,586377258.3007812,585587097.1679688
0.48,502644683.8378906,501503021.2402344,493346984.86328125,505181060.7910156,503852294.921875,514770690.91796875,507877563.4765625,509854736.328125,668288940.4296875,474682403.5644531,492876708.984375,493827606.2011719,493475891.11328125,500631469.7265625,514058776.85546875,502920562.7441406,517621704.1015625,486546905.5175781,461008728.02734375,477538757.32421875,477966339.1113281,485488647.4609375,490490356.4453125,505161743.1640625,494211395.2636719,490347747.8027344,467355133.0566406,456713195.80078125,463597045.8984375,467135681.15234375,489017822.265625,475779113.76953125,485747344.9707031,494937774.6582031,508152893.06640625,474417419.43359375,460915985.1074219,463147277.83203125,466047363.28125,478027770.99609375,477980041.50390625,486964050.29296875,485830505.37109375,487218383.7890625,502098449.70703125,471087951.66015625,462444488.5253906,475081481.93359375,475204467.7734375,478530364.9902344,486266967.7734375,486380584.7167969,469325164.7949219,470972961.42578125,461240753.1738281,476053863.5253906,475303100.5859375,464848022.4609375,469583892.8222656,471496582.03125,462187011.71875,461851776.1230469
0.485,396415039.0625,399472259.5214844,392494995.1171875,403299743.65234375,402958709.7167969,408497497.55859375,404492065.4296875,406450317.3828125,576419616.6992188,374067504.8828125,391832244.8730469,392568878.1738281,392154357.91015625,397044097.9003906,408362579.3457031,398523773.1933594,416168945.3125,386062591.5527344,360149597.16796875,376195343.0175781,376587646.484375,382689270.01953125,385432556.15234375,400237731.93359375,389061920.1660156,387761749.2675781,366258117.67578125,355501373.2910156,361939239.5019531,365081848.14453125,384795928.9550781,369430816.6503906,380461791.9921875,389781738.28125,405634216.30859375,372231231.6894531,359878967.28515625,361619079.58984375,363955139.16015625,373261199.9511719,373424804.6875,381481445.3125,380244842.5292969,381796936.03515625,399000976.5625,367503295.8984375,359959930.4199219,370621307.3730469,370880401.6113281,373908386.23046875,380853881.8359375,380933105.46875,365724212.6464844,367503845.21484375,358793426.5136719,371390533.4472656,370796936.03515625,359468750.0,365942443.84765625,368460540.7714844,359502899.1699219,359705383.30078125
0.49,403317016.6015625,408119079.58984375,401967956.54296875,412451354.98046875,412185729.98046875,415070526.1230469,412722747.8027344,414648773.1933594,583408264.1601562,385601013.18359375,402182098.3886719,402867584.2285156,402526458.7402344,404438934.3261719,415204925.5371094,408045288.0859375,427050872.8027344,398344421.38671875,372636383.0566406,388687164.3066406,389025299.0722656,393201507.5683594,395410339.35546875,411902038.57421875,400726989.74609375,400556610.1074219,379552764.8925781,369048492.4316406,375657867.4316406,377870269.7753906,396480163.57421875,380725616.4550781,394483856.2011719,401278137.20703125,419169128.41796875,386654998.7792969,374491729.7363281,375512420.6542969,377627716.0644531,385990081.7871094,386330566.40625,395280944.82421875,393994598.3886719,395581268.3105469,413040740.9667969,385176116.9433594,375090789.7949219,384211395.2636719,384457916.2597656,386611968.9941406,394755920.41015625,394752410.8886719,382453430.17578125,385301940.91796875,373970092.7734375,384718109.1308594,384211456.2988281,372690765.3808594,382585266.11328125,386365875.2441406,374725463.8671875,374953826.9042969
0.495,498417877.1972656,501424102.7832031,494279754.6386719,505220794.6777344,505220092.7734375,508419769.2871094,504919067.3828125,506857452.3925781,663324401.8554688,479701385.4980469,495756072.9980469,496684722.9003906,496475036.62109375,497388000.48828125,508231964.1113281,502832000.7324219,519622741.69921875,491542999.2675781,466590026.85546875,483427215.5761719,483737701.4160156,487798004.1503906,491319061.2792969,508055114.74609375,498522491.4550781,496489715.5761719,474504272.4609375,463401245.1171875,471176757.8125,473030822.75390625,492644317.6269531,477829132.0800781,494887512.20703125,498886871.3378906,516513122.55859375,483808837.890625,469791778.5644531,471057495.1171875,473539123.53515625,483522705.078125,483717529.296875,495622253.41796875,494348175.0488281,495796752.9296875,513794372.55859375,486380187.98828125,472781799.31640625,482627288.8183594,482753448.4863281,483904052.734375,495111694.3359375,495047332.7636719,483953033.4472656,486458679.19921875,471688110.3515625,483004730.2246094,482397552.4902344,470806182.8613281,484028625.48828125,487224792.48046875,472629364.0136719,472291534.4238281
0.5,550834899.9023438,551601989.7460938,542898803.7109375,554154785.15625,555615905.7617188,558839233.3984375,552882568.359375,554877746.5820312,702856506.3476562,528546386.71875,545316650.390625,546576049.8046875,546403930.6640625,548055236.8164062,558223632.8125,552289855.9570312,565657836.9140625,538047729.4921875,514366027.83203125,531891723.6328125,532241943.359375,537312438.9648438,541695495.6054688,557970397.9492188,549319885.2539062,544291931.1523438,521723510.7421875,510238983.1542969,519300903.3203125,521424072.265625,541690429.6875,526945739.74609375,546245788.5742188,549626403.8085938,565461181.640625,532152221.6796875,516856567.3828125,519126403.80859375,522048034.66796875,532956359.86328125,532842651.3671875,547015380.859375,545891296.3867188,547102600.0976562,565275634.765625,535312438.96484375,521408325.1953125,532453369.140625,532560668.9453125,533068847.65625,546495178.2226562,546414184.5703125,533372253.41796875,535199279.78515625,520330444.3359375,532873352.05078125,532151916.50390625,519857177.734375,533466735.83984375,535729431.15234375,521302001.953125,520364685.05859375
0.505,497465026.85546875,497882995.60546875,489046508.7890625,500315551.7578125,503304992.67578125,506268890.3808594,498379241.9433594,500394531.25,651612243.6523438,474265869.140625,492048797.6074219,493387329.1015625,493223693.84765625,495099304.19921875,505645294.1894531,497011444.0917969,508952026.3671875,482541473.3886719,460482025.1464844,477810333.2519531,478287933.3496094,483277557.3730469,486810211.1816406,504110290.52734375,493058349.609375,486582427.9785156,465669128.41796875,455668670.6542969,465095977.7832031,467227325.4394531,486080413.8183594,470189575.1953125,488650024.4140625,493457916.2597656,507431335.44921875,474968200.68359375,461926452.63671875,464954406.73828125,467865814.2089844,477063873.2910156,476827728.2714844,489452239.9902344,488541595.4589844,489562683.10546875,505369232.1777344,476441040.0390625,465688537.59765625,476345672.6074219,476545928.9550781,477124359.1308594,488969024.6582031,488874572.75390625,472510162.3535156,476183654.78515625,464617584.2285156,476860717.7734375,476238128.6621094,462347106.93359375,472628448.4863281,476839141.8457031,465477539.0625,464418640.13671875
0.51,411835449.21875,412740264.8925781,405398712.1582031,416844665.52734375,419633575.4394531,424415344.23828125,415620483.3984375,417571166.9921875,575722412.109375,390382812.5,408589538.57421875,409695098.8769531,409689758.30078125,411496765.13671875,424073364.2578125,412633880.6152344,425386383.0566406,399859924.31640625,379130584.7167969,395901794.43359375,396531768.7988281,400779479.98046875,403609283.4472656,421461547.8515625,406688140.8691406,400954315.1855469,382779052.734375,374947113.0371094,383777618.4082031,385681610.1074219,403258972.16796875,387238342.28515625,400729644.7753906,407232391.3574219,419972717.28515625,389375427.24609375,380464538.57421875,383699890.13671875,386357604.98046875,393870452.8808594,393773590.0878906,401595794.6777344,400704559.3261719,401699645.99609375,415137268.06640625,390306488.0371094,382513275.1464844,392387786.8652344,392613677.9785156,394111816.40625,401104827.8808594,401004577.63671875,382734863.28125,390047088.6230469,381402801.5136719,392972564.6972656,392596710.2050781,376480682.3730469,382801513.671875,390933959.9609375,382271087.6464844,381487030.0292969
0.515,371469268.7988281,372583618.1640625,367082397.4609375,378292663.57421875,380061248.7792969,386180480.95703125,377955841.0644531,379810607.91015625,540206604.0039062,351455810.546875,369922180.17578125,370748229.98046875,370976318.359375,375377746.58203125,385943939.2089844,374866516.11328125,389286254.8828125,362710510.25390625,342526397.7050781,359305084.2285156,359962341.30859375,365465820.3125,369959960.9375,383072723.3886719,367799926.7578125,364046752.9296875,346903747.55859375,338941711.42578125,347002929.6875,349427062.98828125,368535797.1191406,354500244.140625,361128448.4863281,368437744.140625,381416168.2128906,350961364.74609375,343436767.578125,346820770.2636719,349465606.6894531,358477905.2734375,358542541.50390625,362122222.9003906,360960479.7363281,362087432.8613281,378683776.85546875,352358520.5078125,344949523.92578125,355902435.3027344,356030731.2011719,358901611.328125,361493743.8964844,361475860.5957031,343661529.5410156,352143280.0292969,343732910.15625,356571899.4140625,356289886.4746094,337863220.21484375,343636199.9511719,353026123.046875,344776550.29296875,344227111.81640625
0.52,366786621.09375,369166992.1875,364856292.7246094,374088897.7050781,377080780.0292969,377157592.7734375,371979156.4941406,373756988.5253906,534503234.86328125,348012969.9707031,367279449.4628906,368015930.17578125,368271118.1640625,378093292.2363281,376736907.9589844,370669128.41796875,387322875.9765625,358775848.3886719,338983673.0957031,356232543.9453125,356711273.1933594,365518188.4765625,372950744.62890625,375284088.1347656,364079650.87890625,362814361.5722656,344525329.58984375,334173370.3613281,342013153.0761719,345763519.2871094,367714813.2324219,355539520.2636719,357403228.7597656,364746215.8203125,380047607.421875,347533813.4765625,337694213.8671875,341588684.08203125,344431213.37890625,356715576.171875,356772888.18359375,358514739.9902344,357054870.60546875,358358886.71875,382810852.05078125,348038543.7011719,340038543.7011719,353318969.7265625,353332580.56640625,357141906.73828125,357741516.11328125,357910949.70703125,341947723.3886719,347819732.6660156,338745269.7753906,354111968.9941406,353613250.7324219,333147155.76171875,341875640.8691406,348513061.5234375,339874420.1660156,339283111.5722656
