time,Fp1,Fpz,Fp2,AF3,AF4,F7,F5,F3,F1,Fz,F2,F4,F6,F8,FT7,FC5,FC3,FC1,FCz,FC2,FC4,FC6,FT8,T7,C5,C3,C1,Cz,C2,C4,C6,T8,TP7,CP5,CP3,CP1,CPz,CP2,CP4,CP6,TP8,P7,P5,P3,P1,Pz,P2,P4,P6,P8,PO7,PO5,PO3,POz,PO4,PO6,PO8,CB1,O1,Oz,O2,CB2
0.0,428756.445646286,-1161876.5592575073,-942530.0359725952,-201482.07247257233,-1782248.7354278564,2080472.469329834,1245309.591293335,1186114.5496368408,-5351263.046264648,-578185.2006912231,-1546447.515487671,-1561143.159866333,-1566426.9924163818,-2030128.2405853271,2066275.5966186523,909654.3192863464,-77840.9019112587,-869590.2228355408,-320758.9089870453,-1146195.2924728394,-1136460.304260254,-1486594.2001342773,-1644739.270210266,2823656.7974090576,1073582.7684402466,317373.1863498688,263904.6609401703,-319446.71273231506,-482257.6940059662,-1050329.8044204712,-1016233.2057952881,-1126531.0049057007,1176879.4059753418,1115614.652633667,165913.85006904602,-183374.24099445343,-133391.18659496307,-480073.2135772705,-560277.4024009705,-588001.3108253479,-614266.5147781372,1153243.7801361084,1196416.974067688,1190001.9645690918,243546.87333106995,521440.92321395874,124015.77830314636,-302183.598279953,-292763.97824287415,-588673.47240448,1208361.6256713867,1175215.244293213,1264148.7121582031,524890.8400535583,133887.29095458984,-360466.0630226135,-327502.22086906433,818690.6576156616,1269842.7438735962,505374.37200546265,126258.80539417267,106383.94206762314
0.005,3036446.8097686768,-17478067.39807129,5898475.646972656,1292968.511581421,-16575775.146484375,2754842.758178711,-4558018.207550049,-6010739.803314209,-130439468.38378906,-5752810.478210449,-15009963.989257812,-16263540.267944336,-16336954.116821289,-15041660.30883789,2717729.330062866,-650385.320186615,-13561694.145202637,-12144293.785095215,-5399460.315704346,-12938827.514648438,-12821868.896484375,-19683708.19091797,-15696969.032287598,22922809.600830078,4081031.322479248,-952798.7241744995,1062822.937965393,-3182452.2018432617,-6813618.6599731445,-13969219.207763672,-21929363.250732422,-19947355.270385742,8282116.889953613,5060243.129730225,-10212312.698364258,-2749144.0773010254,-714918.7326431274,-6886326.313018799,-10114084.243774414,-16725036.62109375,-17503931.045532227,7531919.479370117,9143050.193786621,9042487.144470215,1423837.0656967163,11860535.621643066,4189658.6418151855,-10528482.437133789,-10060052.871704102,-16846395.49255371,9560014.724731445,8267531.394958496,11730235.09979248,11988442.420959473,4354354.8583984375,-11456982.612609863,-10692914.962768555,5687106.609344482,11716020.584106445,11555538.177490234,4402949.333190918,3896746.873855591
0.01,-864270.6274986267,-27579240.798950195,8656466.484069824,-4730827.808380127,-24253427.505493164,-3198927.640914917,-14405791.282653809,-16550254.821777344,-189191909.79003906,-13171655.654907227,-22093288.42163086,-23650302.88696289,-23738145.82824707,-17811550.14038086,-3256782.5317382812,-6098252.773284912,-23740701.67541504,-21733369.827270508,-11577249.526977539,-19432725.90637207,-19021551.13220215,-25477499.00817871,-19113460.540771484,28513881.68334961,3292804.002761841,-5110937.595367432,-2018777.3704528809,-6099323.749542236,-8051503.1814575195,-18671630.859375,-26867826.461791992,-23754390.716552734,13251795.768737793,4740312.576293945,-16441038.131713867,-3638391.2563323975,-653260.4098320007,-8105397.2244262695,-11836190.223693848,-18146757.125854492,-19224275.588989258,12263973.236083984,14522448.539733887,14238228.797912598,4528059.959411621,21361394.88220215,9114024.16229248,-9408968.925476074,-8760190.963745117,-18158462.524414062,15020339.012145996,13328827.857971191,21054714.20288086,21463996.88720703,9250017.166137695,-10877135.276794434,-9721496.58203125,12088226.318359375,21081468.58215332,20922872.54333496,9387989.044189453,8645868.301391602
0.015,-8667567.253112793,-31006633.758544922,7338988.780975342,-14772747.993469238,-25184123.992919922,-15204663.276672363,-25287292.48046875,-27431497.57385254,-184813674.9267578,-20233251.571655273,-22812469.482421875,-23869619.369506836,-23955131.53076172,-13650887.489318848,-15279462.814331055,-13231095.314025879,-28263046.264648438,-27426519.3939209,-16672939.30053711,-20217643.73779297,-19392501.831054688,-21098495.483398438,-15123717.308044434,20610151.290893555,-771888.6137008667,-9472959.518432617,-6571809.768676758,-7838263.988494873,-5491973.876953125,-16125936.508178711,-19407924.65209961,-16916818.618774414,14108584.4039917,716748.8932609558,-17990419.387817383,-2571421.3848114014,24087.166413664818,-5425276.756286621,-7560123.920440674,-9825009.3460083,-10828354.835510254,13300932.884216309,15373557.090759277,14962580.680847168,8143660.545349121,26416337.966918945,12810726.165771484,-1508700.3707885742,-1035412.5499725342,-9621800.422668457,15688013.076782227,14386530.876159668,27085700.98876953,26411258.697509766,12831946.37298584,-3179420.7096099854,-2027234.7927093506,15578750.610351562,27221096.03881836,26016027.450561523,13025281.90612793,12297739.028930664
0.02,-12557392.120361328,-31633728.02734375,5077292.919158936,-19122112.274169922,-24666877.74658203,-25840749.740600586,-30483648.3001709,-32472217.559814453,-169182418.8232422,-22244935.989379883,-21708229.064941406,-22340705.87158203,-22471981.048583984,-12994646.072387695,-25927394.86694336,-16633672.714233398,-27100328.44543457,-27914524.07836914,-17445592.880249023,-18754512.786865234,-17668760.299682617,-18002470.016479492,-14347117.42401123,11642925.262451172,-4414748.191833496,-9373771.667480469,-7268315.79208374,-7156261.444091797,-4178664.207458496,-13483769.416809082,-15014094.352722168,-14511319.160461426,10613060.95123291,-2926312.4465942383,-17667074.20349121,-538602.9481887817,774067.759513855,-4012260.913848877,-5045719.623565674,-7272887.706756592,-8232711.7919921875,9978754.997253418,11803991.317749023,11513990.40222168,9068970.680236816,25670520.782470703,12599003.791809082,391250.1335144043,513336.53926849365,-7048219.680786133,12008587.837219238,11142182.350158691,27818502.42614746,25617338.180541992,12609882.354736328,-1330113.2917404175,-376285.4337692261,11528601.64642334,28063013.076782227,25347297.66845703,12749017.715454102,12132423.400878906
0.025,-10142012.596130371,-32083473.205566406,4068647.3846435547,-14810408.592224121,-25244632.720947266,-27870170.59326172,-27943292.61779785,-29954948.42529297,-171230941.77246094,-18757619.857788086,-21463018.4173584,-22215345.38269043,-22421182.63244629,-17920808.792114258,-27981918.334960938,-14647125.244140625,-22916738.510131836,-24585666.65649414,-14203018.188476562,-17790914.53552246,-16750408.172607422,-20840414.04724121,-18946374.893188477,9786276.817321777,-4984153.270721436,-5170586.109161377,-3492492.67578125,-4832077.980041504,-5741357.803344727,-14318824.768066406,-19262443.54248047,-20232643.127441406,5720880.98526001,-3349571.2280273438,-17831329.345703125,1363044.6195602417,1188080.072402954,-5635159.492492676,-7195779.323577881,-13925908.088684082,-15018579.483032227,5072287.559509277,6966241.359710693,6976474.761962891,6700432.300567627,21419656.75354004,9384514.808654785,-6073117.733001709,-6203299.999237061,-13904447.555541992,7308249.473571777,6488801.002502441,24087793.350219727,21358221.05407715,9463459.968566895,-7780840.3968811035,-7004098.892211914,3765950.2029418945,24359949.111938477,21059446.334838867,9491875.648498535,9009811.401367188
0.03,-6233008.38470459,-31773569.107055664,4192667.4842834473,-8199735.641479492,-25001611.709594727,-20990238.189697266,-22065073.013305664,-24146488.189697266,-176356094.36035156,-14196241.37878418,-20999010.08605957,-22064409.255981445,-22294540.405273438,-20877496.71936035,-21182985.305786133,-10407207.489013672,-19165580.74951172,-20813016.891479492,-10771234.512329102,-17306148.529052734,-16430992.126464844,-23757743.83544922,-21274208.068847656,12644188.88092041,-2775420.1889038086,-1611475.2292633057,254831.0160636902,-3023247.003555298,-7153440.475463867,-15763816.833496094,-23490325.927734375,-23945915.22216797,3737390.7566070557,-1011595.0107574463,-17809589.385986328,2625056.505203247,1299824.1186141968,-7223326.683044434,-9673358.917236328,-18939571.380615234,-20140880.584716797,3060309.648513794,5030753.612518311,5276136.39831543,4080499.6490478516,18048259.735107422,6974906.444549561,-11240103.721618652,-11400815.0100708,-19081544.876098633,5576780.319213867,4636093.1396484375,20071771.6217041,17919551.849365234,7045908.9279174805,-12882790.565490723,-12169121.742248535,827515.4829025269,20285720.825195312,17514051.43737793,7032879.35256958,6714353.084564209
0.035,-4729898.452758789,-29688623.428344727,5223196.983337402,-5212752.342224121,-22281269.073486328,-12001229.286193848,-17752450.942993164,-19763677.5970459,-168207839.9658203,-12046023.36883545,-18813756.942749023,-19905960.083007812,-20107851.028442383,-17265123.36730957,-12328752.517700195,-6944324.493408203,-17160148.62060547,-18831434.24987793,-9591323.852539062,-16083543.77746582,-15179046.630859375,-21299303.05480957,-16947917.938232422,14930696.487426758,412602.3054122925,-892494.797706604,1055336.594581604,-2486493.5874938965,-5984218.120574951,-14390563.011169434,-20405561.447143555,-19337039.947509766,6085264.205932617,2104104.75730896,-15767105.102539062,3263604.6409606934,1371548.4142303467,-6140265.464782715,-8474368.09539795,-15541542.053222656,-16688493.728637695,5493654.251098633,7265795.2308654785,7569320.6787109375,3976702.6901245117,17463993.072509766,7254397.392272949,-8988804.817199707,-9043568.61114502,-15654007.911682129,7829628.467559814,6888032.913208008,19526674.270629883,17271543.502807617,7249385.833740234,-10594312.66784668,-9821199.417114258,4463224.411010742,19688394.54650879,16757375.717163086,7290940.761566162,7079851.150512695
0.04,-4151972.2938537598,-26820205.688476562,7820808.410644531,-4912261.009216309,-18474143.981933594,-8720515.251159668,-16311815.26184082,-18216182.708740234,-156698074.3408203,-11212955.474853516,-15350526.809692383,-16223260.879516602,-16444984.436035156,-11528302.192687988,-9129040.718078613,-4684721.946716309,-15577688.217163086,-17969741.821289062,-9036541.938781738,-13532514.572143555,-12368494.987487793,-15870848.655700684,-11138538.360595703,15682992.935180664,2982054.2335510254,-352674.84188079834,834884.2263221741,-1753724.8134613037,-3551356.792449951,-10835476.875305176,-13946605.682373047,-12689588.54675293,9697405.815124512,4452307.70111084,-12253746.98638916,3684252.5005340576,1615705.6093215942,-3619046.926498413,-5107571.125030518,-9888837.814331055,-10944803.237915039,9178942.680358887,10714567.184448242,10970521.926879883,5388620.376586914,17536020.278930664,8291153.907775879,-4417637.825012207,-4343885.898590088,-9950650.215148926,11121023.178100586,10190320.014953613,21723176.956176758,17443117.141723633,8284805.2978515625,-6044561.862945557,-5122440.338134766,7921561.717987061,21919458.389282227,16824350.357055664,8384968.7576293945,8090114.593505859
0.045,-2699126.720428467,-25394884.10949707,10948273.658752441,-4125805.8547973633,-15871683.120727539,-12585802.07824707,-16871500.01525879,-18815937.042236328,-156228027.34375,-9156718.254089355,-11987684.24987793,-12745981.216430664,-13084908.485412598,-9566893.577575684,-12903987.884521484,-3480808.973312378,-13143154.14428711,-16446662.902832031,-6670266.628265381,-10169674.87335205,-8812822.341918945,-12737063.40789795,-10102511.405944824,16752998.352050781,4358049.392700195,2415629.3869018555,2232458.5914611816,327400.44593811035,-2246594.190597534,-7879689.693450928,-11203189.849853516,-11621912.002563477,10904468.536376953,5634283.542633057,-9989954.948425293,4533085.346221924,2055425.6439208984,-2220924.8542785645,-3173062.0861053467,-9343934.059143066,-10411255.836486816,10309716.22467041,11911016.464233398,12087596.893310547,5436450.004577637,15915612.22076416,7714962.005615234,-4009285.4499816895,-3794128.41796875,-9537128.448486328,12195796.012878418,11099709.510803223,23013647.079467773,16050651.550292969,7801590.442657471,-5559624.671936035,-4502988.815307617,6490156.650543213,23300403.594970703,15383041.381835938,7904934.883117676,7376838.684082031
0.05,-2830104.8278808594,-26894401.55029297,11017708.778381348,-3600141.5252685547,-15311346.054077148,-18026115.41748047,-18923364.639282227,-20983140.94543457,-161634460.44921875,-6437334.5375061035,-9731301.307678223,-10588782.31048584,-11037468.910217285,-11140220.642089844,-18145132.064819336,-4150975.7041931152,-10978966.71295166,-14355843.544006348,-3436648.368835449,-7379836.082458496,-6119604.110717773,-12707715.98815918,-12673952.102661133,18395448.684692383,4940328.121185303,5644485.950469971,4352325.439453125,2501024.9614715576,-2240053.653717041,-6684746.742248535,-12148715.019226074,-14210334.777832031,9620990.753173828,6138658.046722412,-10300006.866455078,6077940.464019775,2516425.609588623,-2280300.6172180176,-3248147.0108032227,-11654766.082763672,-12789801.597595215,8868875.503540039,10732279.777526855,10821296.691894531,3719221.1151123047,13711844.444274902,6015319.82421875,-6115123.748779297,-5736536.502838135,-12074173.927307129,11025084.495544434,9757547.378540039,22041101.455688477,13962231.636047363,6176648.139953613,-7373752.593994141,-6326416.492462158,3325046.5393066406,22373687.744140625,13374610.900878906,6267095.08895874,5586575.031280518
0.055,-6943163.3949279785,-30737752.91442871,6351387.500762939,-5641944.408416748,-16385353.088378906,-19179403.30505371,-21657896.041870117,-23688055.03845215,-160440948.48632812,-5827208.042144775,-9220899.58190918,-10176271.438598633,-10601075.172424316,-12677979.469299316,-19215291.97692871,-6560156.82220459,-11123813.62915039,-13720442.771911621,-2552349.805831909,-6543213.844299316,-5538559.436798096,-13036385.536193848,-13902999.877929688,19171722.412109375,5387967.109680176,6416697.978973389,4647555.351257324,2735340.118408203,-2196856.4987182617,-6441519.737243652,-12204468.727111816,-14509767.532348633,8324661.2548828125,6596116.542816162,-11482935.905456543,7643384.93347168,2778273.582458496,-2364750.1468658447,-3350556.6120147705,-11059919.357299805,-12237956.047058105,7487837.314605713,9430842.399597168,9472459.79309082,2786626.3389587402,13595782.279968262,5252610.206604004,-5753947.734832764,-5271400.451660156,-11559968.948364258,9755469.32220459,8609551.429748535,20999361.038208008,13738316.535949707,5443154.811859131,-6705389.499664307,-5816410.064697266,2662183.7615966797,21292413.71154785,13286081.314086914,5535270.214080811,4921843.528747559
0.06,-11677416.801452637,-34257045.74584961,848241.925239563,-8483052.253723145,-18108291.625976562,-15552043.914794922,-22549835.205078125,-24403903.96118164,-153224243.1640625,-7791713.714599609,-10437438.96484375,-11319050.788879395,-11622467.041015625,-13203441.619873047,-15721980.094909668,-8078900.337219238,-13021924.018859863,-15426871.299743652,-4810445.308685303,-7646211.14730835,-6825507.164001465,-12599631.309509277,-12831614.49432373,18808433.532714844,5874042.510986328,5185640.335083008,3180929.660797119,1229237.43724823,-1742795.3481674194,-6369832.0388793945,-10414037.704467773,-12585335.731506348,8248208.045959473,7114070.892333984,-11287677.764892578,8201418.876647949,2802592.2775268555,-1904244.4229125977,-2637764.2154693604,-8369373.321533203,-9605840.682983398,7437785.625457764,9189261.436462402,9242082.595825195,4317176.818847656,15441907.88269043,5840328.216552734,-3377131.700515747,-2948343.03855896,-8770138.74053955,9484822.273254395,8676781.65435791,21513521.194458008,15432469.367980957,6090185.165405273,-4311700.344085693,-3579891.6816711426,3235370.397567749,21742410.65979004,14986132.621765137,6155494.689941406,5707023.143768311
0.065,-11482513.427734375,-34934761.04736328,-438719.9282646179,-7843033.313751221,-19303701.400756836,-10086858.749389648,-19116605.758666992,-20899250.030517578,-148155685.4248047,-9555606.842041016,-12290193.557739258,-13016276.359558105,-13247965.812683105,-14160723.686218262,-10423898.696899414,-5759603.023529053,-13383295.059204102,-17481796.264648438,-7300275.3257751465,-9203919.410705566,-8512451.171875,-12885510.444641113,-12363714.218139648,19036897.659301758,6629505.634307861,5036617.755889893,2662179.470062256,239835.76893806458,-1697499.0367889404,-6717922.210693359,-9799627.304077148,-12572839.736938477,8918165.20690918,7874993.801116943,-9314594.268798828,7751604.5570373535,2758094.549179077,-1736683.8455200195,-2327097.4159240723,-8267313.003540039,-9618515.968322754,8177072.525024414,9750100.135803223,9777693.748474121,6834771.633148193,16469451.904296875,6345404.624938965,-3052569.1509246826,-2805031.7764282227,-8586441.993713379,10034776.68762207,9401043.891906738,22266664.505004883,16458301.544189453,6670552.730560303,-4229726.791381836,-3527246.7136383057,2438756.227493286,22478105.545043945,15853281.97479248,6660063.743591309,6277105.331420898
0.07,-7232844.352722168,-33897289.27612305,1239276.647567749,-3996618.0324554443,-19971794.12841797,-4931141.8533325195,-12786980.628967285,-14734949.111938477,-146201446.53320312,-9344756.126403809,-13787527.084350586,-14456212.997436523,-14701691.627502441,-15793928.146362305,-5244413.375854492,-181353.65843772888,-10594674.110412598,-17592153.549194336,-7461901.664733887,-10199059.48638916,-9707409.858703613,-14798650.741577148,-13559361.457824707,21186426.162719727,8373844.146728516,7186817.169189453,4445696.830749512,903846.025466919,-2458225.727081299,-8065526.008605957,-11495949.745178223,-14335434.913635254,10345630.645751953,9600760.459899902,-6611661.911010742,7481248.378753662,2788648.843765259,-2432747.3640441895,-3364964.723587036,-10433814.04876709,-11860134.12475586,9642446.517944336,11267457.962036133,11161560.05859375,7997552.871704102,15637657.165527344,6058922.290802002,-4806908.60748291,-4722579.479217529,-10802922.248840332,11648205.757141113,10879529.95300293,21972124.099731445,15721961.02142334,6371333.122253418,-6151895.523071289,-5392796.039581299,2091225.6240844727,22224676.13220215,14977067.947387695,6304458.6181640625,5863460.063934326
0.075,-5795325.27923584,-35363155.364990234,-214040.23468494415,-2537913.3224487305,-21700208.66394043,-1462993.3834075928,-8870841.026306152,-11008144.37866211,-143787612.91503906,-9062841.415405273,-15259136.199951172,-16002183.91418457,-16220418.930053711,-16751239.776611328,-1623242.8550720215,4447895.050048828,-7398814.2013549805,-16391786.575317383,-6371798.992156982,-11184735.298156738,-10839488.983154297,-16921239.852905273,-14193367.958068848,24226869.583129883,11105830.192565918,9590948.104858398,6609446.5255737305,1838519.0963745117,-3314994.5735931396,-10153507.232666016,-12949220.657348633,-13586857.795715332,12830983.16192627,12352581.024169922,-4260699.74899292,8262368.202209473,2884542.70362854,-3308229.684829712,-4813096.046447754,-10065336.227416992,-11421468.734741211,12087715.148925781,13878588.676452637,13652544.975280762,7586873.0545043945,15122387.886047363,6027897.834777832,-4558771.133422852,-4489974.9755859375,-10502672.19543457,14383667.945861816,13406131.744384766,21871479.034423828,15244053.840637207,6254766.464233398,-5834422.1115112305,-5034377.098083496,4734966.75491333,22201780.319213867,14513112.06817627,6206307.888031006,5697932.720184326
0.08,-9611630.4397583,-40335395.81298828,-6008680.820465088,-5973421.096801758,-24713851.928710938,-1099041.3427352905,-10347256.660461426,-12414520.263671875,-142117614.74609375,-10763757.705688477,-16929035.186767578,-17761234.283447266,-17833627.700805664,-16301250.457763672,-1232676.0292053223,5133703.708648682,-7140295.505523682,-16173057.556152344,-6459680.080413818,-12563680.648803711,-12047069.549560547,-17168254.852294922,-12682619.094848633,26086479.18701172,13110444.068908691,10185707.092285156,6758629.79888916,1531928.6584854126,-3357644.3195343018,-11550509.452819824,-11884504.318237305,-9299531.936645508,14873414.993286133,14464149.475097656,-3131720.542907715,9524027.824401855,3026396.9898223877,-3322558.641433716,-4994797.229766846,-6009997.367858887,-7206225.872039795,14024371.147155762,15867769.241333008,15691930.770874023,6915822.505950928,16477264.404296875,7131493.56842041,-1065110.9218597412,-822788.9537811279,-6410041.332244873,16373981.475830078,15322819.709777832,23024126.052856445,16581026.077270508,7336458.683013916,-2216444.969177246,-1381614.5658493042,7690479.755401611,23446660.9954834,15929820.06072998,7332974.433898926,6797676.086425781
0.085,-11976008.415222168,-42989120.48339844,-9264374.732971191,-8419625.282287598,-25564640.045166016,-2200300.693511963,-12724213.600158691,-14503563.88092041,-142321472.16796875,-12165789.604187012,-17030103.68347168,-17866769.790649414,-17794357.299804688,-14951623.916625977,-2501669.6453094482,4244114.875793457,-8483736.991882324,-16747726.440429688,-7377468.585968018,-13072309.494018555,-12144254.684448242,-15263133.04901123,-10513617.515563965,26487264.63317871,13024021.14868164,9759738.92211914,5482756.1378479,739369.809627533,-2603472.948074341,-11069311.141967773,-9381442.070007324,-5639940.26184082,14361389.16015625,14507407.188415527,-3636578.5598754883,10119502.067565918,3253024.8165130615,-2493025.064468384,-3759762.2871398926,-2744263.6489868164,-3819046.73576355,13437834.739685059,15194874.76348877,15146306.037902832,6450548.17199707,17805513.381958008,8337677.001953125,1806530.8332443237,2361453.2947540283,-3065739.631652832,15561473.846435547,14501985.549926758,23477165.22216797,17940914.154052734,8606300.354003906,657893.0020332336,1585203.5284042358,6700675.964355469,23954627.990722656,17306835.174560547,8620280.265808105,8039944.648742676
0.09,-6328577.518463135,-37555091.857910156,-4563870.429992676,-3095980.644226074,-21042415.618896484,301959.6338272095,-9067768.096923828,-10657098.770141602,-138482437.13378906,-9014510.154724121,-13791935.920715332,-14564795.49407959,-14515249.252319336,-13556589.126586914,-149071.73812389374,6547582.626342773,-7081185.340881348,-15278746.604919434,-6460916.519165039,-11532029.151916504,-10408447.265625,-13289277.076721191,-10148925.78125,26971340.17944336,12145648.956298828,10467370.986938477,5521642.208099365,1325785.9945297241,-2116682.767868042,-9629972.457885742,-8458089.828491211,-6044403.553009033,11930790.901184082,13645771.026611328,-4991588.115692139,9918455.123901367,3539934.3967437744,-2050935.0299835205,-3010506.1531066895,-3977990.15045166,-4986572.265625,11040134.42993164,12734849.92980957,12656638.145446777,5592315.196990967,16562376.022338867,7822062.015533447,442559.3316555023,1300957.5605392456,-4306219.100952148,12943019.86694336,11835839.27154541,20996185.302734375,16759840.01159668,8111725.807189941,-748599.7080802917,275828.39131355286,3216427.0877838135,21399274.826049805,16108438.491821289,8164235.1150512695,7479243.278503418
0.095,3115460.157394409,-28121437.072753906,3096827.0301818848,6750995.635986328,-14429136.276245117,7568994.522094727,-455121.4575767517,-2118355.9894561768,-126914382.93457031,-2029396.7723846436,-9428562.16430664,-10135094.64263916,-10262097.358703613,-13530694.961547852,7147336.006164551,12106963.157653809,-2402920.4845428467,-11129310.607910156,-3174569.606781006,-9348883.628845215,-8492133.140563965,-13983437.538146973,-12554120.063781738,27844415.66467285,12525413.513183594,12466146.469116211,7769921.30279541,3400444.269180298,-2978566.1697387695,-9703564.643859863,-10957715.034484863,-9553693.771362305,10404774.66583252,13889719.96307373,-5751258.850097656,9891044.616699219,3788746.3569641113,-3083442.211151123,-4577154.636383057,-8463499.069213867,-9402519.226074219,9569609.642028809,11340744.018554688,11091517.448425293,4434260.845184326,13557617.1875,5430042.743682861,-4183182.2395324707,-3215858.4594726562,-8855382.919311523,11457832.336425781,10350086.212158203,17273609.161376953,13732098.579406738,5666788.578033447,-5358000.755310059,-4353037.8341674805,2050967.9317474365,17435747.146606445,13095453.262329102,5824675.559997559,5023326.396942139
0.1,5829413.414001465,-25808013.916015625,3993480.443954468,10352386.474609375,-13491625.785827637,12530006.408691406,3796344.757080078,1972860.4555130005,-116881820.67871094,2260883.092880249,-8972956.657409668,-9628494.262695312,-9918514.251708984,-16785446.166992188,12202083.587646484,15375724.792480469,843700.2301216125,-8059494.972229004,-556298.1963157654,-9150855.06439209,-8699109.077453613,-17981882.095336914,-17151620.864868164,27351366.04309082,13507277.488708496,13773202.896118164,9874074.935913086,5099241.733551025,-4912784.099578857,-12062665.939331055,-15837757.110595703,-13688631.057739258,10625200.271606445,14713459.014892578,-5558126.449584961,10820054.054260254,4034428.596496582,-5038643.836975098,-7639716.625213623,-12836994.171142578,-13729309.08203125,9729595.184326172,11648528.099060059,11367984.771728516,4111933.2313537598,11911196.7086792,3150317.430496216,-8503995.895385742,-7667665.481567383,-13211447.715759277,11718022.346496582,10753266.334533691,16299671.173095703,11982263.565063477,3393865.3469085693,-9691017.150878906,-8805150.985717773,3181118.2498931885,16171918.869018555,11329268.455505371,3618430.3760528564,2773183.584213257
0.105,-594981.9684028625,-34178871.154785156,-3338582.0388793945,4033540.725708008,-20299705.505371094,9677218.437194824,-551826.2982368469,-2378336.6680145264,-119328109.74121094,-255688.66729736328,-13630443.572998047,-14244713.78326416,-14579528.80859375,-23266061.782836914,9335038.185119629,13373452.186584473,-275195.8966255188,-9232905.387878418,-1162940.0253295898,-11018369.674682617,-10646788.597106934,-22548879.623413086,-22390029.907226562,25460332.8704834,13171245.574951172,13501579.284667969,9606512.069702148,5146529.674530029,-6159670.829772949,-14156223.29711914,-19603603.36303711,-17174663.543701172,10909386.63482666,14350545.883178711,-5176761.150360107,12457630.157470703,4430816.173553467,-5975963.115692139,-9137852.668762207,-15073565.483093262,-16029045.104980469,9901293.754577637,11871177.673339844,11801287.651062012,5075450.897216797,12795679.092407227,2950852.394104004,-10117536.544799805,-9475617.408752441,-15326236.724853516,11897811.889648438,11122545.24230957,18931074.142456055,12821264.266967773,3310970.7832336426,-11422545.433044434,-10608740.80657959,2601917.505264282,18668708.80126953,12050665.855407715,3407658.576965332,2640394.687652588
0.11,-6657125.949859619,-43190937.04223633,-10234284.400939941,-2716858.8638305664,-27037422.18017578,5338136.196136475,-5020605.087280273,-6703391.075134277,-128795043.9453125,-5297661.304473877,-18064744.94934082,-18695747.37548828,-18995794.29626465,-29133245.46813965,4923612.594604492,10945460.319519043,-2137119.0547943115,-12146150.588989258,-3525997.6387023926,-12152046.203613281,-11523854.25567627,-23884954.45251465,-25904977.798461914,25631687.16430664,12415249.824523926,13387215.614318848,8102193.832397461,4346492.290496826,-5349734.783172607,-13178928.37524414,-19143117.904663086,-18848363.876342773,10626470.565795898,13688665.390014648,-4737864.017486572,13967176.43737793,4942705.6312561035,-4769930.362701416,-7399126.052856445,-14577775.955200195,-15693129.539489746,9661881.446838379,11490776.062011719,11606215.476989746,6170368.671417236,14305435.180664062,4592496.395111084,-8891825.675964355,-8300930.023193359,-14754953.384399414,11511814.11743164,10826777.458190918,21685932.159423828,14403559.684753418,5039227.485656738,-10250259.399414062,-9433341.979980469,543447.4349021912,21533369.064331055,13523077.011108398,4848477.363586426,4255773.067474365
0.115,-3686101.198196411,-41849811.55395508,-9190730.094909668,21236.125379800797,-25368083.953857422,8845208.168029785,-526658.9522361755,-2108710.765838623,-130142395.01953125,-5925261.0206604,-16752264.022827148,-17506254.196166992,-17749969.482421875,-29773420.333862305,8458898.544311523,13566677.09350586,-156801.35786533356,-11913374.900817871,-4416781.902313232,-10688375.473022461,-9824298.858642578,-21087003.707885742,-25818691.25366211,29422447.204589844,13587310.791015625,14936408.996582031,7984955.310821533,4152982.711791992,-3376480.1025390625,-9921658.515930176,-15187082.290649414,-17483036.041259766,10781297.68371582,14924197.19696045,-3682327.0320892334,14779222.48840332,5327979.08782959,-2725970.0298309326,-4508058.071136475,-12187225.341796875,-13439154.624938965,9994687.0803833,11581804.275512695,11611946.105957031,6140976.428985596,14430450.439453125,5938063.621520996,-6657294.273376465,-5981904.983520508,-12478045.463562012,11688093.185424805,10990026.473999023,21357284.545898438,14640694.618225098,6360166.072845459,-7801716.327667236,-7058375.358581543,1514993.5483932495,21426973.342895508,13815685.272216797,5947174.549102783,5512784.004211426
0.12,4609822.750091553,-32726631.16455078,-2657199.1443634033,8502966.88079834,-17463840.48461914,16252244.94934082,7720553.398132324,6118177.890777588,-121690322.87597656,-2282723.903656006,-11414215.087890625,-12314120.292663574,-12469032.287597656,-25647394.18029785,15959964.752197266,17944719.314575195,3542024.3740081787,-8520510.67352295,-3419068.5749053955,-8234606.742858887,-7356789.588928223,-17493440.628051758,-23351533.889770508,32221130.37109375,15251497.268676758,16514730.453491211,9231097.221374512,4726660.251617432,-2630957.1266174316,-7982198.238372803,-12443540.573120117,-14871004.104614258,10674633.979797363,16533773.422241211,-2681334.7339630127,14947004.318237305,5531865.59677124,-2299775.6004333496,-3991253.8528442383,-11089252.471923828,-12383732.795715332,9892086.98272705,11345481.872558594,11150378.227233887,5328932.285308838,13413065.910339355,5341706.7527771,-6547150.135040283,-5819136.619567871,-11639808.654785156,11610826.49230957,10834742.546081543,18680688.858032227,13723625.183105469,5750236.988067627,-7345696.449279785,-6807251.930236816,5385110.855102539,18873838.424682617,13064408.302307129,5332178.592681885,4907823.56262207
0.125,7435575.96206665,-28089420.318603516,1315390.5868530273,10343791.007995605,-13256223.678588867,14180081.367492676,6484374.046325684,4841724.872589111,-117651702.88085938,-1129104.9718856812,-8963037.490844727,-9856627.464294434,-9882046.699523926,-22755191.802978516,13863885.879516602,15869699.478149414,2511988.401412964,-7097875.595092773,-3134146.213531494,-7635960.102081299,-6834659.099578857,-17236490.24963379,-22550554.275512695,28870855.3314209,12911937.713623047,15138189.315795898,9093679.428100586,5073764.324188232,-4100676.0597229004,-9270428.657531738,-14596159.934997559,-15508784.294128418,7899170.875549316,14104646.682739258,-3580739.2597198486,14836838.722229004,5809563.159942627,-4147921.085357666,-6469172.954559326,-14313722.610473633,-15587991.714477539,6826710.224151611,8368194.580078125,8081604.957580566,4976939.678192139,12854084.014892578,3487967.014312744,-10211699.485778809,-9524616.241455078,-15076796.531677246,8764216.423034668,7809290.409088135,16658601.760864258,13290590.286254883,3972506.284713745,-10905954.360961914,-10495120.04852295,5997172.3556518555,16808422.088623047,12698868.751525879,3703696.0124969482,3137769.937515259
0.13,890076.0412216187,-33556911.46850586,-1164211.7500305176,1730309.9632263184,-17531082.153320312,661742.9256439209,-5840767.383575439,-7443186.7599487305,-125153480.52978516,-5749043.941497803,-12457553.86352539,-13166088.104248047,-13087617.874145508,-25439788.818359375,208857.29789733887,6685125.350952148,-4606430.0537109375,-10450832.36694336,-5094799.995422363,-9333066.940307617,-8521745.681762695,-20548780.44128418,-25581230.16357422,21791997.9095459,6211573.600769043,10723051.071166992,6285750.389099121,4579262.733459473,-6038623.332977295,-11883339.881896973,-19497941.970825195,-20480049.13330078,3015150.547027588,7399773.597717285,-6530308.723449707,14598073.00567627,6271354.198455811,-6246265.888214111,-8972553.253173828,-19881698.608398438,-21091600.41809082,1715040.683746338,3446530.58052063,3211040.496826172,5203445.911407471,13644001.960754395,2573098.4210968018,-14795666.694641113,-14134768.48602295,-20644176.483154297,3845496.17767334,2643728.017807007,16773122.787475586,14212447.166442871,3068109.5123291016,-15749726.295471191,-15189364.433288574,1420118.3319091797,16818803.787231445,13529283.52355957,2962137.6991271973,2269242.525100708
0.135,-7952344.4175720215,-41921142.578125,-6771975.994110107,-7722311.019897461,-24500865.936279297,-9624673.843383789,-15892693.519592285,-17396318.435668945,-132632720.94726562,-11101106.643676758,-17378284.454345703,-17935764.31274414,-17854883.193969727,-30572429.656982422,-10080830.574035645,-593423.068523407,-11605890.274047852,-14863682.746887207,-7546995.162963867,-11050355.911254883,-10134086.608886719,-23383638.381958008,-29354782.104492188,18411437.98828125,1008203.9833068848,6670007.228851318,3097191.095352173,3684567.2130584717,-6078780.174255371,-12693614.00604248,-21238695.14465332,-24465980.529785156,435653.09047698975,2242937.5648498535,-9101951.599121094,13995166.778564453,6608686.923980713,-6303196.430206299,-8702783.584594727,-21614053.72619629,-22682619.094848633,-664264.8577690125,1133322.5965499878,902540.3261184692,4646785.259246826,15086607.933044434,3647571.086883545,-15145738.60168457,-14427255.630493164,-22166383.743286133,1422931.9095611572,104766.65943861008,17826440.811157227,15667059.898376465,3957049.608230591,-16423618.31665039,-15553048.133850098,-1508926.7492294312,17805000.30517578,14878458.023071289,3956382.7514648438,3304452.657699585
0.14,-10276109.69543457,-43642265.31982422,-9744005.20324707,-8201775.550842285,-26174045.56274414,-5289188.385009766,-13484912.872314453,-14916753.768920898,-127746322.63183594,-10861126.899719238,-17825382.232666016,-18449092.864990234,-18463584.899902344,-31723562.240600586,-5516159.534454346,991723.6566543579,-12428685.188293457,-15012579.917907715,-7807682.037353516,-10607964.515686035,-9563164.710998535,-22255468.368530273,-29345291.137695312,21197504.0435791,1929227.9481887817,6124040.126800537,2544601.4404296875,3252556.800842285,-4175319.194793701,-10851263.046264648,-17472852.70690918,-22618770.599365234,2506841.4211273193,3112830.638885498,-9301044.464111328,13060046.195983887,6562934.875488281,-4489290.237426758,-6296997.547149658,-17213335.037231445,-18098945.61767578,1823349.4758605957,3491533.041000366,3198167.085647583,2538386.344909668,15421659.469604492,5138827.323913574,-10640780.448913574,-9873614.311218262,-17519453.048706055,3695530.414581299,2510793.924331665,17825086.59362793,15840478.897094727,5242117.881774902,-11981184.005737305,-10928060.531616211,2475316.286087036,17747014.99938965,15036626.815795898,5262104.034423828,4764789.10446167
0.145,-4847022.05657959,-38208404.541015625,-7717710.971832275,-1532958.0307006836,-22249063.49182129,6598964.691162109,-4056099.4148254395,-5509349.822998047,-115790222.16796875,-5746981.620788574,-13904788.01727295,-14694267.272949219,-14831654.54864502,-28189472.198486328,6553287.029266357,8087140.083312988,-7759747.505187988,-10542288.780212402,-5496366.97769165,-8248099.327087402,-7105255.603790283,-18657125.47302246,-26170675.27770996,25434879.302978516,6454017.162322998,9065108.299255371,4942394.733428955,3706172.466278076,-2651677.131652832,-8297160.1486206055,-12632203.102111816,-18124076.84326172,5876143.455505371,7468501.091003418,-7794433.116912842,12697526.931762695,6392713.54675293,-3152970.314025879,-4766584.873199463,-12428354.263305664,-13238705.6350708,5272039.413452148,6763451.57623291,6524258.136749268,318948.4477043152,13359080.31463623,4573999.404907227,-7157595.157623291,-6451292.514801025,-12644420.623779297,7013366.222381592,6044557.094573975,16112312.316894531,13562133.7890625,4707455.158233643,-8342301.368713379,-7311644.077301025,8041177.749633789,15963220.596313477,12778971.672058105,4644885.540008545,4235107.898712158
0.15,2060666.0842895508,-32877525.329589844,-3518127.679824829,3181793.9281463623,-18963771.82006836,11346867.561340332,912953.794002533,-669967.7109718323,-110939773.55957031,-1857613.9211654663,-10820444.107055664,-11613957.405090332,-11829482.078552246,-25700670.24230957,11131811.141967773,12878007.888793945,-2624517.2023773193,-5728562.355041504,-2686125.7553100586,-6167526.721954346,-5026441.57409668,-17176519.3939209,-25011541.36657715,26734519.958496094,9011375.427246094,13132840.156555176,8196980.4763793945,4739039.421081543,-3360515.594482422,-7476376.056671143,-12343651.77154541,-18054307.93762207,6078518.867492676,9933632.850646973,-6126055.2406311035,13883970.260620117,6511828.899383545,-3982838.3922576904,-5891229.152679443,-13819545.74584961,-14761252.403259277,5099662.780761719,6539095.401763916,6529091.835021973,212834.50722694397,9733469.009399414,1700211.6441726685,-9811214.447021484,-9213257.789611816,-14141240.119934082,6894381.523132324,6001962.184906006,13633214.950561523,9789622.30682373,2030475.8548736572,-10879351.615905762,-9916709.899902344,6504077.434539795,13516008.377075195,9023596.76361084,1843214.988708496,1401545.1669692993
0.155,3508864.641189575,-33548099.517822266,-2410146.2364196777,1273483.8724136353,-20460624.69482422,5221390.724182129,-1483638.1673812866,-3225179.433822632,-115715454.1015625,-2794651.746749878,-11993843.078613281,-12608849.52545166,-12813264.846801758,-27668802.26135254,4631768.703460693,12521293.640136719,-396682.6796531677,-4093856.3346862793,-1632639.6465301514,-6205700.874328613,-5223183.155059814,-19518358.23059082,-27962701.79748535,25412490.844726562,7980188.369750977,15785494.804382324,10228066.444396973,5574357.986450195,-5510811.805725098,-8984217.643737793,-16306146.621704102,-22767856.59790039,3223978.9962768555,9042082.786560059,-4570147.0375061035,16063993.453979492,6846344.947814941,-6082118.988037109,-8417014.122009277,-19650703.43017578,-20829145.431518555,1905582.5471878052,3441265.58303833,3626437.4256134033,2441753.149032593,7334534.645080566,-834858.0002784729,-15814908.027648926,-15227675.437927246,-20142066.955566406,3775218.4867858887,2856621.265411377,11743056.297302246,7289041.042327881,-452421.9036102295,-16880788.803100586,-15940691.947937012,-1424050.4503250122,11879775.047302246,6621979.713439941,-678120.6130981445,-1133075.475692749
0.16,-1637483.9544296265,-39368175.5065918,-6837633.13293457,-3829124.2122650146,-24744337.08190918,-3289333.5819244385,-5633503.9138793945,-7394830.226898193,-119843826.29394531,-6411940.097808838,-15613801.956176758,-16118915.557861328,-16222784.042358398,-30517927.169799805,-4016839.5042419434,9856367.111206055,-924335.9565734863,-5298090.45791626,-2782744.4076538086,-8078766.822814941,-7337136.745452881,-22557493.209838867,-30918376.922607422,23329984.664916992,5905181.407928467,15732578.27758789,10302167.892456055,5650150.775909424,-6733600.616455078,-11176688.194274902,-19212905.883789062,-25271316.528320312,741232.3951721191,7195712.089538574,-2965660.810470581,17328027.725219727,6975583.553314209,-7140851.4976501465,-9725212.097167969,-22457138.061523438,-23772142.41027832,-469917.1185493469,1226656.0792922974,1367428.4219741821,4917752.742767334,8128178.596496582,-435430.94396591187,-18065567.016601562,-17360813.14086914,-23033189.77355957,1362307.4293136597,470588.8330936432,11141618.728637695,7964384.55581665,-226319.61107254028,-19108863.830566406,-18225744.247436523,-6733312.606811523,11615359.30633545,7518498.420715332,-378749.9666213989,-727762.2818946838
0.165,-7002596.378326416,-44375553.131103516,-13073364.2578125,-6008744.716644287,-27566627.502441406,-4728555.202484131,-6266023.1590271,-7819102.2872924805,-116710952.75878906,-8592761.039733887,-17925533.294677734,-18523530.960083008,-18510023.11706543,-30447202.682495117,-5241042.613983154,8729790.687561035,-2113567.352294922,-6577381.610870361,-4490623.950958252,-9756899.8336792,-9167382.24029541,-23109277.725219727,-30336833.953857422,22136631.01196289,5426877.021789551,13998454.093933105,9116150.856018066,5241487.0262146,-5875570.297241211,-11890098.571777344,-18102437.97302246,-22143115.997314453,731414.3180847168,6744299.411773682,-1796658.7543487549,16803861.618041992,6816590.309143066,-6104666.233062744,-8681649.208068848,-19621652.603149414,-20888635.635375977,-122726.9396185875,1723657.1311950684,1635127.9020309448,5883462.905883789,10881314.277648926,2373678.44581604,-14642293.930053711,-13818495.750427246,-20175222.396850586,1666547.2984313965,805105.8650016785,11829999.923706055,10627525.329589844,2451447.4868774414,-15616648.67401123,-14855261.80267334,-4557318.687438965,12395247.459411621,10376250.267028809,2340434.0744018555,2111636.161804199
0.17,-3763659.954071045,-42750255.5847168,-14405166.625976562,-2206306.4575195312,-27235311.50817871,4338894.367218018,-1870946.8841552734,-3126228.8093566895,-110642684.93652344,-7687420.845031738,-17659688.94958496,-18342033.38623047,-18306226.73034668,-30388330.459594727,4010407.9246520996,11521821.975708008,-1433928.0128479004,-5718484.878540039,-4537131.786346436,-9509531.021118164,-8911155.700683594,-22296529.76989746,-29422418.59436035,24711536.407470703,7524333.953857422,13710947.036743164,8410897.254943848,5191311.359405518,-4069579.601287842,-10580965.995788574,-15790388.107299805,-19225196.838378906,2670953.0353546143,8624178.886413574,-1041229.8440933228,15946120.262145996,6758188.247680664,-4136366.844177246,-6535373.687744141,-16506570.816040039,-17636051.177978516,1950832.8437805176,3878051.7578125,3598719.835281372,5654752.254486084,12443610.191345215,4645422.93548584,-10858888.626098633,-10039862.632751465,-17005599.975585938,3824989.3188476562,2850719.451904297,13221386.909484863,12200984.954833984,4843906.879425049,-11885170.936584473,-11199021.339416504,206515.52081108093,13522320.747375488,11937643.051147461,4635440.349578857,4376854.89654541
0.175,10219499.588012695,-33937320.709228516,-8614351.272583008,5878892.421722412,-25034566.87927246,21067171.096801758,6828692.91305542,5711492.06161499,-107572456.35986328,-5106181.621551514,-16378904.342651367,-16864889.14489746,-16934387.20703125,-35449970.24536133,20579019.54650879,18363769.53125,2370994.0910339355,-2878797.769546509,-2424336.6718292236,-7603151.321411133,-6926676.273345947,-23247224.807739258,-33518096.923828125,32540264.129638672,11838281.631469727,17019971.84753418,9629252.433776855,5819597.244262695,-3103466.749191284,-8729396.82006836,-16231472.01538086,-23016965.866088867,5072916.507720947,12758696.556091309,441853.52325439453,16469036.102294922,7052100.18157959,-3027538.537979126,-5292867.183685303,-18212181.091308594,-19242776.87072754,4141064.167022705,6024605.751037598,5731655.120849609,5285929.203033447,11377922.058105469,4510440.826416016,-11607414.245605469,-10887222.290039062,-18671154.022216797,6131209.373474121,4996768.474578857,14160407.066345215,11209546.089172363,4945028.781890869,-12849427.223205566,-12151525.497436523,499680.66811561584,14129424.095153809,10751384.735107422,4610279.083251953,4191517.8298950195
0.18,26805049.896240234,-23656501.77001953,-1133484.8403930664,13568555.83190918,-23112741.470336914,38508476.25732422,17197610.85510254,15969219.207763672,-106427223.2055664,-3198879.7187805176,-16028228.759765625,-16097730.63659668,-16304756.164550781,-44502704.62036133,37754676.818847656,26351070.404052734,7468819.141387939,-242805.06372451782,-103204.43660020828,-6021975.040435791,-5312094.211578369,-26493894.577026367,-41928985.595703125,41592567.443847656,16605464.935302734,21938682.556152344,12219601.63116455,6408062.934875488,-3437757.730484009,-8213479.995727539,-19409999.84741211,-31292291.64123535,6720172.40524292,17607641.220092773,2909995.0790405273,17775175.094604492,7420683.860778809,-3278403.2821655273,-5706634.044647217,-22857357.025146484,-23858026.5045166,5521345.615386963,7240840.911865234,7083982.944488525,4842862.606048584,9463482.856750488,3060673.952102661,-15443706.512451172,-14763903.617858887,-23268621.44470215,7474143.505096436,6382871.150970459,13826375.961303711,9349967.956542969,3590627.431869507,-16830898.28491211,-16158721.923828125,-3741783.1420898438,13719981.19354248,8700424.194335938,3282045.1259613037,2751192.808151245
0.185,35537319.18334961,-18537151.336669922,953400.4926681519,17091968.536376953,-22938226.6998291,50182643.89038086,25235231.399536133,23781463.623046875,-102975608.8256836,-3138751.268386841,-17297399.520874023,-17053033.82873535,-17324991.22619629,-51609020.2331543,49491958.61816406,31441656.1126709,10200125.694274902,314152.5685787201,208685.4726076126,-6455658.912658691,-5775230.884552002,-30122074.127197266,-48949127.197265625,46154750.82397461,19475915.908813477,24133926.391601562,13971976.280212402,6209663.867950439,-4148385.0479125977,-9501484.870910645,-22656051.635742188,-36973850.25024414,7203999.5193481445,20678663.25378418,4514860.153198242,17900142.669677734,7501084.804534912,-4000960.8268737793,-6932858.467102051,-25523042.678833008,-26527490.615844727,5953352.928161621,7474899.2919921875,7515435.695648193,3988693.952560425,9410242.080688477,2652855.87310791,-17886634.826660156,-17105848.31237793,-25855163.57421875,7730185.985565186,6881410.121917725,12935135.841369629,9340779.304504395,3101036.548614502,-19190574.645996094,-18625411.987304688,-6372019.290924072,12965806.96105957,8608995.43762207,2966787.338256836,2456952.0950317383
0.19,34466514.587402344,-19508247.37548828,-2943810.46295166,16775794.982910156,-24709840.774536133,55368705.74951172,28961868.286132812,27329727.172851562,-97579101.5625,-4213674.068450928,-19737962.72277832,-19450479.50744629,-19728551.864624023,-54582660.67504883,55027610.778808594,32849533.081054688,9420575.141906738,-645076.1556625366,-1302191.0190582275,-8707721.710205078,-8084102.630615234,-33253974.91455078,-51891723.6328125,47222007.751464844,20086259.841918945,22369699.478149414,13664159.774780273,5653363.7046813965,-4380939.483642578,-11598623.275756836,-24860511.779785156,-38067184.44824219,7520898.342132568,21312355.041503906,3802703.619003296,16689474.105834961,7419261.932373047,-4307139.3966674805,-7821389.675140381,-25284126.28173828,-26321443.557739258,6414926.528930664,7785519.123077393,8013586.99798584,3396118.1640625,11960131.645202637,4209933.280944824,-17523996.353149414,-16622610.092163086,-25535507.202148438,8056076.0498046875,7363308.906555176,13219487.190246582,11964587.211608887,4565994.2626953125,-18746149.06311035,-18192684.173583984,-3155966.281890869,13331241.607666016,11198902.130126953,4569045.066833496,4107235.908508301
0.195,29868642.807006836,-22275049.209594727,-7069733.142852783,15579901.695251465,-27167728.424072266,56623779.296875,29234907.150268555,27526144.02770996,-95094085.69335938,-4984967.7085876465,-22165548.32458496,-21953432.083129883,-22261438.369750977,-56183071.13647461,56436836.24267578,33058849.334716797,7960759.162902832,-1091890.811920166,-2484694.9577331543,-10939734.45892334,-10375672.340393066,-36143035.888671875,-52929843.90258789,50098335.26611328,20093864.44091797,20042383.193969727,12456171.035766602,5931224.822998047,-4205215.930938721,-13197017.669677734,-26639986.038208008,-38101203.91845703,8655792.236328125,21129396.438598633,2132997.989654541,16324283.599853516,7657988.548278809,-4189112.1864318848,-8010454.177856445,-24888929.36706543,-26004171.37145996,7707438.4689331055,8985449.79095459,9327654.838562012,3988379.955291748,15274275.779724121,6566842.555999756,-16423416.137695312,-15574896.812438965,-25114826.202392578,9339401.245117188,8561203.956604004,14773497.581481934,15324853.897094727,6945172.309875488,-17858364.10522461,-17103378.295898438,2658308.267593384,14855821.60949707,14501898.765563965,6920232.772827148,6431380.748748779
0.2,26813446.044921875,-23818101.88293457,-7103460.788726807,14773817.06237793,-28389240.264892578,52776832.580566406,26340795.516967773,24674106.59790039,-98121162.41455078,-4984404.563903809,-22993812.561035156,-22775789.260864258,-23148042.678833008,-57150794.982910156,52330711.364746094,32867771.14868164,8717978.477478027,-358943.99881362915,-2003262.5198364258,-11217938.423156738,-10692163.467407227,-37378368.37768555,-53083621.978759766,53578983.306884766,19820827.48413086,20465694.427490234,12100906.372070312,7492707.252502441,-4053149.2233276367,-13411495.208740234,-27462312.698364258,-38440479.27856445,9060073.852539062,20692975.997924805,1781738.8772964478,18232152.938842773,8397902.488708496,-4035406.1126708984,-7734857.559204102,-25456504.821777344,-26656215.66772461,8147026.062011719,9392633.438110352,9721838.95111084,5001784.324645996,16434251.78527832,7837306.022644043,-16216632.843017578,-15578377.723693848,-25744184.494018555,9848387.718200684,8884850.50201416,14909527.778625488,16430675.506591797,8330521.583557129,-17999404.907226562,-17015964.50805664,3503156.900405884,15041582.107543945,15571321.487426758,8166364.669799805,7641840.934753418
0.205,24973243.713378906,-25217237.47253418,-5164527.893066406,13558150.291442871,-27796277.99987793,42111892.70019531,20341476.440429688,18853713.989257812,-103188163.75732422,-4732612.133026123,-21567691.802978516,-21278238.29650879,-21688999.17602539,-54900051.11694336,41346614.837646484,30717441.55883789,11249936.1038208,415106.8329811096,-534166.5148735046,-9217199.325561523,-8690715.789794922,-35025833.12988281,-50366119.384765625,50989765.16723633,18021095.275878906,22988100.051879883,12910749.435424805,9434143.06640625,-4040569.305419922,-12151844.024658203,-25959529.876708984,-36639251.708984375,6449584.9609375,18924209.594726562,2907898.9028930664,21007444.381713867,9194929.122924805,-3977927.2079467773,-7289604.187011719,-25435518.264770508,-26642957.68737793,5447417.736053467,6738463.401794434,6950583.934783936,4674147.129058838,13807323.455810547,6986505.031585693,-16577457.427978516,-16054073.333740234,-25850162.506103516,7262250.4234313965,6158438.682556152,11627717.971801758,13729561.805725098,7591845.989227295,-18382928.8482666,-17391197.204589844,-3356837.9878997803,11928997.993469238,12933124.542236328,7315980.911254883,6844349.8611450195
0.21,23886837.005615234,-27512445.4498291,-6305728.435516357,12817556.381225586,-27255960.46447754,33440052.032470703,16173490.524291992,14916372.299194336,-103613891.6015625,-4416919.708251953,-19720359.802246094,-19411754.608154297,-19837461.471557617,-50940868.37768555,32688011.169433594,28399271.01135254,13646001.815795898,628977.2987365723,598756.3133239746,-7010697.364807129,-6488316.059112549,-31378915.786743164,-45797298.431396484,44372791.2902832,16463586.807250977,25102851.86767578,14228679.656982422,10350296.020507812,-4191000.461578369,-10751363.754272461,-23353887.5579834,-32895866.39404297,3316220.760345459,17501422.882080078,4385581.016540527,22314008.712768555,9395877.838134766,-4075877.6664733887,-7126935.4820251465,-24260913.848876953,-25385040.283203125,2216575.3841400146,3566599.6074676514,3683542.490005493,3252388.7157440186,9079295.15838623,4653365.135192871,-16888328.552246094,-16226535.79711914,-24790166.8548584,4155722.6181030273,2936300.039291382,7818886.280059814,9063340.187072754,5266741.2757873535,-18310089.111328125,-17464384.078979492,-10629224.77722168,8178126.335144043,8409555.435180664,4994943.141937256,4582346.9161987305
0.215,25480403.900146484,-28859596.252441406,-11576221.466064453,14816562.65258789,-28989379.8828125,40430271.14868164,20594503.40270996,19424549.102783203,-96532463.07373047,-3831694.8413848877,-20430747.985839844,-20142818.450927734,-20641807.556152344,-51803436.279296875,39916110.99243164,30922641.75415039,15248515.129089355,896902.5015830994,740442.9316520691,-7399821.2814331055,-6953499.317169189,-31900993.34716797,-44919189.453125,45663196.5637207,19642906.188964844,25904138.565063477,15565058.708190918,9605283.737182617,-4705960.750579834,-11262302.39868164,-23115200.04272461,-31626819.610595703,5844197.2732543945,20771060.943603516,6034505.844116211,21765560.150146484,8863535.88104248,-4551975.727081299,-7762649.059295654,-23553916.931152344,-24607921.600341797,4772127.628326416,6048414.707183838,6201956.748962402,3241565.704345703,6390360.355377197,2744813.4422302246,-17170753.479003906,-16302742.004394531,-24110237.12158203,6711716.175079346,5415792.465209961,8878810.88256836,6557691.0972595215,3210623.5027313232,-18266252.517700195,-17455062.866210938,-8502929.6875,9060506.820678711,6021744.251251221,3031933.546066284,2534241.6763305664
0.22,28142053.604125977,-28261442.184448242,-16549802.780151367,17500299.45373535,-32281181.33544922,58649463.65356445,29854166.03088379,28535236.358642578,-87184074.40185547,-3715787.172317505,-23789674.758911133,-23476230.62133789,-24115934.371948242,-58001842.4987793,58216392.517089844,36887153.62548828,15259403.228759766,808394.3128585815,-193887.859582901,-10455384.254455566,-10123754.501342773,-36915115.35644531,-48968307.49511719,57090629.57763672,26544639.587402344,25283113.479614258,16122180.938720703,7853375.434875488,-5391378.402709961,-13742292.404174805,-25614040.37475586,-33814788.818359375,14244970.321655273,27709300.994873047,7494877.338409424,20675472.259521484,8174266.815185547,-5220885.276794434,-8819927.215576172,-23804763.793945312,-24893041.610717773,13324772.834777832,14383986.473083496,14654508.590698242,5510703.563690186,7954381.942749023,2752058.744430542,-17057601.928710938,-16208930.969238281,-24305837.631225586,15058091.163635254,13850084.30480957,15130647.659301758,8234586.715698242,2991297.2450256348,-18239110.946655273,-17299188.6138916,2117234.945297241,15129597.663879395,7724514.484405518,2866033.3156585693,2216308.116912842
0.225,24125911.712646484,-28774225.23498535,-16685045.24230957,13917400.360107422,-33413593.292236328,61404560.08911133,28309358.596801758,26762952.80456543,-84526855.46875,-5403884.410858154,-25463914.87121582,-25156896.591186523,-25872804.641723633,-58442993.1640625,60810802.4597168,35244400.02441406,11148199.081420898,-1608831.286430359,-1775062.2034072876,-12270536.422729492,-11947757.720947266,-38361068.72558594,-49433700.56152344,61482627.868652344,27546272.27783203,21858375.549316406,14391915.321350098,6569212.913513184,-5143845.081329346,-14818071.365356445,-25891540.52734375,-32988739.013671875,18667520.52307129,28732591.62902832,6237442.493438721,19660985.946655273,8016303.062438965,-4988010.883331299,-8576836.585998535,-22622991.56188965,-23787387.84790039,17872735.97717285,18801805.49621582,19107746.124267578,6992569.446563721,10959667.205810547,4251622.676849365,-15466839.790344238,-14848847.389221191,-23064981.46057129,19396583.557128906,18418901.443481445,19662342.071533203,11185803.413391113,4380129.814147949,-16904275.89416504,-15880704.879760742,8557843.208312988,19737506.866455078,10634219.1696167,4155149.9366760254,3552328.8249969482
0.23,8867232.322692871,-33402526.85546875,-12406126.976013184,1154165.7447814941,-29731658.935546875,31307470.321655273,7210865.9744262695,5591180.801391602,-91551116.94335938,-8487974.166870117,-21165555.953979492,-21092561.721801758,-21710237.503051758,-43009159.088134766,30579288.482666016,18673460.006713867,1919572.114944458,-6807382.583618164,-2841913.938522339,-8898240.089416504,-8392652.51159668,-28998683.92944336,-37496181.48803711,43852264.404296875,15675004.005432129,14858870.506286621,9868836.402893066,6778085.708618164,-2869467.02003479,-10937598.22845459,-19287677.764892578,-23070354.461669922,10535154.342651367,16819316.864013672,70862.70302534103,17997734.06982422,8435389.518737793,-2765430.688858032,-5541211.128234863,-17746570.587158203,-18889329.91027832,9742846.488952637,10820116.04309082,11024298.667907715,4379616.260528564,10965636.253356934,5676744.9378967285,-11815014.839172363,-11337976.455688477,-18176572.799682617,11352082.252502441,10501592.636108398,16422224.044799805,11096107.482910156,5933732.032775879,-13233212.4710083,-12282135.963439941,2055873.3940124512,16731063.842773438,10492397.30834961,5518991.947174072,5216801.643371582
0.235,-10527114.868164062,-39902732.849121094,-8183338.165283203,-13514203.071594238,-23315429.6875,-12737424.850463867,-20577430.725097656,-22085512.161254883,-101402572.63183594,-10542861.938476562,-12570006.370544434,-12936785.697937012,-13354500.770568848,-17767423.629760742,-13382508.277893066,-3680195.8084106445,-8092819.2138671875,-11963669.776916504,-2532028.4366607666,-1725998.4016418457,-952411.8900299072,-12833561.897277832,-16887199.40185547,15085587.501525879,-1817968.9645767212,7197213.649749756,4674494.26651001,7930896.282196045,851633.9659690857,-3372786.521911621,-8057415.962219238,-7551969.528198242,-4577709.674835205,-815051.1384010315,-8448472.023010254,15456253.051757812,8851259.231567383,873935.6994628906,-683015.4657363892,-10453591.346740723,-11468692.779541016,-5396475.315093994,-4033185.9588623047,-3942441.940307617,-835985.3029251099,8175709.7244262695,6541941.6427612305,-6944733.142852783,-6363886.35635376,-10896185.874938965,-3467310.905456543,-4413019.65713501,8487930.297851562,8305897.7127075195,7049140.453338623,-8042556.7626953125,-7197443.008422852,-9796716.690063477,8865895.27130127,7673405.170440674,6562816.143035889,6507245.063781738
0.24,-22235088.348388672,-43441165.924072266,-7298058.032989502,-20313535.690307617,-19235414.505004883,-35703903.19824219,-34194561.00463867,-35576408.38623047,-105065429.6875,-10286945.343017578,-6445315.837860107,-7127152.442932129,-7409949.779510498,26170.963421463966,-36139652.252197266,-15115055.084228516,-12477667.808532715,-14145366.668701172,-1746645.6890106201,3171518.087387085,4096148.0140686035,-1616613.3880615234,-1186575.5319595337,176555.63354492188,-10384339.332580566,3511221.408843994,1879940.2713775635,8395126.342773438,3747435.0929260254,2113185.6441497803,358917.0575141907,3670304.536819458,-12285007.47680664,-9505269.050598145,-13420460.70098877,13420069.694519043,8835882.186889648,3685127.4967193604,2909307.7182769775,-4601959.228515625,-5535539.150238037,-13044065.475463867,-11542971.61102295,-11479995.727539062,-3586459.6366882324,7432286.262512207,7829996.109008789,-2672788.619995117,-1933465.3615951538,-5061151.504516602,-10966461.181640625,-12006976.127624512,4672327.995300293,7610227.584838867,8456145.286560059,-3471321.5827941895,-2665552.1392822266,-12399304.389953613,4868083.953857422,6994534.492492676,8098767.280578613,7968533.039093018
0.245,-23694889.068603516,-43435092.92602539,-8985671.997070312,-18837902.069091797,-19995944.97680664,-29187938.690185547,-30021650.314331055,-31393215.17944336,-101411338.80615234,-9403211.59362793,-6968842.029571533,-7585057.735443115,-7858114.719390869,1612096.667289734,-29437679.290771484,-11650485.99243164,-9955755.233764648,-13810941.696166992,-2141398.6682891846,2111323.356628418,2973406.5532684326,-1345007.5387954712,1583681.9410324097,5921117.305755615,-6158267.498016357,4947804.927825928,2272803.783416748,7493025.779724121,4077371.597290039,1698847.770690918,1486328.8402557373,5384244.441986084,-7548017.978668213,-5241924.285888672,-12334275.245666504,13408926.963806152,8622897.148132324,3972275.733947754,3202204.2274475098,-2794490.337371826,-3786923.64692688,-8245709.419250488,-6777683.258056641,-6746432.781219482,-1735285.1629257202,11069876.670837402,9824725.151062012,-625990.9272193909,92449.1360783577,-3296128.511428833,-6378761.768341064,-7273129.940032959,8246815.6814575195,11223773.002624512,10321514.129638672,-1302259.4451904297,-540681.6601753235,-3792527.198791504,8247771.263122559,10682649.612426758,10116801.261901855,9756083.488464355
0.25,-22625799.17907715,-43732872.009277344,-10652708.053588867,-17035223.00720215,-22887228.01208496,-17137371.063232422,-23066131.591796875,-24501161.575317383,-96774826.04980469,-9789000.511169434,-10908576.011657715,-11235184.669494629,-11559152.603149414,-5293595.314025879,-17249767.303466797,-5154088.973999023,-5479858.3984375,-13343001.365661621,-3399156.093597412,-1707167.7446365356,-1060483.8132858276,-6679254.531860352,-3695276.975631714,14834550.857543945,206394.79160308838,8166327.476501465,3937205.7914733887,6513418.674468994,2493640.661239624,-2100274.8012542725,-2098668.8137054443,1222566.7238235474,-388287.36543655396,1266228.199005127,-8850934.982299805,15087751.388549805,8669010.162353516,2431560.99319458,1354447.841644287,-4352103.233337402,-5431996.3455200195,-1192358.6130142212,290192.574262619,188866.0043478012,1234026.551246643,15064262.390136719,10961645.126342773,-1169344.3059921265,-608403.0270576477,-4887036.323547363,412938.2073879242,-200250.044465065,13184432.983398438,15146743.774414062,11202589.988708496,-1786484.0030670166,-1116605.9970855713,3060137.987136841,13188473.70147705,14696100.234985352,10993563.652038574,10621099.472045898
0.255,-24839393.615722656,-46324600.21972656,-11371603.965759277,-19457174.30114746,-23729568.481445312,-19874507.904052734,-24475908.279418945,-25945281.982421875,-96136444.09179688,-10655761.71875,-12246129.035949707,-12406473.159790039,-12799009.323120117,-8904123.306274414,-19896921.157836914,-5964596.271514893,-3746159.791946411,-13405700.68359375,-3284757.614135742,-2646862.268447876,-2263003.8261413574,-9432314.8727417,-7900317.192077637,11849899.291992188,-1142541.1701202393,9842440.605163574,4950321.197509766,7016515.731811523,1081313.7292861938,-4044497.489929199,-5105854.9880981445,-2591808.795928955,-1542828.3214569092,-27883.080765604973,-7714252.948760986,16624280.92956543,8962404.251098633,1140403.2707214355,187.9889314295724,-6779077.053070068,-7816407.203674316,-2573670.8641052246,-978707.2539329529,-1182749.3906021118,1145315.8855438232,14496611.595153809,9839550.018310547,-3142581.2244415283,-2658412.456512451,-7210598.468780518,-929552.1974563599,-1410588.3836746216,12788716.316223145,14593695.640563965,9895048.141479492,-3706147.9091644287,-3064676.284790039,-1560915.470123291,12934161.186218262,14164705.276489258,9620191.57409668,9507349.014282227
0.26,-27689064.025878906,-48751930.236816406,-11895285.606384277,-22481332.778930664,-22101016.998291016,-30609369.2779541,-29267265.31982422,-30715311.05041504,-98393402.09960938,-10291561.126708984,-9949470.520019531,-10139986.991882324,-10635739.32647705,-6954593.181610107,-30663278.579711914,-10960335.731506348,-4415298.938751221,-12950349.807739258,-1081159.3532562256,48294.879496097565,184608.19125175476,-8175541.877746582,-8195199.966430664,2549731.0161590576,-7302569.86618042,9975821.495056152,5245778.0838012695,8663271.9039917,801678.9555549622,-2756866.455078125,-5576402.187347412,-3777382.3738098145,-8962876.319885254,-6278847.217559814,-9178679.466247559,16883947.372436523,9101260.1852417,959664.3447875977,-4531.764425337315,-8406983.375549316,-9305256.843566895,-10090340.614318848,-8498046.875,-8577249.526977539,-1515205.0256729126,10141109.466552734,7270342.826843262,-5026947.498321533,-4453619.480133057,-8566055.297851562,-8205909.729003906,-8771862.983703613,8156001.091003418,10363408.088684082,7292337.894439697,-5622776.508331299,-4890900.135040283,-11723243.713378906,8395800.590515137,9877284.049987793,7095619.201660156,7181122.303009033
0.265,-27047334.671020508,-48602405.5480957,-12434720.039367676,-21988487.243652344,-21241598.12927246,-33499576.568603516,-29026054.38232422,-30437957.763671875,-100083000.18310547,-9379933.35723877,-8398673.057556152,-8602422.714233398,-9199238.777160645,-4965854.644775391,-33742927.55126953,-12264383.316040039,-4853082.656860352,-11998094.55871582,884811.1033439636,2117699.8615264893,2079215.2881622314,-7092368.602752686,-7567604.541778564,-355802.0293712616,-9771924.018859863,9990664.4821167,5551970.958709717,9748056.411743164,737047.553062439,-1402905.7025909424,-5340656.280517578,-3661214.590072632,-13157709.121704102,-8833354.949951172,-10318317.413330078,16402181.625366211,8941784.858703613,837173.7599372864,-30363.65658044815,-9440186.500549316,-10286346.435546875,-14147810.935974121,-12759325.02746582,-12578630.447387695,-3246714.3535614014,6525668.144226074,5122124.195098877,-6531789.302825928,-5822704.792022705,-9360769.271850586,-12170520.782470703,-12874863.624572754,5082057.952880859,6843925.476074219,5209405.422210693,-7216801.166534424,-6419433.116912842,-15778836.250305176,5300148.010253906,6344508.647918701,5196135.520935059,5161550.521850586
0.27,-24414461.135864258,-47129135.13183594,-12348274.230957031,-19912752.151489258,-23211372.37548828,-28529516.220092773,-25713762.283325195,-27099941.25366211,-99765052.79541016,-10089644.432067871,-10657887.45880127,-10766413.688659668,-11348193.168640137,-6429367.542266846,-29011842.727661133,-9977676.391601562,-4697579.383850098,-11941490.173339844,336066.9016838074,730656.1470031738,682825.2673149109,-8725570.678710938,-8366923.3322143555,3664906.0249328613,-7314083.099365234,9829389.572143555,5758595.943450928,9541584.968566895,-129941.62738323212,-2513186.6931915283,-6236540.3175354,-3819527.1492004395,-10944074.630737305,-6329069.137573242,-9880160.331726074,16088579.177856445,8754525.184631348,-267003.50642204285,-1178024.5304107666,-10847052.574157715,-11792260.16998291,-11751813.888549805,-10534340.858459473,-10275439.262390137,-2752264.0228271484,5450736.522674561,3959992.1703338623,-8422386.169433594,-7679401.397705078,-10771358.489990234,-9909833.908081055,-10686788.558959961,5551779.747009277,5719886.302947998,4123490.333557129,-9102610.58807373,-8377882.00378418,-12151324.272155762,5712938.7855529785,5354079.723358154,4160284.996032715,3816235.7807159424
0.275,-23128011.70349121,-46401390.075683594,-11654341.697692871,-19902435.302734375,-26032773.971557617,-26240434.646606445,-25773160.934448242,-27123458.862304688,-97631278.99169922,-12254820.823669434,-14382871.627807617,-14462890.625,-14874404.907226562,-9671034.812927246,-26854164.123535156,-9766725.540161133,-5408139.705657959,-13012418.746948242,-1736933.5889816284,-2050731.4205169678,-1920137.2861862183,-11463829.040527344,-10249237.060546875,6432823.657989502,-5456791.400909424,8574432.373046875,5204798.698425293,8957144.737243652,-1350403.4280776978,-4800992.012023926,-7952549.457550049,-4894782.543182373,-7436760.902404785,-4363527.297973633,-9388175.964355469,15813581.466674805,8732077.598571777,-1734605.312347412,-2662705.421447754,-12735719.680786133,-13777896.881103516,-8223793.983459473,-6945083.6181640625,-6873342.990875244,-1841711.6403579712,5084685.325622559,3177835.22605896,-10662081.718444824,-10029396.057128906,-12785906.791687012,-6518946.647644043,-7315154.552459717,6489368.438720703,5217251.777648926,3376778.1257629395,-11261782.6461792,-10614624.0234375,-8440366.744995117,6653787.136077881,5030794.620513916,3263382.67326355,2724571.943283081
0.28,-21860599.517822266,-45315834.045410156,-10910655.02166748,-20550951.00402832,-26230987.548828125,-27533250.80871582,-27674377.44140625,-28939485.549926758,-93607528.68652344,-12888833.045959473,-15332441.329956055,-15561287.879943848,-15769922.256469727,-11912914.276123047,-28122659.68322754,-12062731.742858887,-6604314.804077148,-13383399.00970459,-2435973.1674194336,-2887096.166610718,-2570622.444152832,-12907255.172729492,-12310046.195983887,6273532.867431641,-6213497.161865234,6923540.5921936035,4215673.923492432,8976458.549499512,-1828723.7882614136,-5760291.576385498,-9273162.841796875,-6872590.065002441,-6334705.829620361,-5093848.705291748,-9945385.932922363,15034990.310668945,8737937.927246094,-2240716.6957855225,-3204739.3321990967,-14163622.856140137,-15151278.495788574,-7223023.891448975,-5794387.8173828125,-5902068.614959717,-1745917.9162979126,4400008.678436279,2658197.8797912598,-11931322.09777832,-11489934.921264648,-14144486.427307129,-5529520.511627197,-6305170.53604126,5927998.065948486,4451159.0003967285,2846764.326095581,-12572339.057922363,-11824785.232543945,-8318444.25201416,6150932.788848877,4270379.543304443,2570851.3259887695,2074108.362197876
0.285,-17110054.01611328,-41292060.85205078,-9239391.326904297,-17789236.068725586,-22857744.216918945,-24001855.850219727,-24816448.211669922,-25936962.127685547,-88384651.18408203,-10146441.459655762,-12562494.277954102,-12939077.377319336,-13064446.449279785,-11701155.662536621,-24492444.99206543,-11636753.08227539,-5859843.730926514,-11611602.783203125,-711337.8643989563,-1419331.9082260132,-1150438.7855529785,-12312961.57836914,-13425434.112548828,8410452.842712402,-5766115.188598633,6907169.818878174,4168491.840362549,9619277.000427246,-1415588.9749526978,-5044849.395751953,-9534173.965454102,-8502947.807312012,-5459147.4533081055,-4731976.509094238,-10627618.789672852,14186213.493347168,8710070.610046387,-1596440.076828003,-2821378.231048584,-14250089.645385742,-15117566.108703613,-6410764.217376709,-4967060.565948486,-5050980.567932129,-1492187.6192092896,4564107.418060303,2805960.6552124023,-11471047.401428223,-11189497.947692871,-13949189.186096191,-4715445.041656494,-5416687.488555908,5796915.054321289,4626735.210418701,2975457.6683044434,-12276606.559753418,-11325132.369995117,-7573812.484741211,6030434.131622314,4231475.830078125,2644848.346710205,2305692.434310913
0.29,-10168851.852416992,-34938697.814941406,-4792080.402374268,-12115146.63696289,-17930318.83239746,-15277788.162231445,-17816238.403320312,-18790689.46838379,-84373687.74414062,-5862940.311431885,-8440215.110778809,-8766271.591186523,-8952269.554138184,-8130953.788757324,-15719182.968139648,-7185480.59463501,-2391733.169555664,-8628245.35369873,1777254.9390792847,615886.3306045532,644684.7915649414,-9773235.321044922,-11489270.210266113,13069212.913513184,-2506959.6767425537,9183900.833129883,5767126.560211182,10669727.325439453,-816446.3639259338,-3884543.4188842773,-8425423.622131348,-7444370.269775391,-3002470.2548980713,-1579712.6293182373,-10524202.346801758,14362943.649291992,8925322.532653809,-736190.915107727,-2335536.7183685303,-12900872.230529785,-13808549.880981445,-3950965.166091919,-2561402.0824432373,-2584423.542022705,-530870.9144592285,5783056.259155273,3319175.4817962646,-10208786.010742188,-9971767.42553711,-12497861.862182617,-2315922.498703003,-2936017.0364379883,7684893.608093262,5845072.269439697,3514095.0679779053,-11000328.063964844,-9973925.590515137,-3468595.027923584,7791645.526885986,5229607.582092285,3141034.8415374756,2898816.3471221924
0.295,-6709502.696990967,-30509405.1361084,1649947.4048614502,-8859098.434448242,-13964928.62701416,-12514348.983764648,-15126080.513000488,-16071262.35961914,-83602912.90283203,-3348520.517349243,-5209960.460662842,-5388088.703155518,-5694638.252258301,-1616426.5871047974,-13020948.41003418,-4610631.942749023,914604.8426628113,-6713794.231414795,2963897.705078125,2361540.5559539795,2317274.0936279297,-5758891.582489014,-5735898.971557617,13341001.510620117,-1089806.1990737915,11743260.383605957,7671306.133270264,12093719.482421875,-312816.7390823364,-2782169.5804595947,-5850870.132446289,-2864781.8565368652,-2267178.773880005,-192727.11873054504,-10681199.073791504,15505570.411682129,9538262.367248535,-206113.2788658142,-1844198.226928711,-10539614.6774292,-11708878.517150879,-3219288.8259887695,-1759266.3764953613,-1879832.7445983887,-401318.0136680603,6299050.807952881,3483136.1770629883,-9222981.452941895,-8940990.447998047,-10485109.329223633,-1596044.898033142,-2209894.895553589,9539961.814880371,6263082.504272461,3757575.750350952,-9660977.363586426,-8734010.696411133,-708613.395690918,9440297.12677002,5626415.252685547,3302761.0778808594,3031695.3659057617
0.3,-9036581.039428711,-31153598.78540039,5561084.747314453,-10742694.854736328,-12330451.011657715,-21171062.469482422,-20193784.713745117,-21299133.30078125,-85026885.98632812,-3656608.819961548,-3574549.436569214,-3736339.330673218,-4149756.908416748,4043099.880218506,-21793893.814086914,-8110779.762268066,670988.7981414795,-6973066.329956055,2410931.348800659,3920529.60395813,4172805.3092956543,-2203144.7887420654,177589.13338184357,6584863.185882568,-5260904.312133789,12150458.335876465,7795975.208282471,13365953.44543457,488145.29180526733,-1471219.3012237549,-2811283.826828003,2345150.2323150635,-6442722.797393799,-4283664.226531982,-12444446.563720703,15979355.812072754,10119839.668273926,385484.33780670166,-759982.8243255615,-7895674.228668213,-9324725.151062012,-7379593.849182129,-5809922.218322754,-6041754.245758057,-2496001.2435913086,5205702.781677246,3450561.761856079,-8251327.5146484375,-7934875.011444092,-8356625.556945801,-5653871.059417725,-6340731.620788574,8529233.932495117,5048107.147216797,3795664.5488739014,-8297022.819519043,-7452141.761779785,-4455916.881561279,8323074.3408203125,4534049.987792969,3358088.731765747,3023393.154144287
0.305,-12823913.57421875,-35356342.31567383,3316008.5678100586,-14142477.989196777,-13371119.499206543,-30839492.797851562,-25424518.585205078,-26800016.403198242,-85470382.69042969,-5033388.137817383,-3736127.6149749756,-4006506.4430236816,-4481706.142425537,3970950.3650665283,-31478878.021240234,-13029004.096984863,-2555711.507797241,-8287323.951721191,1244781.3749313354,4766544.342041016,5366729.259490967,-1641398.9067077637,896877.646446228,185739.9344444275,-11017199.516296387,10516454.696655273,6040837.287902832,13588642.120361328,1676357.1500778198,-242921.53120040894,-1243348.1216430664,3914605.8559417725,-12343041.41998291,-9907484.05456543,-14766851.425170898,14596209.526062012,10089213.371276855,1389571.0706710815,900283.2174301147,-6111475.467681885,-7527697.0863342285,-13152208.32824707,-11709945.678710938,-11822034.83581543,-5704962.730407715,3516875.982284546,3797224.521636963,-6815354.824066162,-6505165.100097656,-6750813.4841918945,-11360137.939453125,-12127098.083496094,4934686.660766602,3364162.9219055176,4123467.445373535,-6838458.061218262,-5925889.015197754,-11915791.511535645,4819471.836090088,2927456.6173553467,3877038.2404327393,3595746.5171813965
0.31,-12933485.984802246,-38820549.01123047,-3120795.965194702,-14276411.056518555,-16487779.61730957,-28192958.83178711,-22226129.53186035,-23801998.138427734,-83108207.70263672,-5299014.568328857,-5633721.351623535,-5936934.947967529,-6402585.029602051,-2090041.8758392334,-28681251.525878906,-11581314.086914062,-4501603.126525879,-8466671.94366455,1038939.7144317627,4117752.0751953125,4639846.8017578125,-4238027.095794678,-4137985.7063293457,2457916.021347046,-11134526.252746582,9405884.742736816,4873808.860778809,12887111.66381836,2611381.5307617188,173335.28399467468,-2071474.0753173828,945966.0649299622,-13606568.336486816,-9978947.639465332,-14727338.790893555,12324648.8571167,9505603.790283203,2378199.577331543,2187582.25440979,-6173467.15927124,-7289699.077606201,-14228845.596313477,-13148908.615112305,-12998455.047607422,-7671396.732330322,1899434.0896606445,4001597.4044799805,-5789566.993713379,-5458332.538604736,-6572524.547576904,-12565872.192382812,-13353507.041931152,1493924.856185913,1896217.942237854,4219336.032867432,-6143838.405609131,-5111377.239227295,-15233503.341674805,1562813.2820129395,1460888.9818191528,4159617.9008483887,4069901.466369629
0.315,-9793056.48803711,-39073680.87768555,-8017582.893371582,-11603158.950805664,-19755558.013916016,-14909831.047058105,-12826210.021972656,-14430958.74786377,-79357170.10498047,-4048666.477203369,-7987967.014312744,-8196893.692016602,-8580210.68572998,-8530579.566955566,-15208942.413330078,-3706467.628479004,-2453468.5611724854,-6550560.95123291,2411021.2326049805,2501405.715942383,2548321.008682251,-7049639.701843262,-9505775.451660156,11663270.950317383,-5024581.9091796875,10546929.359436035,6287189.00680542,12540467.262268066,2777871.3703155518,-167921.84114456177,-3924948.215484619,-3126012.3252868652,-9196693.420410156,-4001408.100128174,-11162891.387939453,11121659.278869629,9025644.302368164,2768312.692642212,2392180.919647217,-7694835.662841797,-8471416.473388672,-9778850.555419922,-8945017.81463623,-8690129.280090332,-7519402.027130127,50317.01177358627,3105610.8474731445,-6244194.030761719,-5844416.618347168,-7819118.499755859,-8347275.733947754,-9058891.296386719,197375.0740289688,184664.13021087646,3220445.156097412,-6912479.400634766,-5862481.117248535,-11455170.631408691,382031.70895576477,-193401.66449546814,3169955.015182495,3211751.937866211
0.32,-7724960.803985596,-37197162.62817383,-7843976.020812988,-10430856.704711914,-20638496.39892578,-5843731.880187988,-7399762.6304626465,-8920921.325683594,-77407936.0961914,-2672545.909881592,-8667759.895324707,-8819891.929626465,-9107086.181640625,-9625525.47454834,-6104059.219360352,2206368.2079315186,1214946.5084075928,-4054525.375366211,4140192.5086975098,1442700.3860473633,1141582.8466415405,-7208437.442779541,-10179578.78112793,17973001.48010254,69576.62105560303,12511445.045471191,8854666.709899902,13034319.877624512,2499652.624130249,-418452.2330760956,-4662651.538848877,-4769945.6214904785,-4941950.32119751,892552.7334213257,-6735633.373260498,11511326.789855957,9078931.80847168,2653661.012649536,1896879.0769577026,-9005438.804626465,-9628735.542297363,-5713303.565979004,-4786666.8701171875,-4630043.029785156,-6217132.568359375,-1179324.5077133179,1871993.064880371,-7398357.391357422,-6980847.358703613,-9120010.375976562,-4374773.5023498535,-4929099.559783936,1131495.8333969116,-1052384.614944458,1985533.4758758545,-8151011.4669799805,-7194520.473480225,-5962064.266204834,1354930.1624298096,-1290223.3600616455,1879972.219467163,1776020.884513855
0.325,-8461063.385009766,-35399467.46826172,-3879023.790359497,-12465932.846069336,-18261692.04711914,-10613962.173461914,-11052555.084228516,-12483198.165893555,-79277793.88427734,-2747869.7299957275,-6911190.509796143,-7124424.457550049,-7376192.569732666,-5456295.967102051,-10998787.879943848,-248757.7199935913,1994230.9856414795,-3534153.938293457,4128860.4736328125,1589617.371559143,1372367.8588867188,-4997728.8246154785,-7076881.408691406,14738945.960998535,-1893980.622291565,12506765.365600586,9201730.728149414,13106843.948364258,2447321.891784668,-85410.24476289749,-3839375.9727478027,-4183997.15423584,-6244246.482849121,-1107161.7603302002,-5392426.013946533,12214090.347290039,9458796.501159668,2592234.6115112305,1642691.731452942,-8995778.08380127,-9658110.618591309,-7237933.158874512,-6080955.028533936,-5985200.40512085,-5152332.782745361,-113444.58162784576,2342919.8265075684,-7421675.205230713,-7088754.177093506,-9270597.457885742,-5784918.308258057,-6236304.28314209,3073883.295059204,-91258.81642103195,2556758.403778076,-8155958.17565918,-7311433.3152771,-5671502.590179443,3356073.3795166016,-271895.170211792,2526835.2031707764,2061094.9993133545
0.33,-9232594.49005127,-34265460.96801758,442756.2654018402,-14731843.948364258,-14711105.346679688,-22900173.18725586,-18125997.54333496,-19489810.943603516,-83644912.71972656,-4419840.335845947,-4437074.184417725,-4691000.461578369,-4986472.129821777,-959295.6900596619,-23417308.807373047,-7911017.894744873,-1040134.7875595093,-5573519.706726074,1862257.0037841797,2169488.4300231934,2189698.6961364746,-2978554.9640655518,-4822715.282440186,5385270.118713379,-8695402.145385742,10050642.967224121,6384467.601776123,11686597.82409668,2749914.6461486816,518581.44998550415,-2868474.4834899902,-3912302.255630493,-11832268.714904785,-7736876.964569092,-8030396.461486816,12043530.464172363,9784406.661987305,2801045.6562042236,2053083.4197998047,-8332636.833190918,-9102508.544921875,-12812624.93133545,-11602637.29095459,-11431354.522705078,-5190197.467803955,2520621.7765808105,4758588.790893555,-6148297.7867126465,-5880630.970001221,-8728974.342346191,-11217188.835144043,-11798540.115356445,4287992.000579834,2466629.0283203125,5087616.443634033,-6905446.0525512695,-6146330.3565979,-10933548.927307129,4661207.19909668,2155245.304107666,5175333.499908447,4454747.676849365
0.335,-7407120.704650879,-33030231.475830078,2676053.047180176,-14159994.125366211,-13201359.748840332,-29856786.727905273,-20272636.41357422,-21584590.911865234,-86690956.11572266,-6246011.734008789,-3657240.867614746,-3821441.650390625,-4201958.179473877,-195132.64298439026,-30414100.646972656,-12873169.898986816,-4353629.589080811,-7856944.0841674805,-659384.4294548035,2230441.3318634033,2277166.6049957275,-2977098.226547241,-5859663.963317871,-1168389.7972106934,-13517580.98602295,7586710.9298706055,3289684.772491455,9824223.518371582,2840824.604034424,768792.0928001404,-3171116.1136627197,-5200506.210327148,-16106142.044067383,-12417700.76751709,-11657830.238342285,11253045.082092285,9975899.696350098,2838761.329650879,2533338.785171509,-8605044.3649292,-9475769.04296875,-16817398.071289062,-15736594.200134277,-15542657.852172852,-6344070.4345703125,3630799.0550994873,6592703.819274902,-5689835.548400879,-5342195.510864258,-9075544.357299805,-15225797.653198242,-16122489.929199219,3904796.1235046387,3546079.8740386963,6971238.613128662,-6441852.09274292,-5753883.361816406,-15737359.046936035,4316009.998321533,3072178.840637207,6956553.936004639,6310405.254364014
0.34,-4449858.18862915,-31585571.2890625,2194201.2310028076,-11664369.583129883,-14667228.698730469,-27550483.70361328,-16411577.224731445,-17722219.467163086,-85632606.50634766,-6653926.372528076,-5066237.926483154,-5125223.159790039,-5577630.996704102,-3121127.6054382324,-28099321.365356445,-12175397.872924805,-4780204.296112061,-7841721.534729004,-1211581.826210022,1537511.2295150757,1479973.6738204956,-4893753.528594971,-8958740.234375,-478306.8001270294,-13260524.74975586,7325627.80380249,3082227.2300720215,9379372.596740723,2118378.8776397705,125033.33389759064,-4990701.198577881,-7374883.651733398,-15798634.52911377,-12244064.331054688,-12810077.667236328,10863881.11114502,10066969.871520996,2123472.213745117,2003766.7751312256,-10624197.006225586,-11579245.567321777,-16244651.794433594,-15232957.83996582,-15194550.514221191,-7383752.822875977,2396157.97996521,5752678.394317627,-7781327.724456787,-7285832.405090332,-11197093.963623047,-14765041.35131836,-15827568.054199219,3369958.6391448975,2258873.93951416,6105482.10144043,-8427413.940429688,-7768114.08996582,-15306718.826293945,3739520.0729370117,1816040.8735275269,5775996.685028076,5410563.4689331055
0.345,-3840496.301651001,-31153150.55847168,-137468.53172779083,-10516475.677490234,-17003271.102905273,-23658021.926879883,-12605645.179748535,-13996261.596679688,-81933166.50390625,-5637612.342834473,-7005005.836486816,-7111543.655395508,-7560122.966766357,-7368572.71194458,-24195215.225219727,-9903921.127319336,-3258326.292037964,-5776440.620422363,54606.38552904129,432320.62458992004,446256.51836395264,-7634926.319122314,-12356447.219848633,3088625.907897949,-11055335.04486084,8667445.182800293,5460085.868835449,10469829.559326172,699871.0632324219,-1467922.8067398071,-7678514.9574279785,-9950051.307678223,-13012166.023254395,-10190853.118896484,-11142423.629760742,11356121.063232422,9941466.331481934,718309.3428611755,162811.86044216156,-13822403.907775879,-14821546.55456543,-13452772.14050293,-12337745.666503906,-12468272.20916748,-6667863.845825195,1726624.846458435,3345410.108566284,-11487021.446228027,-10950330.73425293,-14452537.536621094,-12040691.375732422,-12883288.383483887,4795645.236968994,1523041.3675308228,3644865.2744293213,-12081676.483154297,-11332384.10949707,-12162713.050842285,5115684.509277344,1277006.2685012817,3130833.864212036,2955687.0460510254
0.35,-6515841.007232666,-32777679.443359375,-2813092.9470062256,-12149362.564086914,-18147182.46459961,-25453378.677368164,-13524544.715881348,-15000363.34991455,-79852310.18066406,-4813973.426818848,-7996419.906616211,-8271381.378173828,-8602278.709411621,-11303397.178649902,-25938901.901245117,-10397930.145263672,-2861090.660095215,-4215205.192565918,1149233.4604263306,-553100.9435653687,-284915.566444397,-10101339.340209961,-15690524.101257324,2722475.051879883,-11103993.41583252,9368930.81665039,7442841.529846191,11445308.685302734,-382087.46910095215,-3056537.389755249,-10036830.90209961,-12909483.909606934,-11993501.663208008,-10171473.503112793,-9182088.851928711,12248166.08428955,9548739.433288574,-373598.3669757843,-1631466.1502838135,-16341131.210327148,-17326776.5045166,-12669036.865234375,-11424541.473388672,-11542296.409606934,-4249250.411987305,3580946.922302246,2201452.4936676025,-13693049.430847168,-13235917.091369629,-16856462.478637695,-11236436.84387207,-11687490.463256836,7404911.518096924,3374312.8776550293,2467618.465423584,-14496938.705444336,-13546391.487121582,-12735324.85961914,7700760.364532471,3242557.7640533447,2133414.7453308105,1916326.0459899902
0.355,-10483719.825744629,-36018848.41918945,-5447331.90536499,-15260409.355163574,-19036098.48022461,-30055953.979492188,-17281068.801879883,-18720291.137695312,-81170768.73779297,-5807480.812072754,-8681301.11694336,-9075345.993041992,-9239371.299743652,-14594743.728637695,-30434551.239013672,-13086666.107177734,-4830315.589904785,-4987800.121307373,740279.6149253845,-1109077.0959854126,-670784.3542098999,-11522704.124450684,-18658004.760742188,-1650231.7190170288,-13698258.399963379,8143730.163574219,6994650.840759277,11059418.678283691,62612.853944301605,-3182813.882827759,-10494064.331054688,-14837241.172790527,-14267688.751220703,-12517771.72088623,-9323927.879333496,12483559.608459473,9139004.707336426,60419.317334890366,-1340722.680091858,-15727113.723754883,-16688884.735107422,-15144474.983215332,-13919821.739196777,-13911102.294921875,-2377265.453338623,5885748.863220215,3600030.1837921143,-11684483.528137207,-11290463.4475708,-16007820.129394531,-13706704.139709473,-14022678.37524414,7903029.441833496,5729675.29296875,3866525.888442993,-12875331.87866211,-11783059.120178223,-18318824.768066406,8142181.396484375,5511781.215667725,3883946.8955993652,3499216.7949676514
0.36,-14250680.923461914,-39455467.224121094,-9093215.942382812,-18395263.671875,-21972013.473510742,-30501207.35168457,-19833492.279052734,-21114561.080932617,-83473251.34277344,-8672182.083129883,-10654146.194458008,-11042685.508728027,-11142895.698547363,-16862327.575683594,-30792961.12060547,-15530337.3336792,-8048695.5642700195,-7546597.003936768,-800855.5769920349,-1444453.0010223389,-1027773.9763259888,-11766699.79095459,-20110229.4921875,-4271084.785461426,-16625806.80847168,5278888.702392578,4649119.3771362305,9654023.170471191,2073527.3361206055,-1599974.274635315,-8369106.292724609,-13656889.915466309,-17957727.432250977,-15371117.59185791,-11900819.778442383,11224003.791809082,9008212.089538574,2087582.3497772217,1354382.1573257446,-11243171.691894531,-12218217.849731445,-18777433.395385742,-17702684.40246582,-17649631.50024414,-3006821.870803833,6193873.882293701,6474910.736083984,-5823079.1091918945,-5423659.324645996,-11366615.295410156,-17420328.14025879,-17964286.80419922,5198947.429656982,6041843.891143799,6751259.326934814,-7252308.8455200195,-6259402.751922607,-23046716.690063477,5324952.602386475,5710942.74520874,6922477.722167969,6432217.121124268
0.365,-18148174.285888672,-42019424.43847656,-13826846.1227417,-21320066.452026367,-26615201.950073242,-27576955.795288086,-21135423.66027832,-22299360.275268555,-84170204.16259766,-11838199.615478516,-13817173.00415039,-14143040.657043457,-14349237.442016602,-17854726.791381836,-27854671.478271484,-17959045.41015625,-11041377.067565918,-9939062.118530273,-2415432.929992676,-2032194.3759918213,-1692599.892616272,-11811080.932617188,-20164020.538330078,-3061588.2873535156,-19141490.936279297,1875858.9029312134,2207188.367843628,8333284.378051758,4036768.913269043,-87259.54592227936,-5660399.913787842,-10736207.008361816,-20960227.966308594,-18137454.986572266,-15457246.780395508,8900974.27368164,9102886.199951172,4076437.9501342773,4037366.3902282715,-6354339.122772217,-7327610.015869141,-21546321.868896484,-20579996.10900879,-20586456.298828125,-5451673.50769043,5530524.253845215,8967681.884765625,-333572.119474411,67434.75794792175,-6490054.130554199,-20271818.161010742,-21108108.520507812,2294055.700302124,5322152.614593506,9219061.851501465,-1708261.0130310059,-992222.8455543518,-22573015.213012695,2335458.278656006,5055904.388427734,9243374.824523926,8791543.960571289
0.37,-21762018.20373535,-43773540.49682617,-17478719.71130371,-23675466.537475586,-30024642.944335938,-28537971.49658203,-23684400.55847168,-24914289.474487305,-84161262.51220703,-13572870.254516602,-16299957.275390625,-16559906.005859375,-16916324.615478516,-19475141.525268555,-28823791.50390625,-21386806.48803711,-12642697.33428955,-10554377.555847168,-3368827.1045684814,-2894615.1733398438,-2616365.909576416,-13489624.0234375,-21928716.6595459,-2674258.4705352783,-21940341.94946289,-361454.576253891,1124144.0773010254,7932583.332061768,4043995.8572387695,-640344.0237045288,-6289193.630218506,-11780058.860778809,-23095666.885375977,-21210651.397705078,-17831054.6875,7423546.314239502,9146022.79663086,4058340.072631836,3864370.584487915,-6868137.836456299,-7752910.137176514,-23562366.485595703,-22548858.642578125,-22568590.16418457,-7421550.750732422,5838126.182556152,9707301.139831543,-383674.3235588074,17453.746870160103,-7094565.391540527,-22248966.217041016,-23172380.447387695,1827820.6586837769,5613585.472106934,9861078.262329102,-1664884.8056793213,-1093985.915184021,-21050067.901611328,1905725.359916687,5532112.598419189,9675464.630126953,9329983.711242676
0.375,-22528129.57763672,-45555065.1550293,-18762496.948242188,-24014446.258544922,-31125896.453857422,-33434627.532958984,-26123430.252075195,-27562255.859375,-85575546.26464844,-13501490.592956543,-17273120.880126953,-17421623.22998047,-17815607.07092285,-25505329.132080078,-33699172.97363281,-22964328.76586914,-11530586.242675781,-9107964.515686035,-3345362.901687622,-3532777.0709991455,-3370390.6536102295,-18019769.6685791,-28872440.338134766,-5188848.972320557,-23744434.356689453,434460.3419303894,1980740.9048080444,8722664.833068848,1929750.4425048828,-3051732.7785491943,-12117454.528808594,-20604679.107666016,-24527645.111083984,-22984828.94897461,-17232479.095458984,8380682.945251465,9062304.496765137,1832093.0004119873,809350.6097793579,-14601020.812988281,-15371315.956115723,-25132793.426513672,-23980899.810791016,-23893489.837646484,-7731818.675994873,5949469.566345215,8208107.948303223,-6976790.904998779,-6470015.525817871,-14877297.401428223,-23676984.786987305,-24529804.229736328,2271040.678024292,5764076.709747314,8187287.330627441,-8439752.578735352,-7683447.360992432,-24862815.856933594,2483674.2877960205,5765721.797943115,7998028.755187988,7683286.190032959
0.38,-18474901.19934082,-47994121.55151367,-20675796.508789062,-21243207.931518555,-32862514.49584961,-29933345.794677734,-22321773.529052734,-23950990.676879883,-87108909.6069336,-12764425.277709961,-18579843.521118164,-18517147.064208984,-18873989.10522461,-37694427.490234375,-30186716.079711914,-17380403.518676758,-7139828.205108643,-6649909.496307373,-2493090.867996216,-3972141.5042877197,-3943811.1782073975,-24810386.657714844,-40510139.46533203,-2883070.945739746,-20725933.074951172,4552686.69128418,4416245.937347412,10225206.37512207,-580001.950263977,-5397150.039672852,-20393558.502197266,-33314811.70654297,-23394912.719726562,-19749753.952026367,-13368008.613586426,10918016.43371582,8981876.373291016,-807855.1292419434,-2445884.7045898438,-24243873.596191406,-25007955.55114746,-24226917.266845703,-23009239.196777344,-22804050.44555664,-6829823.017120361,3675563.335418701,5269142.150878906,-15277506.828308105,-14583895.683288574,-24486345.291137695,-22673538.208007812,-23465398.78845215,1099793.553352356,3450807.3329925537,5041219.711303711,-17125118.255615234,-16049545.288085938,-31281885.147094727,1423503.1604766846,3376627.4452209473,5082272.052764893,4662364.959716797
0.385,-11446928.024291992,-50855125.427246094,-27419858.932495117,-16613460.540771484,-38161170.959472656,-8760884.284973145,-9442161.560058594,-11144849.77722168,-85580986.02294922,-12911967.277526855,-22372192.3828125,-22026542.66357422,-22430318.83239746,-52482536.31591797,-9050052.642822266,-4188014.9841308594,-1311730.3848266602,-4774607.181549072,-1630017.1613693237,-5148961.544036865,-5092376.708984375,-31742486.95373535,-51996986.389160156,12313741.683959961,-11276396.751403809,9684154.510498047,7204820.156097412,11295850.75378418,-1936040.2822494507,-6703241.82510376,-26397602.081298828,-41652069.091796875,-17567638.397216797,-10245640.754699707,-8043053.62701416,12478080.749511719,8934022.903442383,-2165145.1587677,-3894380.3310394287,-28833663.940429688,-29700347.900390625,-18477371.215820312,-17339931.48803711,-17148355.48400879,-5407264.709472656,386734.33661460876,2805895.0901031494,-19476673.126220703,-18738622.665405273,-28958271.026611328,-16963632.583618164,-17723400.115966797,-597997.4269866943,-8360.637351870537,2406876.0871887207,-21528200.149536133,-20359928.131103516,-30312372.2076416,-301455.46793937683,-141571.96879386902,2734173.536300659,2171150.6843566895
0.39,-6026527.881622314,-53525924.68261719,-37953823.08959961,-13359210.014343262,-45566715.240478516,19830173.49243164,5616287.2314453125,3926310.0624084473,-81941192.62695312,-14813996.315002441,-28089603.424072266,-27486907.958984375,-28025695.80078125,-63589649.20043945,19520759.58251953,9336044.311523438,2548320.2934265137,-4394555.568695068,-1863047.9574203491,-7714755.535125732,-7456556.797027588,-36865447.998046875,-58695041.65649414,34656635.28442383,130491.04809761047,12855871.200561523,9003132.820129395,11090723.037719727,-2396079.5402526855,-7967314.720153809,-28438442.23022461,-42243358.61206055,-8731324.195861816,1036779.522895813,-4074222.5646972656,12036134.719848633,8834650.993347168,-2430829.2865753174,-4307020.664215088,-27573093.41430664,-28518569.946289062,-9568392.753601074,-8563202.857971191,-8524207.11517334,-3763209.104537964,-137497.4548816681,2334134.101867676,-18881711.959838867,-18356960.29663086,-27531324.38659668,-8177713.394165039,-8857872.009277344,72995.24545669556,-657210.7076644897,1855960.0114822388,-20770183.563232422,-19780860.900878906,-18842945.098876953,184924.378991127,-704168.975353241,2354894.6380615234,1760937.9291534424
0.395,-5349404.811859131,-56058822.63183594,-46126415.25268555,-13887825.012207031,-51135086.05957031,34398746.490478516,12065749.168395996,10402631.759643555,-81718879.69970703,-18296777.725219727,-33175403.594970703,-32443729.400634766,-33017360.68725586,-68137390.13671875,34154243.46923828,15227477.073669434,2675647.020339966,-5198522.090911865,-3631521.701812744,-10932614.32647705,-10574578.285217285,-39849349.97558594,-60372398.376464844,48463626.861572266,6532757.28225708,13403834.342956543,9402446.746826172,10000483.512878418,-3122852.087020874,-10249129.295349121,-28920175.552368164,-39662025.451660156,-2111140.489578247,7478910.446166992,-2891991.8537139893,11428342.819213867,8750665.664672852,-2899161.1003875732,-5402430.534362793,-25635643.005371094,-26581138.610839844,-2888171.911239624,-1937605.0233840942,-2078020.3342437744,-2287844.8963165283,2999459.981918335,3609109.401702881,-17470001.220703125,-17199348.44970703,-25490369.79675293,-1615037.5604629517,-2181569.0994262695,2985660.7913970947,2581263.780593872,3174021.005630493,-19083696.365356445,-18237022.399902344,-6312486.64855957,2864307.403564453,2637467.861175537,3688999.1760253906,3196247.339248657
0.4,-8795896.530151367,-58995605.46875,-48047386.169433594,-17428667.068481445,-53358879.08935547,27135976.791381836,7164543.628692627,5510068.416595459,-87872268.67675781,-22163740.158081055,-36029590.60668945,-35343761.4440918,-35761783.599853516,-68528770.44677734,26990335.46447754,12948260.307312012,479965.86561203003,-6358257.77053833,-6100033.283233643,-13177758.21685791,-13031507.49206543,-41429840.087890625,-60208873.7487793,46728813.17138672,5600814.342498779,12990825.653076172,8986661.911010742,9186161.994934082,-4205331.802368164,-12687174.797058105,-30326231.002807617,-39678981.78100586,-1227941.9898986816,6891567.230224609,-3595732.6889038086,12580574.035644531,8883484.840393066,-3888122.081756592,-7032210.826873779,-26744321.823120117,-27673568.725585938,-2011261.9400024414,-1033172.0113754272,-1287323.3556747437,-1582443.5949325562,6534519.195556641,5142735.004425049,-18043075.561523438,-17779928.20739746,-26652780.532836914,-828359.9019050598,-1343172.550201416,5070548.057556152,6357846.736907959,4861719.608306885,-19608926.77307129,-18673196.79260254,-3170015.811920166,4839867.59185791,6319508.075714111,5280206.203460693,4902374.267578125
0.405,-13175619.125366211,-61926319.12231445,-46439643.85986328,-20746904.373168945,-53940116.88232422,12768528.938293457,-838579.2374610901,-2508843.183517456,-95580894.47021484,-24561342.239379883,-36962848.66333008,-36441040.0390625,-36690380.09643555,-68457382.20214844,12644309.997558594,8618451.118469238,-1343568.5634613037,-7286073.684692383,-7649005.41305542,-13483056.06842041,-13679526.329040527,-42029941.55883789,-60912990.57006836,38652130.126953125,1592607.9750061035,13082010.269165039,8533760.070800781,9186938.285827637,-4534341.812133789,-13412815.09399414,-32108982.08618164,-42824069.97680664,-4189838.8862609863,3194535.493850708,-4245632.171630859,14629875.183105469,9192899.703979492,-4386959.075927734,-7514279.842376709,-29279487.60986328,-30157808.303833008,-4965802.192687988,-3970243.6923980713,-4274693.489074707,-1763779.9978256226,7310676.097869873,5805618.2861328125,-19380435.943603516,-18915599.822998047,-29301313.400268555,-3843416.690826416,-4408084.392547607,4898960.113525391,7275757.789611816,5706026.077270508,-21119079.58984375,-20042022.705078125,-8570148.468017578,4760041.236877441,6956295.013427734,5968028.0685424805,5638941.764831543
0.41,-15435242.652893066,-63239883.42285156,-46227222.44262695,-21453933.715820312,-54427772.521972656,9712112.426757812,-2699693.441390991,-4407800.674438477,-97459426.87988281,-24269033.432006836,-36796272.27783203,-36417167.66357422,-36690940.856933594,-69129432.67822266,9521051.406860352,7386885.643005371,-1580918.788909912,-7616990.089416504,-7228295.803070068,-12371844.291687012,-12668555.25970459,-41726299.28588867,-62818859.1003418,36151767.73071289,44808.40638279915,13603669.166564941,8451862.335205078,9461838.722229004,-3601006.507873535,-12104536.056518555,-32507888.793945312,-46092071.533203125,-6206199.645996094,1564474.34425354,-3540821.5522766113,15255096.435546875,9309144.020080566,-3754771.947860718,-6329574.108123779,-30217420.57800293,-30893384.93347168,-6956023.693084717,-5994721.88949585,-6319300.174713135,-2114557.0278167725,5608260.631561279,5579862.117767334,-19383399.963378906,-18805170.0592041,-30180528.64074707,-5829658.031463623,-6486643.7911987305,4385509.967803955,5539188.385009766,5558678.150177002,-21252439.498901367,-20220638.275146484,-13691768.646240234,4428337.097167969,5011301.9943237305,5659776.210784912,5366054.058074951
0.415,-15018939.018249512,-62448741.9128418,-48550197.60131836,-20532163.619995117,-54911937.71362305,18680551.528930664,1533925.8909225464,-187690.54114818573,-92867134.09423828,-22345565.795898438,-36247940.06347656,-35893428.802490234,-36316356.65893555,-69916915.89355469,18439899.444580078,8799003.601074219,-1111431.59866333,-7246110.916137695,-5503080.84487915,-11335039.138793945,-11380517.00592041,-41248523.7121582,-64841423.03466797,39738811.49291992,2036871.9100952148,13887095.45135498,8681049.346923828,9280659.675598145,-2419276.237487793,-10599365.234375,-31709512.71057129,-47800025.939941406,-4854232.311248779,3195230.9608459473,-1422446.2509155273,14089626.31225586,8996566.772460938,-2769391.2982940674,-4959256.649017334,-29434959.411621094,-29828140.258789062,-5648472.785949707,-4731359.958648682,-5026004.314422607,-1711506.4859390259,3791743.278503418,5158304.214477539,-18238929.748535156,-17770387.649536133,-29133987.426757812,-4456758.02230835,-5168057.441711426,5573077.67868042,3633421.4210510254,5065780.162811279,-20070692.06237793,-19216331.481933594,-13628775.596618652,5716300.010681152,3174159.7652435303,5068936.824798584,4854469.299316406
0.42,-14077877.044677734,-61648811.34033203,-51213119.50683594,-20778505.325317383,-55738735.19897461,25894107.818603516,4645998.477935791,3027070.999145508,-88795646.66748047,-21575914.38293457,-36373409.271240234,-35970031.73828125,-36421577.45361328,-70473205.56640625,25706367.49267578,9587186.813354492,-1362929.105758667,-6775872.230529785,-4283424.377441406,-11476296.424865723,-11210204.124450684,-41734111.78588867,-65831970.21484375,42389713.287353516,4528906.82220459,13678750.038146973,8769726.753234863,8641741.752624512,-2268357.992172241,-10721588.134765625,-31461767.196655273,-48210464.47753906,-1822113.9907836914,5432563.781738281,1114051.5804290771,13029560.089111328,8512834.548950195,-2583039.5221710205,-4862723.350524902,-28542623.51989746,-28893724.44152832,-2695517.7783966064,-1811519.6228027344,-1994229.5551300049,-411715.0604724884,3228754.5204162598,5122728.34777832,-17386465.072631836,-17060924.530029297,-28075647.354125977,-1469522.476196289,-2169651.2699127197,7891517.639160156,3011059.522628784,4935799.121856689,-19116699.21875,-18390588.760375977,-10944210.052490234,8017144.203186035,2801227.807998657,4926093.578338623,4773467.063903809
0.425,-14864538.192749023,-63108539.58129883,-53154006.95800781,-22850122.451782227,-57862304.6875,23391145.706176758,2708564.9967193604,1327407.956123352,-90658691.40625,-23360744.47631836,-37984477.99682617,-37563484.19189453,-37863555.908203125,-71158966.06445312,23332952.49938965,8610366.821289062,-2611207.962036133,-7165689.468383789,-4492487.907409668,-12573863.02947998,-12308671.951293945,-43352218.62792969,-65523559.5703125,41657787.32299805,4966726.779937744,13026619.911193848,8335486.41204834,8155345.916748047,-3206017.49420166,-12295410.15625,-32466430.6640625,-47679824.82910156,-182239.23444747925,5830255.98526001,2643836.498260498,13269230.842590332,8269282.341003418,-3335220.5753326416,-5856620.311737061,-28124505.9967041,-28814214.7064209,-996252.1195411682,-162008.6431503296,-213094.90501880646,685205.4595947266,3173610.4488372803,5221497.535705566,-17420679.092407227,-17058580.39855957,-27864580.154418945,167220.97992897034,-489898.32401275635,9263210.29663086,2899895.429611206,5091630.935668945,-19080646.514892578,-18451047.897338867,-9571484.565734863,9346390.724182129,2832181.453704834,5091643.810272217,4900003.910064697
0.43,-16948675.15563965,-66077835.08300781,-55382694.244384766,-24335735.321044922,-60817573.54736328,17305242.53845215,-742842.6146507263,-1903413.6533737183,-95290313.72070312,-25808322.90649414,-40335262.298583984,-39922889.709472656,-40111896.51489258,-72572242.7368164,17354278.564453125,7386760.711669922,-3823820.8293914795,-8383824.348449707,-5113323.68850708,-13482314.109802246,-13593310.356140137,-45180427.55126953,-65287803.649902344,40708377.838134766,3640341.04347229,12076150.894165039,7740162.8494262695,8328674.31640625,-4374628.54385376,-13805338.859558105,-34009178.161621094,-47218128.2043457,-1466970.3245162964,4457697.868347168,2322320.9381103516,13823691.368103027,8271254.539489746,-4372615.337371826,-7022158.622741699,-28482347.48840332,-29550165.1763916,-2063639.6408081055,-1281624.0787506104,-1293521.4042663574,-108832.61263370514,1822829.1273117065,4336118.698120117,-18616531.372070312,-18088857.650756836,-28627586.364746094,-977057.933807373,-1610627.293586731,8302079.200744629,1508973.0024337769,4402445.316314697,-20247266.76940918,-19778694.15283203,-10777458.190917969,8366094.589233398,1311813.473701477,4373880.863189697,4100967.8840637207
0.435,-18072683.334350586,-67701187.13378906,-57980194.091796875,-23493152.618408203,-62411167.14477539,15501070.976257324,-1442196.1307525635,-2598726.272583008,-95786933.89892578,-26122694.01550293,-41600322.72338867,-41105770.111083984,-41415641.78466797,-75070030.21240234,15559981.346130371,6805906.772613525,-4080334.186553955,-9190946.578979492,-4801877.021789551,-13481313.705444336,-14025019.645690918,-46464073.181152344,-67042427.06298828,39813655.853271484,1788080.096244812,11209766.387939453,7842984.676361084,9064768.79119873,-5224512.577056885,-14347112.655639648,-35607437.13378906,-49159496.30737305,-5143683.910369873,2445692.539215088,633987.8439903259,13550092.697143555,8187650.680541992,-5270810.127258301,-8087343.215942383,-30911373.138427734,-31981657.028198242,-5602484.226226807,-4804532.527923584,-4856937.885284424,-3320968.8663482666,-1639814.4960403442,1809320.6882476807,-21671426.77307129,-21057817.459106445,-31203847.885131836,-4474899.768829346,-5111656.188964844,5066311.836242676,-1902477.502822876,2003993.7496185303,-23397022.247314453,-23006048.20251465,-14744626.04522705,5084936.618804932,-2381044.626235962,1955333.948135376,1698441.0285949707
0.44,-17968797.68371582,-66916862.48779297,-58806842.80395508,-22236047.744750977,-61358016.96777344,15639189.720153809,-1049816.608428955,-2421010.732650757,-91101753.23486328,-24263807.29675293,-40864803.314208984,-40179302.21557617,-40730663.29956055,-77507919.31152344,15624933.242797852,5562034.606933594,-3740739.107131958,-8747942.924499512,-3873385.429382324,-12836655.616760254,-13478178.977966309,-46807640.075683594,-70036819.45800781,35079704.28466797,-481912.91093826294,10819445.610046387,8778868.675231934,9806241.035461426,-5717465.400695801,-14042354.583740234,-37025024.4140625,-53750709.533691406,-9508784.294128418,74636.36994361877,-1184203.5055160522,13074699.401855469,7930319.786071777,-5911030.7693481445,-9001923.561096191,-35357181.549072266,-36148265.83862305,-10071014.404296875,-9184534.072875977,-9214329.719543457,-7327447.414398193,-5741093.158721924,-1137358.546257019,-25971279.14428711,-25435857.77282715,-35396324.157714844,-8806964.874267578,-9420432.090759277,839095.8309173584,-5887032.985687256,-1005482.1968078613,-28009895.32470703,-27358917.236328125,-21056665.420532227,771765.8281326294,-6543641.090393066,-976709.6042633057,-1124893.7845230103
0.445,-19255697.25036621,-65645080.56640625,-56116405.48706055,-23705894.470214844,-58754245.75805664,10185404.777526855,-4283974.647521973,-5857470.512390137,-87712074.27978516,-22886054.99267578,-38747097.01538086,-37949455.26123047,-38587882.99560547,-76386001.58691406,10111270.904541016,2405007.3623657227,-3793240.547180176,-7792624.950408936,-3743204.116821289,-11913372.993469238,-12240540.504455566,-45018917.083740234,-69711715.69824219,26208436.965942383,-3312368.392944336,10977961.540222168,9579654.693603516,10128242.492675781,-5684740.06652832,-12919075.965881348,-36747249.603271484,-56048465.728759766,-12712554.931640625,-2692186.3555908203,-2319633.960723877,13748631.477355957,7856559.753417969,-5946911.811828613,-8985981.941223145,-38131809.23461914,-38826171.875,-13447550.773620605,-12493959.426879883,-12399187.088012695,-9633232.116699219,-7979373.455047607,-2303209.7816467285,-28471801.7578125,-28076314.92614746,-37893047.33276367,-12112238.883972168,-12641062.73651123,-2367858.88671875,-8079745.292663574,-2295155.2867889404,-30837125.778198242,-29701839.447021484,-26755800.247192383,-2482828.378677368,-8686947.8225708,-2118123.769760132,-2249991.8937683105
0.45,-23390535.354614258,-65884880.06591797,-51601558.685302734,-27561622.619628906,-56447143.5546875,-201611.4443540573,-10726766.586303711,-12297384.262084961,-90570709.22851562,-23689443.588256836,-36382717.13256836,-35734470.36743164,-36206119.537353516,-69362251.28173828,-252370.47672271729,-872986.2570762634,-4160437.58392334,-7427189.826965332,-4845681.667327881,-10744090.08026123,-10653821.94519043,-40089027.404785156,-62779281.61621094,20005939.483642578,-4850898.265838623,11768886.56616211,9631469.7265625,10006515.502929688,-4925828.456878662,-10903512.001037598,-33054950.714111328,-50701175.689697266,-13090950.965881348,-4177453.04107666,-2298077.10647583,15565920.82977295,8189861.297607422,-5126339.435577393,-7405112.743377686,-35268772.12524414,-36197032.9284668,-13801183.700561523,-12852040.29083252,-12715755.462646484,-9066545.486450195,-7530050.277709961,-1136876.106262207,-26552976.608276367,-26238502.502441406,-35108539.58129883,-12542852.401733398,-12985889.434814453,-2804319.6201324463,-7677001.953125,-1149525.1655578613,-28822011.947631836,-27463989.2578125,-27240539.55078125,-2870811.2239837646,-8116402.626037598,-869159.5792770386,-1201939.8212432861
0.455,-28001173.01940918,-67528984.06982422,-49531360.6262207,-30166425.704956055,-55365055.084228516,-5942976.951599121,-14132691.383361816,-15577824.592590332,-96141159.05761719,-25562248.22998047,-34900070.19042969,-34574203.49121094,-34783740.99731445,-60105998.99291992,-5948497.295379639,-793860.3162765503,-3851178.8845062256,-7693093.776702881,-6506879.3296813965,-9988971.710205078,-9743896.484375,-34081531.5246582,-53015766.14379883,22681970.596313477,-2272312.4027252197,13270110.130310059,9598413.467407227,9375146.865844727,-3901014.3280029297,-9086734.771728516,-27360540.39001465,-39977081.298828125,-9625819.206237793,-1707467.3175811768,-386529.92248535156,17155586.24267578,8547571.182250977,-4031414.031982422,-5261677.265167236,-28013910.2935791,-29153974.533081055,-10132409.09576416,-9179922.103881836,-9242027.282714844,-6298067.569732666,-5539570.8084106445,767754.9123764038,-21472162.2467041,-21169185.638427734,-28168241.500854492,-9007732.391357422,-9455283.164978027,-45464.81370925903,-5670403.003692627,758255.3625106812,-23145538.330078125,-22088975.90637207,-21001985.549926758,-12762.135826051235,-6023902.893066406,1078562.2596740723,462753.4747123718
0.46,-29864526.748657227,-69210304.2602539,-52002513.88549805,-29295667.64831543,-55503234.86328125,-1660461.7834091187,-10722710.609436035,-12150632.858276367,-97303245.5444336,-26510337.829589844,-35163246.154785156,-35048885.345458984,-35092220.306396484,-55732543.9453125,-1730984.6878051758,3258591.1750793457,-2854876.0414123535,-8072857.856750488,-8415733.337402344,-10942730.903625488,-10857183.456420898,-31389150.619506836,-48233707.427978516,31863574.981689453,4263997.554779053,14688752.174377441,10107024.192810059,7904601.573944092,-3443548.9177703857,-9305611.610412598,-23966960.906982422,-32586215.97290039,-2969957.3516845703,4725504.398345947,3519808.530807495,17556474.685668945,8408203.125,-3587995.5291748047,-4404393.196105957,-22054542.541503906,-23104166.03088379,-3343739.5095825195,-2301313.877105713,-2661581.9931030273,-2737084.38873291,-2521980.2856445312,2287407.159805298,-17033384.323120117,-16739467.62084961,-22370622.634887695,-2288452.1484375,-2821918.487548828,5034029.006958008,-2512578.4873962402,2111050.605773926,-18157592.7734375,-17616479.873657227,-11554215.431213379,5153247.833251953,-2929328.9184570312,2510538.339614868,1786448.1210708618
0.465,-28616537.09411621,-69525329.58984375,-55817787.170410156,-26253801.345825195,-56072128.29589844,6497985.83984375,-4220334.529876709,-5794677.734375,-92674911.49902344,-25800851.821899414,-36563072.204589844,-36427753.44848633,-36439041.13769531,-57851165.771484375,6245503.902435303,7861169.815063477,-2339146.614074707,-8313302.040100098,-10439884.185791016,-13387072.563171387,-13525645.25604248,-33409431.45751953,-50730266.57104492,39559707.64160156,10504418.37310791,14634478.569030762,10536321.640014648,5828482.151031494,-3599320.411682129,-11550373.077392578,-25042057.037353516,-33254802.703857422,3983850.7175445557,11092810.63079834,7575874.805450439,17184835.43395996,7889745.235443115,-3753695.7263946533,-5117012.023925781,-20826322.555541992,-21686819.076538086,3548460.7219696045,4698041.4390563965,4221276.28326416,12016.131542623043,2225096.2257385254,4211057.186126709,-15141221.046447754,-14910790.44342041,-21085260.39123535,4609057.903289795,4005207.061767578,10809432.029724121,2315696.7163085938,3770350.456237793,-16301721.572875977,-16011339.18762207,-3795146.4653015137,11008315.086364746,1814339.518547058,4288981.914520264,3706484.079360962
0.47,-25690509.796142578,-67121147.15576172,-55481048.583984375,-22970849.990844727,-55420902.252197266,10143216.133117676,-171710.83390712738,-1864143.3715820312,-87352416.9921875,-23665771.484375,-36589862.82348633,-36387207.03125,-36447570.80078125,-60000408.17260742,9756358.14666748,10186299.324035645,-2422876.5964508057,-7876220.226287842,-11132460.594177246,-14579367.637634277,-14787343.978881836,-36011917.11425781,-54322349.548339844,41451049.8046875,12671051.979064941,13254384.04083252,10268773.078918457,4585815.906524658,-3480637.0735168457,-13063206.672668457,-27580028.533935547,-37257427.21557617,7694428.443908691,13478926.658630371,9210923.194885254,16992752.075195312,7607603.549957275,-3506057.7392578125,-5678665.1611328125,-22025081.634521484,-22915523.529052734,7124069.690704346,8256126.403808594,7890083.789825439,257005.81073760986,7402511.5966796875,6924531.936645508,-14458187.103271484,-14346118.927001953,-22308794.021606445,8202462.196350098,7585475.921630859,15077203.750610352,7365362.644195557,6463763.236999512,-16052459.716796875,-15667923.927307129,-62856.11540079117,15364412.307739258,6917018.413543701,6962001.323699951,6584962.844848633
0.475,-21970294.952392578,-61899364.47143555,-49764453.88793945,-19865535.736083984,-52507431.03027344,9329468.727111816,1013980.1502227783,-588543.7726974487,-85365959.16748047,-20580980.30090332,-33501201.629638672,-33388820.64819336,-33549873.35205078,-56552967.0715332,8974069.595336914,11214907.6461792,-1656726.2411117554,-5864052.772521973,-8781093.59741211,-12256584.167480469,-12395312.309265137,-34595409.39331055,-52647262.57324219,39684238.43383789,11495136.260986328,12665546.417236328,10071689.60571289,5517860.889434814,-2606138.4677886963,-11448595.04699707,-27231853.485107422,-37529243.46923828,6685154.438018799,12260543.823242188,7807385.9214782715,17135362.62512207,7756977.558135986,-2408033.1325531006,-4759355.068206787,-21768592.834472656,-22834718.704223633,6060573.101043701,7028726.577758789,6785903.453826904,-2627547.9793548584,8576073.64654541,8363842.964172363,-13448993.682861328,-13444330.215454102,-22283279.418945312,7131248.474121094,6508657.455444336,15503198.623657227,8362236.022949219,8268947.601318359,-15228758.811950684,-14689906.120300293,-456787.73522377014,15842410.08758545,8100011.825561523,8512443.542480469,8196396.827697754
0.48,-18838558.197021484,-56842082.97729492,-43760700.22583008,-17664245.60546875,-48963180.54199219,8920210.838317871,1919762.7305984497,562168.9558029175,-85458366.39404297,-17717554.092407227,-29281501.77001953,-29338291.16821289,-29618495.94116211,-50574871.06323242,8663289.070129395,12380793.571472168,116766.84021949768,-2788931.369781494,-4525079.250335693,-8134161.949157715,-8203279.495239258,-30188652.03857422,-47167510.986328125,37503883.361816406,9966527.938842773,13777093.887329102,10726735.11505127,7856444.835662842,-1710536.241531372,-7993506.908416748,-23924617.767333984,-33739658.35571289,2583156.8241119385,10400406.837463379,5055905.342102051,16764263.153076172,7825922.012329102,-1391141.5338516235,-3213257.312774658,-19834411.62109375,-20906913.75732422,2021368.2651519775,2809491.3959503174,2569606.304168701,-7093637.466430664,3284640.073776245,6448032.855987549,-12664704.322814941,-12650249.481201172,-20474765.77758789,3051779.270172119,2405991.554260254,11593358.993530273,3097908.2584381104,6770080.56640625,-14164557.456970215,-13610726.356506348,-4326125.144958496,11900369.644165039,3005991.9357299805,6730292.797088623,6335121.631622314
0.485,-19048557.28149414,-56115367.8894043,-42893943.786621094,-18477771.759033203,-48005054.47387695,8348570.823669434,1753203.272819519,599222.2428321838,-85328948.97460938,-16773639.678955078,-27927877.42614746,-28001171.112060547,-28338886.260986328,-48941905.9753418,8096576.690673828,11548732.75756836,344779.04438972473,-1257631.4210891724,-2199131.965637207,-6308430.6716918945,-6372256.278991699,-27778987.884521484,-43999565.12451172,34958129.8828125,8486238.479614258,14150483.131408691,11104847.90802002,9201349.258422852,-1714794.635772705,-6267682.5523376465,-21493139.266967773,-30961334.228515625,-1814532.1607589722,8689877.5100708,2564057.1117401123,15249956.130981445,7453746.318817139,-1480742.9313659668,-2725051.6414642334,-18874923.706054688,-19732364.654541016,-2231281.9957733154,-1510782.1226119995,-1761179.4471740723,-10780696.868896484,-4344633.57925415,2684287.0712280273,-13227226.257324219,-13034904.479980469,-19243980.407714844,-1268259.7637176514,-1909926.6529083252,6145117.282867432,-4357557.29675293,3038102.865219116,-14392518.997192383,-13898536.682128906,-9773056.030273438,6362964.153289795,-4388717.174530029,2952458.381652832,2512335.777282715
0.49,-22660758.97216797,-59685848.236083984,-46203346.252441406,-22358928.680419922,-50455154.41894531,3402382.1353912354,-2049631.8340301514,-3150060.8921051025,-85575599.67041016,-17852470.39794922,-30427587.509155273,-30331254.959106445,-30633596.420288086,-52696296.69189453,3090886.354446411,6607477.66494751,-2471782.922744751,-2765638.589859009,-3534857.0346832275,-8066431.045532227,-8142544.746398926,-29542678.833007812,-45491378.78417969,31460798.263549805,5518254.75692749,11521622.657775879,9783569.3359375,8556012.153625488,-2465656.518936157,-7653429.03137207,-22405910.49194336,-31775003.43322754,-4818725.109100342,5850091.934204102,698421.3590621948,13446851.73034668,7105271.339416504,-2409950.4947662354,-3535037.040710449,-20065574.645996094,-20740457.53479004,-5086961.74621582,-4315744.400024414,-4478832.721710205,-12984992.027282715,-7812400.817871094,716820.1804161072,-14760479.927062988,-14327669.143676758,-19972734.451293945,-4174035.5491638184,-4773493.766784668,3210086.5840911865,-7805751.800537109,724545.0615882874,-15880984.30633545,-15407699.584960938,-13531514.167785645,3350764.513015747,-7829527.378082275,776396.2149620056,441199.3622779846
0.495,-23677093.505859375,-61961532.59277344,-47872676.849365234,-24708871.841430664,-53330818.17626953,-2460229.1584014893,-6443171.977996826,-7593030.4527282715,-86762901.30615234,-18505327.224731445,-33460357.666015625,-33208930.96923828,-33484996.795654297,-57273189.544677734,-2731411.2186431885,1933894.7534561157,-5067575.454711914,-4627287.864685059,-5446788.787841797,-10455046.653747559,-10497074.127197266,-32928718.56689453,-48958995.8190918,29809963.22631836,2732842.9222106934,8416039.46685791,8167981.147766113,7685735.702514648,-3222313.88092041,-10028767.585754395,-25373325.34790039,-34153934.478759766,-5602121.829986572,3311302.423477173,233964.63692188263,13202876.091003418,7438822.269439697,-3244552.8507232666,-4622766.494750977,-22149768.829345703,-22826169.967651367,-5860063.076019287,-5010731.6970825195,-5069498.062133789,-14181200.02746582,-6417203.426361084,1307358.5033416748,-16291177.749633789,-15765152.931213379,-21863166.80908203,-4915794.849395752,-5509660.720825195,4341128.349304199,-6634001.731872559,1009920.8354949951,-17489774.703979492,-17006179.809570312,-13461306.57196045,4448487.281799316,-6636659.622192383,1082192.8977966309,935379.8031806946
0.5,-15676730.155944824,-57888729.095458984,-44824382.78198242,-20344211.57836914,-53307010.650634766,2445154.6669006348,-3159173.9654541016,-4368235.111236572,-85705406.18896484,-16276275.634765625,-33732685.08911133,-33476024.627685547,-33839962.005615234,-60517364.501953125,2327784.776687622,5782976.150512695,-2588447.5708007812,-2593917.8466796875,-4030245.780944824,-10599370.002746582,-10572898.864746094,-35393791.19873047,-52414855.95703125,34557353.97338867,5332792.282104492,9883275.032043457,9449772.834777832,8515850.067138672,-3959588.050842285,-11144865.036010742,-28340829.849243164,-36441802.978515625,-2894691.9441223145,5926299.571990967,2985525.369644165,15157313.346862793,8258316.0400390625,-3897042.0360565186,-5652481.0791015625,-24292554.85534668,-25036401.748657227,-3357461.929321289,-2494797.945022583,-2547269.821166992,-13670521.73614502,-5330000.400543213,1362005.7106018066,-18156312.942504883,-17784183.502197266,-24184427.26135254,-2314774.990081787,-2972364.902496338,7825733.661651611,-5752733.7074279785,1084589.4813537598,-19296974.182128906,-18821498.87084961,-10393784.523010254,7933057.3081970215,-5779343.605041504,966035.8428955078,930388.4506225586
