time,Fp1,Fpz,Fp2,AF3,AF4,F7,F5,F3,F1,Fz,F2,F4,F6,F8,FT7,FC5,FC3,FC1,FCz,FC2,FC4,FC6,FT8,T7,C5,C3,C1,Cz,C2,C4,C6,T8,TP7,CP5,CP3,CP1,CPz,CP2,CP4,CP6,TP8,P7,P5,P3,P1,Pz,P2,P4,P6,P8,PO7,PO5,PO3,POz,PO4,PO6,PO8,CB1,O1,Oz,O2,CB2
0.0,16004386.901855469,5601809.024810791,7908522.605895996,21081789.016723633,12509773.254394531,26183004.37927246,62101562.5,19019130.70678711,3313740.2534484863,1030931.830406189,6260942.459106445,21456783.294677734,18440587.997436523,41486770.62988281,57371776.58081055,32007015.228271484,3803323.268890381,1700167.2983169556,-2005009.1743469238,-461482.2566509247,9553646.087646484,41792537.689208984,52278114.318847656,27279352.18811035,26989557.26623535,13684618.949890137,4068949.6994018555,-740085.8402252197,839504.063129425,12531386.375427246,23512155.532836914,51326133.728027344,24494644.165039062,25035850.524902344,9955078.125,3888776.5407562256,12797194.480895996,1111976.6235351562,10890367.50793457,20751804.35180664,29000614.166259766,40155277.252197266,28605468.75,11539490.699768066,28038639.068603516,29165637.969970703,10575304.03137207,20287260.055541992,34102703.09448242,49539012.90893555,47100391.38793945,47019767.76123047,37089717.864990234,42039554.595947266,32649539.947509766,33682476.04370117,13829205.513000488,36745948.791503906,36862129.21142578,37216579.43725586,32181968.688964844,30494342.803955078
0.005,-4439727.783203125,3965097.665786743,6082374.572753906,-8517540.93170166,900157.3920249939,-9485226.63116455,-27840412.139892578,-5608777.046203613,1694100.3799438477,5744716.167449951,3450001.9550323486,-1419092.4167633057,7198588.848114014,-10084984.77935791,-20553018.56994629,-13305429.458618164,4130543.2319641113,7197085.857391357,6722994.327545166,9333557.12890625,8116374.0158081055,-4571540.355682373,-13404250.144958496,-7430226.3259887695,-10471057.891845703,446981.6982746124,5791704.6546936035,8500973.70147705,9224708.557128906,4138063.430786133,318296.07486724854,-20241876.60217285,-8171054.840087891,-4797373.7716674805,913657.3672294617,7643682.956695557,703288.9127731323,10149055.480957031,5820781.230926514,1034536.2424850464,-5560865.40222168,-7041031.837463379,-1054181.8141937256,4235179.901123047,-3101189.136505127,-4968857.765197754,6298632.1449279785,2602355.0033569336,-3744744.5392608643,-12836587.905883789,-4149879.4555664062,-3726360.321044922,3982978.582382202,-7464900.016784668,7515924.93057251,7256907.939910889,-167933776.85546875,3924764.87159729,5226434.230804443,3497327.8045654297,7192577.362060547,9046762.466430664
0.01,9780957.221984863,17350435.256958008,19907503.128051758,2469865.560531616,10679997.444152832,-2276237.0109558105,-13874602.317810059,993700.385093689,6453889.846801758,11677871.704101562,9557480.812072754,5882032.871246338,17593881.607055664,-125770.01750469208,-7467439.651489258,-9877867.698669434,8198879.241943359,12230243.682861328,10417660.7131958,14317250.25177002,15431264.877319336,8749771.118164062,-1530891.5376663208,-142193.46642494202,-7693637.371063232,2033960.5808258057,9024373.054504395,11901051.52130127,14506651.878356934,9773582.458496094,7195294.8570251465,-10412825.584411621,-4131227.493286133,-369128.13782691956,1653009.533882141,10479249.954223633,1519860.6252670288,14736595.153808594,10998709.678649902,7359099.864959717,2699976.682662964,990719.735622406,5087489.128112793,6816317.558288574,1189059.6151351929,-1438874.0062713623,10397914.88647461,7804598.808288574,2691276.0734558105,-5074035.167694092,6798438.549041748,7322844.0284729,13503734.588623047,-1800040.7218933105,16704490.661621094,16407548.904418945,-229895507.8125,13240674.97253418,15068693.161010742,13387372.016906738,16238573.07434082,18314426.42211914
0.015,44072017.669677734,39457038.87939453,42321598.052978516,36549270.62988281,32258922.576904297,28613374.710083008,57449382.78198242,24281135.55908203,14267441.749572754,17497985.83984375,19958475.11291504,28436517.7154541,37481071.47216797,42209449.768066406,54398715.97290039,19555568.69506836,13190138.816833496,15687350.273132324,10345776.557922363,15073345.184326172,25518152.236938477,52556423.18725586,51655620.57495117,28839689.254760742,15792764.663696289,10099737.167358398,11402516.36505127,10819571.495056152,16357152.938842773,21329683.303833008,28441129.684448242,43847438.81225586,19164226.531982422,20698795.318603516,5865777.969360352,10487595.558166504,7328668.594360352,14908470.153808594,19514570.236206055,25822557.44934082,32640922.54638672,37045627.59399414,28212692.260742188,12405065.536499023,22067369.46105957,19950736.99951172,16653240.203857422,23114015.579223633,30837263.107299805,39154750.82397461,48740230.560302734,49076545.71533203,42081768.03588867,30482835.76965332,40388332.36694336,40730125.427246094,-193708404.54101562,41413578.033447266,43097599.029541016,42559192.6574707,39619876.861572266,39926681.51855469
0.02,60638847.35107422,53291522.97973633,55557350.158691406,49560337.06665039,41809482.57446289,36499706.26831055,73238922.11914062,29460023.880004883,17247444.15283203,20777200.69885254,24060617.446899414,32543415.069580078,41566894.53125,49449001.31225586,65202316.28417969,21310617.446899414,13711043.357849121,16821886.06262207,10914694.786071777,15470481.872558594,27292255.401611328,60947402.95410156,61573181.15234375,32753147.12524414,15295308.113098145,7264750.4806518555,9966157.913208008,10563317.29888916,16767889.022827148,22424722.67150879,30135976.791381836,54716670.989990234,21242485.04638672,19528110.50415039,1427244.6632385254,7006304.2640686035,2864180.326461792,14197481.155395508,18849258.422851562,26918796.53930664,36775550.842285156,40108650.20751953,27845111.846923828,8573434.829711914,19433332.443237305,16792030.334472656,14554517.74597168,22445127.487182617,31415658.950805664,42768398.28491211,52591186.5234375,52847782.135009766,41087879.1809082,27728385.92529297,38928855.895996094,39230281.829833984,-166806121.82617188,40441909.79003906,41811565.39916992,41198234.55810547,38025081.634521484,38082241.05834961
0.025,56040576.93481445,56208755.49316406,57854015.3503418,38611629.486083984,37718441.009521484,20235704.42199707,30388565.063476562,15523631.09588623,14769231.796264648,21531578.063964844,21646249.771118164,19103467.94128418,31921466.827392578,22516532.89794922,24237890.243530273,-5006822.109222412,10103236.198425293,16625432.968139648,12797208.786010742,17102165.22216797,22612688.064575195,35995292.66357422,28911607.74230957,12051403.045654297,-8379487.037658691,-4954046.726226807,6374858.379364014,12476256.370544434,17514432.907104492,14953839.302062988,14391760.82611084,21956501.007080078,2571166.515350342,-2214371.2043762207,-9903742.790222168,2700196.2661743164,-9375029.563903809,15131482.124328613,11774558.067321777,13001459.121704102,16816442.489624023,12897458.07647705,6898293.495178223,-1992528.5577774048,-3633332.7293395996,-7646022.796630859,7269928.932189941,8972323.417663574,7512692.451477051,7374960.422515869,21888467.78869629,22251771.926879883,16029241.561889648,-5482521.057128906,17916948.318481445,17517686.84387207,-188804931.640625,15838370.323181152,17105295.181274414,15302579.879760742,17109556.198120117,18743465.423583984
0.03,61058582.3059082,61369850.158691406,63589385.986328125,40561122.89428711,39994789.123535156,20884124.755859375,26061744.689941406,13087699.890136719,14058562.278747559,22676174.16381836,22530040.740966797,18963520.050048828,33221904.754638672,21823942.184448242,20003881.454467773,-11598056.79321289,8164771.08001709,17198707.580566406,13219232.559204102,18619037.628173828,23393863.677978516,37439239.501953125,28757961.27319336,9200360.298156738,-14462911.605834961,-9172126.770019531,5160162.925720215,13409819.602966309,18903032.302856445,15301276.206970215,13080742.835998535,22160274.505615234,-119118.56383085251,-7758490.562438965,-15141630.172729492,1077928.5430908203,-13463018.417358398,17202548.98071289,12085420.608520508,12269338.607788086,16344108.581542969,12421172.142028809,4365235.805511475,-5206440.9255981445,-8819629.669189453,-12679092.407226562,7186045.169830322,8639339.447021484,5350787.63961792,2269126.4152526855,21201477.05078125,21551734.924316406,15555904.388427734,-10247388.83972168,17976339.34020996,17446359.634399414,-205816604.6142578,15649200.439453125,17000427.24609375,14919174.194335938,17302852.630615234,19528055.19104004
0.035,88841773.9868164,75896713.25683594,79215423.58398438,69937904.35791016,56867462.158203125,53296554.56542969,93589141.84570312,33941432.95288086,19291664.123535156,26436611.17553711,30977909.088134766,41354488.372802734,52473453.521728516,65241798.400878906,82286376.953125,17964862.823486328,10784110.069274902,19467533.111572266,11807913.780212402,19399457.931518555,32813694.00024414,81755187.98828125,83524215.69824219,38344696.044921875,10051334.381103516,-43774.51911568642,7258196.830749512,11958182.334899902,20517765.045166016,27485260.009765625,34581619.26269531,78014244.07958984,24969821.92993164,14629575.729370117,-10380172.729492188,2133237.838745117,-5992296.6957092285,18854473.114013672,22334812.16430664,31743103.02734375,47769630.432128906,55073841.0949707,31054954.528808594,2360113.3823394775,13858044.624328613,12304899.215698242,16095144.271850586,27103191.375732422,36836929.32128906,47570148.46801758,68339790.34423828,68399681.0913086,51459041.595458984,28559713.36364746,48130813.59863281,48431541.442871094,-180332916.25976562,51368606.56738281,52814163.20800781,51757320.404052734,47542140.96069336,48256137.84790039
0.04,115297012.32910156,90508979.79736328,93731559.75341797,97071075.43945312,72403709.4116211,83360626.22070312,151835952.75878906,53710052.490234375,25789463.04321289,31355979.919433594,39245754.24194336,59123195.64819336,68155052.1850586,99789321.89941406,136991653.4423828,43946640.01464844,14145680.42755127,22113506.317138672,11586952.209472656,20503711.700439453,40530193.32885742,115955390.93017578,127658828.73535156,63960716.247558594,30582221.98486328,7713794.231414795,8780685.424804688,10696382.522583008,21975526.809692383,36761722.564697266,50472126.00708008,122409996.03271484,46483993.53027344,34003650.6652832,-6418460.369110107,2501990.795135498,-1465935.468673706,19684808.7310791,29574079.513549805,46034366.607666016,72876197.8149414,90658363.34228516,52742759.704589844,8255925.178527832,30687229.15649414,31150213.24157715,22101575.85144043,40446464.53857422,60705631.256103516,82942153.93066406,106258575.43945312,106021614.07470703,79602355.95703125,58166259.765625,71034042.35839844,72064132.69042969,-148084671.0205078,79259498.5961914,80756446.8383789,80178649.90234375,70582183.83789062,69908378.60107422
0.045,116557167.05322266,94004783.6303711,95813171.38671875,94009880.06591797,70905822.75390625,79874992.37060547,131336029.05273438,49473587.03613281,26841066.360473633,33837329.86450195,38655387.87841797,49515384.674072266,62311550.14038086,82778289.79492188,120345397.94921875,31717592.239379883,13478343.963623047,23099763.870239258,13834097.862243652,21908950.805664062,37806732.177734375,98828186.03515625,108165596.00830078,55538208.0078125,18090660.095214844,1419692.2779083252,6611721.992492676,11601131.439208984,22753854.751586914,31648088.455200195,38678543.09082031,102116172.79052734,37972332.00073242,23923851.013183594,-12479259.490966797,-49575.5560696125,-10460900.30670166,20101869.583129883,24417770.385742188,35918060.302734375,61325157.165527344,78177238.46435547,42028511.04736328,2504198.0743408203,15919956.20727539,15856400.489807129,17161684.036254883,31218151.092529297,45664718.62792969,60712131.50024414,89892471.31347656,89665962.21923828,65971084.59472656,38077125.549316406,58837100.982666016,59568038.94042969,-150999465.9423828,65766136.169433594,67289382.93457031,65651000.9765625,58603439.33105469,58668361.66381836
0.05,100964439.39208984,88286804.19921875,88900260.92529297,71861389.16015625,57713973.99902344,55789405.822753906,67468757.62939453,30237012.86315918,22348436.35559082,32365871.42944336,30622030.25817871,24008216.857910156,43505283.35571289,38668815.61279297,63758701.32446289,-1982715.0106430054,9363151.550292969,21950374.603271484,15842512.130737305,21813796.997070312,28414291.381835938,55812011.71875,54746391.29638672,28264171.600341797,-12114903.450012207,-12994275.093078613,2305677.4139404297,12917351.722717285,22263456.344604492,18716522.216796875,12439988.136291504,48993793.48754883,13313210.487365723,-2598333.1203460693,-24097282.40966797,-4143484.592437744,-25867975.23498535,20119800.567626953,12964474.67803955,13675487.518310547,30826194.763183594,39593444.82421875,14415369.987487793,-9514880.180358887,-14347146.987915039,-16612092.971801758,7315138.339996338,11192842.483520508,11769201.278686523,9359899.520874023,45659538.26904297,45664405.822753906,30947526.931762695,-6510321.617126465,29439636.23046875,29254035.94970703,-174259414.67285156,31172401.428222656,32654170.989990234,29789590.83557129,29379713.05847168,31363426.208496094
0.055,92165779.11376953,83371376.03759766,83702629.08935547,59093086.24267578,48385189.056396484,43316188.81225586,34560878.75366211,19270690.91796875,17920671.463012695,29269348.14453125,23213670.73059082,7423449.993133545,30526206.970214844,14576830.863952637,35033214.5690918,-20340478.897094727,6185798.168182373,20191617.965698242,15216591.835021973,19675693.51196289,21363754.272460938,33666439.056396484,25236278.533935547,14682352.066040039,-28320430.755615234,-22023370.74279785,-638681.0541152954,12252676.963806152,20663082.122802734,10684204.1015625,-3449314.3558502197,22338973.999023438,1305128.9319992065,-17331409.454345703,-31370971.6796875,-7167047.500610352,-35415710.44921875,19533906.936645508,6008903.503417969,1286996.4838027954,14856697.082519531,19477657.318115234,186020.1209783554,-16672958.374023438,-31304666.51916504,-34804481.506347656,2105132.818222046,526453.3758163452,-5586621.7613220215,-18241329.193115234,23713718.41430664,23836509.704589844,12673442.840576172,-29881200.790405273,14616150.856018066,13869923.59161377,-180845260.6201172,13207992.553710938,14536731.719970703,11695385.932922363,14627902.98461914,17656867.98095703
0.06,97429450.98876953,83760169.98291016,83705223.0834961,63676803.58886719,48106548.30932617,51196083.068847656,46755989.07470703,22981719.970703125,17441961.28845215,27964487.075805664,20868740.08178711,5840612.888336182,28064292.907714844,17588367.462158203,48242603.30200195,-15654322.624206543,6169542.7894592285,19577733.993530273,13447260.856628418,17621421.813964844,19484327.31628418,39073356.62841797,29242887.496948242,21058742.52319336,-24509469.985961914,-22483402.252197266,-1179102.1823883057,10288442.611694336,19073698.043823242,9962195.39642334,-4822240.352630615,30256597.5189209,7000501.63269043,-14374503.135681152,-32226703.643798828,-8439863.204956055,-37606052.39868164,18740417.48046875,5179451.465606689,1630530.1189422607,18178085.327148438,26093467.712402344,4297515.392303467,-16648138.046264648,-31509338.37890625,-34078083.03833008,2048609.972000122,1365679.9793243408,-2601812.3626708984,-15118948.936462402,31643987.65563965,31675273.895263672,16799518.585205078,-26324480.056762695,17982908.248901367,17299484.252929688,-169505798.33984375,17373783.111572266,18510469.436645508,16279312.133789062,18078987.12158203,20929180.145263672
0.065,106659461.97509766,86237731.93359375,84972717.28515625,73042503.3569336,50806133.27026367,64562179.56542969,67040641.78466797,30456392.288208008,19402082.443237305,29144750.595092773,21544563.29345703,8467319.48852539,28585123.06213379,23482181.549072266,70293182.37304688,-6450601.577758789,7351756.0958862305,20204511.642456055,13254758.834838867,17526224.13635254,19627901.077270508,48188327.78930664,38671554.56542969,30709482.192993164,-16923391.342163086,-21125959.396362305,-871313.4527206421,9401522.636413574,18538198.471069336,10757151.60369873,-3326195.001602173,42235744.47631836,14980917.930603027,-7789887.428283691,-31960432.052612305,-9087168.69354248,-38674369.81201172,18513319.01550293,5364726.543426514,3456794.9771881104,23569940.5670166,37217739.10522461,11088593.482971191,-15137763.977050781,-29947996.139526367,-30351186.752319336,1856531.262397766,3196260.452270508,1871536.2548828125,-8722973.823547363,43593898.77319336,43550544.73876953,23679201.126098633,-19927288.055419922,22461709.97619629,22012147.903442383,-164290481.5673828,24190570.831298828,25234998.70300293,22857809.06677246,22732921.600341797,25226358.41369629
0.07,112655250.5493164,87941665.64941406,85559799.19433594,78665611.26708984,52118209.83886719,72898475.64697266,76220344.54345703,33780609.130859375,20180501.93786621,30505254.7454834,21935663.2232666,9223450.660705566,28386638.641357422,22355329.513549805,82664382.93457031,-3491897.8214263916,6976110.935211182,20655794.143676758,14458782.196044922,18431848.526000977,19722099.30419922,51137241.36352539,41770469.665527344,34703048.70605469,-14525222.778320312,-22427902.221679688,-1053255.558013916,10080410.957336426,19096946.716308594,10602407.455444336,-3630416.15486145,46245334.62524414,17225753.784179688,-5586271.7628479,-33832897.1862793,-9928010.940551758,-40868316.650390625,19113304.138183594,4791109.085083008,2627785.2058410645,24295389.17541504,41633552.55126953,13188408.851623535,-15533936.500549316,-32068603.515625,-30274858.474731445,385505.3782463074,2645675.1823425293,1448272.2282409668,-9389481.544494629,48285636.90185547,48337108.61206055,25330760.955810547,-19549852.37121582,22324903.48815918,21906867.98095703,-169671340.9423828,25807090.759277344,26909282.684326172,23949689.865112305,22745330.810546875,25171506.881713867
0.075,118437133.7890625,90271217.3461914,87977027.8930664,84235664.36767578,54071411.1328125,79889862.06054688,88287528.99169922,35778228.759765625,18768234.252929688,30051109.313964844,21648586.27319336,12178057.670593262,30726741.790771484,26155576.705932617,96598815.91796875,-318652.4510383606,4926025.390625,19942447.662353516,14756024.360656738,18348230.361938477,20746002.197265625,58745918.27392578,51172557.83081055,39531978.607177734,-11581781.387329102,-24257801.055908203,-1557079.0767669678,10695564.270019531,20142301.559448242,12257359.504699707,-350687.6528263092,56571872.71118164,20195466.995239258,-2742317.6765441895,-35862346.64916992,-10719877.243041992,-41207046.50878906,20151706.69555664,6205340.385437012,4948698.043823242,29003299.713134766,48313179.01611328,17419944.763183594,-15643537.521362305,-30449382.781982422,-26699932.098388672,1179249.2866516113,5444208.145141602,6184062.957763672,-3279199.8386383057,57426918.029785156,57590362.548828125,31747581.481933594,-12696640.014648438,27651824.951171875,27121095.657348633,-168215148.92578125,32174774.169921875,33404788.970947266,30930612.564086914,28040872.57385254,30226978.302001953
0.08,127566978.45458984,94837516.78466797,93449829.1015625,93848060.60791016,58738906.86035156,90341148.37646484,112950645.44677734,40887557.98339844,17318973.541259766,28542554.85534668,22109409.33227539,20037086.486816406,36930564.880371094,41185508.728027344,120619926.45263672,9023418.426513672,3193224.9069213867,18751726.150512695,13474803.924560547,17312700.271606445,23373910.903930664,76460838.3178711,72176338.19580078,50161338.806152344,-3456083.297729492,-23798511.505126953,-1783030.7483673096,10165357.58972168,21223686.21826172,16949939.727783203,8426913.261413574,79643302.91748047,29127092.361450195,4895463.466644287,-35803157.806396484,-11150915.145874023,-38684841.15600586,21186305.99975586,10609704.971313477,13086189.270019531,41998020.17211914,63306156.158447266,28037878.036499023,-13229912.757873535,-21880294.799804688,-16397453.308105469,5466559.410095215,13746824.264526367,20375137.329101562,16006795.883178711,77344116.2109375,77439071.65527344,48134136.19995117,6109806.537628174,43338848.11401367,42772884.368896484,-152876937.86621094,48459419.25048828,49775432.58666992,49231231.689453125,43544494.62890625,45077693.939208984
0.085,137054550.17089844,99779228.21044922,98878646.85058594,103912788.39111328,63709232.330322266,100604804.99267578,136924224.85351562,47466175.0793457,17677463.53149414,27963962.55493164,23505453.10974121,27937492.37060547,42658187.86621094,56278404.235839844,143358734.13085938,19076484.68017578,2849959.135055542,18289764.404296875,12301123.61907959,16942579.26940918,26053119.659423828,93735870.36132812,91018196.10595703,60467414.85595703,4596107.006072998,-22388919.830322266,-1843152.2846221924,9154294.967651367,22069839.477539062,21504707.33642578,16276365.280151367,101049385.07080078,38600208.2824707,12448566.436767578,-35056991.57714844,-11649127.006530762,-36658069.6105957,21975130.081176758,14907471.656799316,21171396.255493164,54794029.235839844,77759773.25439453,38276954.650878906,-10214294.43359375,-13793517.112731934,-7219286.4418029785,9664648.056030273,21438545.22705078,33926696.77734375,34458297.72949219,95982055.6640625,95896705.6274414,64052330.017089844,23538591.384887695,59285007.47680664,58831031.799316406,-136532730.10253906,64290428.161621094,65601341.247558594,67082588.19580078,59334190.368652344,60253551.4831543
0.09,140809570.3125,101690528.8696289,100424949.6459961,107291374.20654297,64778541.564941406,102866416.93115234,140800399.78027344,49658180.236816406,18605030.059814453,28511465.072631836,23980155.94482422,28956890.106201172,42755111.69433594,57381336.2121582,147693191.5283203,19838644.02770996,2539450.8838653564,18334291.458129883,12558530.807495117,17752496.71936035,26338376.998901367,97242088.3178711,92231964.11132812,60974830.627441406,4245037.55569458,-24074787.139892578,-2539574.62310791,8688853.26385498,22265554.428100586,21968557.357788086,16115930.557250977,103827239.99023438,39460464.47753906,12063075.065612793,-36932193.756103516,-13045685.768127441,-38671638.48876953,22288656.23474121,15470323.56262207,21755794.525146484,56419792.17529297,78701263.42773438,38631137.84790039,-10678149.223327637,-15157311.43951416,-8562011.71875,9643545.150756836,21384737.014770508,34572692.87109375,34507236.48071289,97427825.92773438,97267402.64892578,65550559.997558594,23445487.97607422,61948028.564453125,61578178.40576172,-131869735.71777344,65810043.33496094,67043327.33154297,69250640.86914062,61999473.571777344,62878059.38720703
0.095,136798965.45410156,100013862.60986328,98126594.54345703,101404373.16894531,61029262.54272461,94474159.24072266,120033897.39990234,44126251.220703125,17528722.763061523,28584787.368774414,22021238.327026367,21770612.716674805,36597343.44482422,42962547.302246094,129486557.00683594,8095849.990844727,449434.7274303436,17513345.71838379,13548742.294311523,18629598.61755371,23238864.89868164,84520729.0649414,74694953.91845703,49856510.162353516,-6356386.184692383,-30966453.552246094,-4427432.060241699,8803754.806518555,21583341.598510742,17685026.168823242,7487353.801727295,86032485.96191406,29532535.552978516,2015324.8310089111,-42465896.60644531,-15578633.308410645,-44797340.393066406,22005577.087402344,11784462.928771973,13462419.509887695,44865531.92138672,63330612.18261719,27481416.702270508,-16073608.3984375,-27225090.02685547,-21414569.854736328,4965997.219085693,12825967.788696289,20634922.02758789,13325684.547424316,79119598.38867188,79021255.49316406,50383769.98901367,4295184.61227417,48945976.25732422,48388126.373291016,-138228546.14257812,50802371.978759766,51932392.12036133,53567726.135253906,49146865.84472656,50600887.298583984
0.1,131360855.10253906,98729751.58691406,96603912.35351562,93474922.18017578,57247924.8046875,83990066.52832031,93855697.63183594,35996112.82348633,14852046.012878418,27648979.18701172,19400894.165039062,13770535.469055176,29934249.877929688,26989435.19592285,106289146.42333984,-6524827.95715332,-2574448.585510254,15713256.8359375,13864888.191223145,18739389.419555664,19063337.326049805,68212318.42041016,54646453.857421875,37069240.57006836,-18529272.079467773,-39565750.12207031,-6692400.932312012,8864644.050598145,20545728.68347168,12518360.137939453,-2051682.472229004,64656311.03515625,17868963.24157715,-9401005.744934082,-48233444.21386719,-18170837.40234375,-51153312.68310547,21464082.717895508,7269145.965576172,3207799.6730804443,30434391.021728516,44778114.318847656,14581130.981445312,-22404457.092285156,-40880001.068115234,-35809898.376464844,-634319.2458152771,2902943.3727264404,4006757.2593688965,-12152183.532714844,57254207.611083984,57176399.23095703,32489425.659179688,-17342773.4375,33025440.216064453,32083679.19921875,-146938125.61035156,33123928.07006836,34172031.40258789,35013977.05078125,33416362.762451172,35542304.99267578
0.105,135617492.67578125,102858848.57177734,101062187.19482422,96947860.71777344,60570518.493652344,86861106.8725586,95728775.02441406,36954399.10888672,14486754.417419434,27312715.530395508,20171745.30029297,16361162.185668945,31479869.842529297,29668203.353881836,108846511.84082031,-6598815.441131592,-3206481.695175171,14949260.711669922,13186585.426330566,18423246.383666992,18432336.807250977,69466560.36376953,56515727.99682617,38068908.69140625,-17903593.063354492,-42325134.27734375,-7250737.66708374,8568802.833557129,20018726.348876953,12356809.616088867,-1611913.9194488525,66051597.595214844,18709997.177124023,-8814986.228942871,-48750259.39941406,-18983989.715576172,-52122390.74707031,21241233.825683594,7007208.824157715,1872367.7396774292,29462331.771850586,44668281.55517578,14869747.161865234,-22823987.96081543,-41618999.48120117,-36506687.16430664,-2007042.8848266602,1933395.0281143188,2550919.771194458,-15811996.459960938,57006122.58911133,56808540.34423828,32639362.335205078,-17939214.7064209,32754741.668701172,31728841.78161621,-148965866.0888672,33354244.232177734,34378021.240234375,35136054.99267578,33250770.568847656,35382331.84814453
0.11,153605377.19726562,112400619.50683594,111370956.42089844,117454971.31347656,72396049.49951172,109405838.01269531,141501220.703125,52953632.35473633,18874187.469482422,28789928.436279297,25475982.666015625,33102634.42993164,43998882.29370117,58301841.735839844,151576446.53320312,15778809.547424316,353211.01546287537,16923852.920532227,12274794.578552246,18030952.45361328,23356395.721435547,98416030.88378906,90624107.36083984,58567607.87963867,1572111.72580719,-35337924.95727539,-4794673.919677734,8185090.065002441,20148679.733276367,19323751.44958496,12603855.13305664,101774642.94433594,37236900.329589844,9076636.31439209,-42257980.34667969,-17222387.313842773,-45250396.728515625,21427228.927612305,12889792.442321777,13948213.577270508,48882511.138916016,72503540.0390625,34242290.49682617,-14726074.21875,-22860946.655273438,-16776782.989501953,2921462.297439575,13714678.764343262,23472995.75805664,12934644.69909668,89031913.75732422,88687263.48876953,58905544.28100586,11561161.994934082,54859848.02246094,54392280.57861328,-139361968.99414062,59420005.798339844,60485168.45703125,61934776.306152344,55295993.80493164,56429992.67578125
0.115,174530670.16601562,120837585.44921875,120554641.72363281,142664916.9921875,84515251.15966797,137551818.84765625,203397354.12597656,74438613.89160156,25259143.829345703,30893775.939941406,30972372.05505371,52670364.37988281,58521121.978759766,94323249.81689453,208659042.35839844,46041038.513183594,5711708.068847656,20629228.591918945,11975463.8671875,17282709.1217041,29659429.5501709,137809692.3828125,135549514.7705078,84855369.5678711,27453550.338745117,-24197942.73376465,-682308.2566261292,8021903.038024902,20241668.701171875,28115789.41345215,30233369.827270508,149225555.41992188,60910560.607910156,32667255.401611328,-33758647.91870117,-14321089.744567871,-35206039.42871094,21421665.19165039,20369623.1842041,30234661.102294922,74878913.87939453,110499359.13085938,60111286.16333008,-3931501.865386963,3428064.5847320557,10968196.868896484,10268791.198730469,29182184.21936035,51764255.52368164,51879676.818847656,132743835.44921875,132355728.14941406,94237579.34570312,51922176.361083984,84079757.69042969,84415985.10742188,-122795013.42773438,94392852.78320312,95534812.9272461,97825271.60644531,84319816.58935547,84050064.08691406
0.12,183294097.90039062,122097465.51513672,121847953.79638672,154095748.9013672,87527183.53271484,150123901.3671875,234438003.54003906,85512321.47216797,29092439.651489258,31951578.14025879,31954296.112060547,59983833.31298828,62866634.368896484,109798370.36132812,236710815.4296875,60715065.002441406,9029499.053955078,23571849.822998047,12660946.8460083,16317516.326904297,31377973.556518555,157905197.1435547,156510055.5419922,96755752.56347656,40127109.52758789,-18493701.934814453,2258898.7350463867,7970400.333404541,19892572.4029541,31179002.76184082,36293094.635009766,171050811.76757812,71453269.9584961,44196208.95385742,-30112977.981567383,-12634475.708007812,-30016191.482543945,20709003.448486328,22660552.978515625,36330577.8503418,85315269.47021484,129495620.72753906,72817695.61767578,951874.852180481,16845453.2623291,25643655.77697754,13580579.75769043,34639595.03173828,63702854.15649414,66403068.54248047,154509094.23828125,154158096.31347656,111666595.45898438,72559066.77246094,97252822.87597656,97902656.55517578,-112079971.31347656,111614913.94042969,112822441.10107422,115551048.2788086,97295379.63867188,96211082.4584961
0.125,178654388.42773438,118215316.77246094,117068435.66894531,149239471.43554688,82626808.1665039,143581420.8984375,222783645.6298828,82658309.93652344,29752660.751342773,32450199.127197266,29741256.713867188,54403079.986572266,56515121.45996094,99806602.47802734,224749755.859375,54777866.36352539,9419927.597045898,24700773.239135742,14172360.42022705,16277292.251586914,28566289.9017334,151158126.8310547,145611236.57226562,90831512.45117188,35354351.04370117,-20636213.302612305,2809363.842010498,7752065.658569336,19711059.5703125,27800752.639770508,29028392.791748047,158558975.21972656,65827682.49511719,39947647.09472656,-32453571.319580078,-12995965.003967285,-32137966.15600586,19612922.66845703,18790706.634521484,29582054.138183594,75682723.99902344,121988243.10302734,67608016.96777344,-1851697.0872879028,11487598.419189453,21002225.875854492,10967013.359069824,27537809.371948242,54074672.69897461,49878475.189208984,145294479.3701172,144983215.33203125,103929565.4296875,65124000.549316406,88894096.37451172,89248306.27441406,-114776054.38232422,103940994.26269531,105177879.3334961,108033210.75439453,88875221.2524414,87819595.33691406
0.13,173714736.93847656,116764892.578125,114570449.82910156,143238250.73242188,79906913.75732422,134492065.4296875,202630020.14160156,77169494.62890625,30136835.0982666,33861072.5402832,29625904.083251953,49648796.08154297,51052494.049072266,87333122.25341797,204146392.82226562,45620059.967041016,8875621.795654297,24805345.53527832,15790353.775024414,17887096.405029297,27102676.391601562,139904357.91015625,129704513.54980469,82537109.375,27569009.78088379,-24241512.298583984,2200954.4372558594,7479652.404785156,20468114.852905273,24566179.275512695,21596582.412719727,140718841.55273438,58037860.87036133,32813526.153564453,-35927757.263183594,-14243144.035339355,-36010730.7434082,18934534.072875977,14656624.794006348,21593582.153320312,63704925.537109375,108486846.92382812,58321685.791015625,-6272497.177124023,1516834.8550796509,11555339.813232422,6998677.2537231445,18894145.965576172,41017990.11230469,29913513.18359375,128604690.55175781,128341857.91015625,89784591.67480469,50763439.1784668,75725723.26660156,75765281.6772461,-123496810.91308594,89904472.35107422,91135398.8647461,94221244.81201172,75792343.13964844,74915382.3852539
0.135,177082092.28515625,120638710.02197266,118230369.5678711,146786544.7998047,84244735.71777344,135824874.8779297,204340560.91308594,78025230.40771484,31346534.729003906,35547794.342041016,32877048.49243164,54264438.62915039,54151390.075683594,91201095.58105469,203192672.7294922,47464767.45605469,8621294.021606445,24483327.865600586,16499856.948852539,20002666.473388672,30001300.811767578,144075302.12402344,131984359.74121094,83674293.5180664,28709939.95666504,-24085899.353027344,1842668.4141159058,7583829.879760742,21833538.055419922,25895473.48022461,23583610.53466797,142985031.1279297,58746528.62548828,33333576.202392578,-36869819.64111328,-15096071.243286133,-36012550.354003906,18901462.55493164,14932662.963867188,21726242.065429688,64403366.08886719,107673446.65527344,57349048.61450195,-7199876.308441162,821010.8876228333,11768139.839172363,6360881.328582764,18076536.178588867,40363574.98168945,29471574.783325195,126871658.32519531,126696029.66308594,87900009.15527344,50205390.93017578,73495948.7915039,73586784.36279297,-125051918.02978516,87963272.09472656,89154014.58740234,92478370.6665039,73676956.17675781,72554718.01757812
0.14,183044265.7470703,124890808.10546875,122976036.07177734,153739639.28222656,89491973.87695312,142771102.90527344,218991622.9248047,81900405.88378906,31509525.299072266,35318210.60180664,35111343.38378906,61599308.013916016,60498615.26489258,103757263.18359375,214791610.71777344,55091594.69604492,8195873.260498047,23577697.75390625,15819426.536560059,20596265.79284668,33348793.029785156,156901031.49414062,144284866.3330078,89201972.96142578,34628757.47680664,-22108757.01904297,1744290.4710769653,8029125.213623047,22555641.174316406,28725786.209106445,29493040.084838867,156695159.91210938,63367523.193359375,37861095.4284668,-36550373.07739258,-15468577.38494873,-33168682.098388672,18828805.923461914,17546899.795532227,25950874.32861328,72162979.12597656,114994201.66015625,61731826.78222656,-6104806.900024414,6890113.830566406,19065996.170043945,8294506.072998047,22100543.975830078,47223068.23730469,40062129.974365234,135866195.67871094,135762130.7373047,95968322.75390625,60099170.68481445,79386909.48486328,79614669.79980469,-115830589.2944336,95925735.47363281,97042778.01513672,99991981.50634766,79595260.62011719,78049591.06445312
0.145,184544342.04101562,125329368.5913086,123466110.22949219,155780044.55566406,89567428.58886719,146878173.828125,226119400.02441406,83726181.03027344,30359863.28125,33272174.835205078,33749336.24267578,63463726.04370117,62589252.47192383,109537429.80957031,221214797.9736328,59027423.85864258,8125185.966491699,22758556.365966797,14513739.585876465,19274162.29248047,33191741.943359375,162914871.2158203,149109771.72851562,91181915.28320312,37547386.169433594,-21320873.260498047,1747060.1797103882,8084754.943847656,22049602.508544922,28985492.706298828,30638044.357299805,162221099.85351562,64709472.65625,39724765.77758789,-36779838.56201172,-15666492.462158203,-31320779.80041504,18052518.844604492,18552309.036254883,26846632.00378418,75047012.32910156,118524604.79736328,63870193.48144531,-6282138.347625732,10742099.76196289,23733995.43762207,9456922.53112793,24123302.459716797,50183887.48168945,43941864.013671875,141216018.6767578,141100646.97265625,102208190.91796875,66900650.02441406,83050910.94970703,83203666.68701172,-102516235.3515625,102215057.37304688,103253067.01660156,105138549.8046875,83195587.15820312,81470466.61376953
0.15,185637802.12402344,125123229.98046875,122194175.72021484,157258071.89941406,88144302.36816406,151125549.31640625,230130874.63378906,86845222.47314453,31001062.393188477,32472576.141357422,32393371.58203125,63464698.791503906,62563976.2878418,110624534.6069336,226309020.99609375,62660762.786865234,10364825.248718262,23639194.48852539,14091029.167175293,17917285.919189453,31945331.573486328,164053649.90234375,149686264.03808594,93164443.96972656,40208175.65917969,-19662940.979003906,2627500.295639038,7298677.921295166,21220663.07067871,28432689.666748047,29318058.013916016,162170440.67382812,66133552.55126953,41567508.697509766,-35990554.80957031,-15474789.6194458,-30442594.528198242,16868379.592895508,18593334.197998047,26358247.756958008,74831161.49902344,120416923.52294922,65324455.26123047,-6971848.011016846,12667127.60925293,25680271.14868164,9502356.52923584,25053644.18029785,50916801.45263672,43672241.2109375,143447174.07226562,143270370.48339844,105252700.80566406,69894752.5024414,84138801.57470703,84236534.11865234,-91255699.15771484,105395309.44824219,106393661.49902344,107439353.9428711,84212661.74316406,82420570.37353516
0.155,193246948.2421875,128993957.51953125,124568191.52832031,166130889.89257812,91734703.06396484,161894989.01367188,247156661.9873047,95688285.82763672,35100902.55737305,34526527.404785156,34902511.59667969,69026168.82324219,66720054.626464844,119117897.0336914,243444122.31445312,73713996.88720703,14932055.473327637,26374555.587768555,15073065.757751465,18248689.651489258,34076061.2487793,172558563.23242188,160424697.87597656,101869689.94140625,48926799.77416992,-14073028.564453125,4818682.670593262,6243645.668029785,21258411.407470703,30999740.600585938,33088737.48779297,172154754.63867188,74084602.35595703,49045150.75683594,-32190448.760986328,-14659697.532653809,-27653350.830078125,16088985.443115234,20803750.99182129,30954147.338867188,81144424.43847656,129849075.31738281,71837310.79101562,-5358473.300933838,19076040.267944336,31912984.84802246,10707136.154174805,30000146.865844727,58207977.294921875,53051914.21508789,152466140.7470703,152249603.27148438,111941490.17333984,77899040.22216797,89221199.03564453,89581718.44482422,-81951431.27441406,112086616.51611328,113095863.34228516,114216171.26464844,89270431.51855469,87161842.3461914
0.16,204228546.14257812,134835754.39453125,129651199.34082031,179104858.3984375,98608390.80810547,175811355.5908203,274390289.3066406,106178939.81933594,39544990.53955078,36772380.82885742,38980148.31542969,77994369.50683594,74135681.15234375,135137725.83007812,268986755.37109375,89192207.33642578,18771240.234375,28760169.982910156,16013717.651367188,19435073.852539062,38703708.64868164,188637268.06640625,180803466.796875,114162605.28564453,61349021.911621094,-6373373.031616211,7254327.774047852,5727350.71182251,21984336.853027344,35879615.783691406,41362194.0612793,192058059.6923828,85931076.04980469,60054981.23168945,-26696216.583251953,-13503176.68914795,-22507490.158081055,15808533.668518066,24899969.10095215,39691104.888916016,93626876.83105469,145464935.30273438,82264862.06054688,-1352277.9941558838,30507360.458374023,43708908.08105469,13671281.814575195,38258003.23486328,71239997.86376953,72035575.86669922,168587417.60253906,168334030.1513672,123500045.77636719,92599662.78076172,98503486.63330078,99253341.67480469,-71248123.16894531,123493713.37890625,124534736.63330078,125970359.8022461,98535789.4897461,95868705.74951172
0.165,210448638.91601562,136656738.28125,131728744.50683594,187260025.02441406,101965339.66064453,185694854.73632812,297708618.1640625,112017875.67138672,40639671.325683594,35848510.7421875,39829406.73828125,83053810.1196289,78928619.38476562,148906600.95214844,290528503.41796875,101423416.13769531,19765552.520751953,28972133.63647461,14904908.180236816,19036989.212036133,41311248.779296875,202488449.0966797,198915634.15527344,123278770.44677734,71535110.47363281,-173530.2358865738,8803128.242492676,5611820.697784424,22063808.44116211,39223964.69116211,47461318.96972656,208752349.85351562,95114120.48339844,69294639.58740234,-21792280.197143555,-12126832.962036133,-17081302.642822266,15258769.035339355,27861993.78967285,46165668.48754883,103538230.8959961,159441253.66210938,91958976.74560547,3282950.1628875732,42736240.38696289,56594470.9777832,16842708.587646484,44825664.52026367,82211959.83886719,89989479.0649414,184943359.375,184599212.64648438,135917755.12695312,109057319.64111328,106850158.69140625,107813804.62646484,-56272933.95996094,135734268.18847656,136811935.4248047,137695938.11035156,106815162.6586914,103527793.88427734
0.17,211467941.2841797,133673034.66796875,129257125.85449219,190189010.6201172,100749565.12451172,192083816.5283203,315660675.0488281,114564460.75439453,39251495.361328125,32456649.780273438,37550815.58227539,84001968.38378906,79980766.29638672,157572814.94140625,308039123.53515625,110877464.2944336,19597276.68762207,27907686.233520508,11718977.928161621,16226243.97277832,40767005.920410156,211399398.80371094,211625823.97460938,130291625.9765625,80204292.29736328,4705874.443054199,9809439.659118652,5142414.093017578,20800985.33630371,40309448.2421875,49839851.37939453,218598068.2373047,101844635.00976562,77246131.89697266,-17265777.587890625,-10206804.275512695,-12435767.17376709,14083890.914916992,29002202.9876709,48922149.658203125,108426033.02001953,170925170.8984375,101075424.19433594,8146593.09387207,54624332.427978516,68544052.12402344,19414522.171020508,48719524.38354492,89720932.00683594,104410484.31396484,200171356.20117188,199739166.25976562,148235275.2685547,125619812.01171875,113387832.64160156,114526504.51660156,-37025382.99560547,147853332.51953125,148977539.0625,148668701.171875,113265403.7475586,109283073.42529297
0.175,212000915.52734375,130593978.88183594,126023231.50634766,192615081.78710938,99278228.75976562,197507171.63085938,330254455.56640625,117537208.5571289,38634044.6472168,30121648.78845215,36009132.385253906,84924583.4350586,79914825.43945312,163117401.12304688,323626861.5722656,119819488.52539062,20565383.911132812,27432353.973388672,8839368.82019043,13000460.624694824,39531997.68066406,217526657.1044922,220690048.21777344,137699630.7373047,88921768.18847656,9530464.172363281,10871734.619140625,4250798.225402832,19008951.18713379,40812824.24926758,51324661.25488281,224942382.8125,108300224.30419922,85081336.97509766,-12619106.29272461,-8093734.7412109375,-9022494.316101074,13122472.763061523,29844490.05126953,50790054.32128906,111673309.32617188,180736801.14746094,109748756.4086914,12841385.841369629,64927970.88623047,78087135.3149414,21438592.9107666,51866104.12597656,96047019.9584961,116655204.77294922,212925949.0966797,212535537.71972656,158826004.0283203,139544403.07617188,119101234.43603516,120579116.82128906,-19875930.786132812,158200027.4658203,159344467.16308594,158466659.54589844,118983795.16601562,114394180.29785156
0.18,210541610.71777344,129459869.38476562,123692863.46435547,191750595.09277344,97848960.87646484,196213241.57714844,327085418.7011719,117277343.75,39021556.85424805,30078010.55908203,35761562.34741211,83117630.00488281,77120422.36328125,159381576.53808594,323050720.21484375,120779739.37988281,21742694.854736328,27495058.059692383,8387160.301208496,11657612.800598145,37951137.54272461,214458374.0234375,217061157.2265625,138600494.38476562,90605712.890625,11475223.541259766,11168309.211730957,3606773.614883423,17784196.853637695,39668537.13989258,50023433.685302734,220219009.39941406,109102661.1328125,86489059.44824219,-10301980.972290039,-7226028.919219971,-9075761.795043945,13277849.197387695,29754081.72607422,50109233.85620117,110478881.8359375,180120880.12695312,110730873.10791016,14503329.277038574,66227439.880371094,78481735.22949219,21646911.62109375,51940505.98144531,95736122.13134766,116843009.94873047,211914154.05273438,211686264.03808594,158860641.4794922,139652877.8076172,118517509.46044922,120162322.99804688,-15389081.954956055,158157272.3388672,159226623.53515625,158628860.4736328,118557456.97021484,114077278.13720703
0.185,202429016.11328125,127310539.24560547,119678039.55078125,182170013.42773438,92645439.14794922,183821960.44921875,296899688.7207031,109361366.27197266,38090660.095214844,30066802.978515625,33621864.318847656,73533767.70019531,68655929.56542969,141337539.67285156,296945892.3339844,108021865.84472656,21073198.318481445,26750722.885131836,9553618.431091309,11855581.283569336,34093513.48876953,196564132.6904297,194277832.03125,127177421.56982422,79925422.66845703,7786815.166473389,9831961.631774902,3277811.288833618,17059722.900390625,34894126.892089844,42537189.48364258,197153228.75976562,99675964.35546875,76947669.98291016,-12226143.836975098,-8235851.287841797,-13564834.594726562,14032190.322875977,26872024.536132812,43270984.6496582,99857795.71533203,163351211.54785156,99580787.6586914,11431901.931762695,54805313.11035156,66546173.095703125,18993925.094604492,45650333.404541016,83232749.93896484,97215187.0727539,191616912.84179688,191492172.24121094,144212005.61523438,121183227.5390625,107112815.8569336,108326484.68017578,-25367382.049560547,143808212.28027344,144729751.58691406,143991287.2314453,107368988.03710938,103963996.88720703
0.19,193131088.25683594,123092086.79199219,113984085.08300781,171624938.96484375,85679412.84179688,172853424.07226562,269948974.609375,101653396.60644531,35937858.58154297,28318908.69140625,29581228.256225586,63317646.02661133,60579147.33886719,125479072.57080078,273182220.4589844,96162277.22167969,19707826.614379883,25324903.48815918,9516138.076782227,11308091.163635254,29780597.686767578,180148223.87695312,174244827.2705078,115957458.49609375,69451477.05078125,3568183.183670044,8343117.713928223,2359731.674194336,16083000.183105469,30320091.247558594,35933959.9609375,176094802.8564453,90761177.06298828,67800033.56933594,-14428780.555725098,-9348966.598510742,-17289388.65661621,14043151.85546875,23800989.151000977,36142139.43481445,88908576.96533203,147842910.76660156,89041007.99560547,8207295.4177856445,44233310.69946289,55686805.725097656,16532247.543334961,38987579.345703125,70758621.21582031,77931396.484375,173674392.7001953,173477554.32128906,131184844.97070312,104599525.45166016,96109985.3515625,96685859.68017578,-35237640.380859375,131177474.97558594,132032058.71582031,130124679.56542969,96463348.38867188,94085403.44238281
0.195,195172698.97460938,120897354.12597656,111814170.83740234,175953399.65820312,85488304.1381836,181364868.1640625,289886535.64453125,107362220.76416016,35511356.353759766,26126857.75756836,28496963.500976562,67462379.4555664,64132133.48388672,137298721.31347656,292183837.890625,107217361.45019531,20707683.563232422,24811571.12121582,6989829.540252686,9106442.45147705,30622152.32849121,191314163.2080078,189799880.9814453,124616218.56689453,78421951.29394531,7591628.551483154,9244432.44934082,457061.38014793396,14886652.946472168,33298915.86303711,43374546.05102539,190403579.71191406,98966636.65771484,76132873.53515625,-10628531.455993652,-8262229.919433594,-12990522.384643555,13137206.077575684,26558334.350585938,41022346.49658203,95734535.21728516,159438476.5625,97731544.4946289,11724074.363708496,53745895.38574219,64921607.971191406,19364450.454711914,43596454.62036133,79625015.25878906,91489341.73583984,188037750.24414062,187708480.83496094,142407531.73828125,117921730.0415039,104217041.015625,104829521.17919922,-28086757.65991211,142325622.55859375,143302139.28222656,140585830.68847656,104460624.69482422,101708335.87646484
0.2,209189254.7607422,123457778.93066406,115865676.87988281,195361892.7001953,94454109.19189453,205895080.56640625,349786102.2949219,124746284.48486328,37792705.53588867,25543289.184570312,32816795.349121094,86658470.1538086,79005157.47070312,173670227.05078125,347507598.8769531,137948013.30566406,24031326.293945312,25621639.251708984,3859089.136123657,6999251.842498779,37709236.14501953,227776596.06933594,236444747.9248047,150746032.71484375,104464431.76269531,19664075.85144043,12430364.608764648,-1303321.0039138794,14357296.94366455,43754280.09033203,64295738.220214844,237494583.1298828,121958282.47070312,99808464.05029297,-1312559.6046447754,-5323060.035705566,-1476458.191871643,12625823.020935059,35704772.94921875,58529552.4597168,120921997.0703125,195128036.49902344,123300331.11572266,21606620.78857422,81102371.21582031,92239006.04248047,27361391.067504883,59951354.98046875,109378059.38720703,136200988.76953125,230172882.08007812,229839828.49121094,174779129.0283203,157567047.11914062,130959548.95019531,132359497.0703125,-5792409.896850586,174090148.92578125,175280929.5654297,173607360.83984375,130971603.39355469,126591651.9165039
0.205,219085845.94726562,126731346.1303711,120535789.4897461,209250411.9873047,102700599.67041016,221020034.79003906,388402923.5839844,135696380.61523438,40012554.16870117,26510217.666625977,38011074.06616211,101631683.34960938,89797943.11523438,197869674.6826172,382840240.4785156,157967346.19140625,26159740.447998047,26281318.66455078,2981907.844543457,7054361.820220947,44095436.096191406,252983016.96777344,266986999.51171875,167654220.5810547,121591949.46289062,28763666.1529541,14719703.674316406,-1429867.2676086426,14861900.329589844,51460395.81298828,79682563.78173828,270243164.0625,136707656.86035156,115618560.79101562,5316829.681396484,-3403192.9969787598,7271584.033966064,13253943.44329834,43073024.74975586,72080352.78320312,139964736.93847656,219360961.9140625,140245574.95117188,28952419.28100586,100163604.73632812,111616691.58935547,33347709.65576172,72536888.1225586,131214416.50390625,168683761.5966797,258074676.51367188,257850921.63085938,196635513.30566406,185234878.54003906,150812500.0,152776809.6923828,11666372.299194336,195436218.26171875,196729110.71777344,197139526.3671875,150638488.76953125,145103576.66015625
0.21,212260437.01171875,124905891.41845703,118551300.04882812,202078750.61035156,100369529.7241211,211323989.86816406,366631042.48046875,128989868.1640625,39699516.29638672,27400386.810302734,38504554.748535156,97283699.03564453,85140518.18847656,184686111.4501953,362583038.3300781,148071212.7685547,25093341.827392578,25729230.880737305,4866519.451141357,8999246.597290039,43448223.11401367,241051513.671875,249631027.2216797,157963226.31835938,112968292.23632812,26885627.74658203,13892843.246459961,66989.62301015854,15675941.467285156,48565158.84399414,74879127.5024414,254573013.30566406,128294387.81738281,108166297.91259766,3500148.5347747803,-4268498.89755249,6188298.225402832,13920235.633850098,41481658.935546875,67970458.984375,132920745.84960938,207574249.26757812,131180450.43945312,26939990.997314453,92865043.64013672,104602630.61523438,31543310.165405273,68364303.58886719,122972831.72607422,157282043.45703125,243292663.57421875,243066070.55664062,185713882.44628906,174311721.8017578,143173019.4091797,144798736.57226562,10583279.609680176,184588226.31835938,185781738.28125,187117218.01757812,142943649.2919922,137869857.78808594
0.215,195781768.79882812,117952255.24902344,110413856.50634766,183360122.68066406,90534759.52148438,190353851.31835938,317921936.03515625,114546348.57177734,37620151.51977539,26996213.912963867,34932155.60913086,82621574.40185547,72655364.99023438,153670272.82714844,317500640.8691406,124862693.7866211,22747591.018676758,24606161.11755371,7073491.096496582,10625374.794006348,38548549.65209961,210802108.76464844,209929473.87695312,135651290.8935547,92555671.69189453,19160581.588745117,11441215.515136719,1594432.8308105469,16014568.328857422,40214015.96069336,58953891.75415039,214643325.80566406,108778762.81738281,89420913.69628906,-2823227.1671295166,-6398427.963256836,126478.01637649536,13315977.096557617,34456825.256347656,53784584.045410156,111024551.39160156,177551406.86035156,108949516.29638672,19164339.065551758,72467941.28417969,84256088.25683594,25276271.82006836,54120857.23876953,98374778.7475586,123562698.36425781,207242599.4873047,206762435.91308594,157424865.72265625,143822631.8359375,118706497.19238281,119641174.31640625,-462942.0042037964,156659362.79296875,157636367.79785156,158148178.10058594,118495193.48144531,114585578.91845703
0.22,185383697.50976562,110559082.03125,102667526.24511719,173210388.18359375,83729034.42382812,180662963.8671875,301062408.4472656,108674369.81201172,35577068.32885742,24963220.596313477,31977821.350097656,77243705.74951172,67747169.4946289,142142959.59472656,301002441.40625,117052917.48046875,21664415.35949707,23757785.79711914,6807296.7529296875,10305081.367492676,36809959.411621094,199526077.2705078,195861343.38378906,125998588.56201172,85410789.4897461,16349128.723144531,10348385.81085205,1665440.4401779175,15901734.352111816,37575347.900390625,52489414.21508789,199949295.0439453,100096626.28173828,82041625.9765625,-5365346.908569336,-6958636.283874512,-907268.0473327637,12058240.89050293,31690107.345581055,48241596.22192383,101577529.90722656,165071365.3564453,99280204.77294922,14908305.168151855,65701377.868652344,77781471.2524414,22998693.466186523,47569442.74902344,88675643.92089844,112712738.03710938,192600021.3623047,191773605.3466797,144736999.51171875,132989990.234375,105624313.35449219,106423255.92041016,-3208202.600479126,144017654.4189453,144802902.2216797,144383865.3564453,105400932.31201172,101675392.1508789
0.225,185287155.1513672,105703292.84667969,98787979.12597656,176509353.6376953,83536209.10644531,186283874.51171875,325690917.96875,113726486.20605469,34024383.544921875,21785520.553588867,31414989.471435547,85038414.00146484,73103103.63769531,157164154.05273438,321712554.9316406,129426559.44824219,22016874.313354492,23067140.579223633,3847327.470779419,8429059.982299805,39797210.693359375,214651672.36328125,216472930.90820312,134361007.6904297,96430992.12646484,21341844.55871582,11425570.487976074,246512.7408504486,15645576.477050781,43196483.61206055,61281307.220458984,221559631.34765625,107222404.47998047,91537826.53808594,-1421069.3836212158,-5083495.616912842,5434243.202209473,11857262.61138916,36420589.447021484,56875122.0703125,112702507.01904297,179540161.1328125,109401695.25146484,18379957.19909668,79393463.13476562,92306671.14257812,27771224.975585938,55169376.373291016,102904891.96777344,135676834.1064453,210833221.43554688,209856536.86523438,158174743.65234375,152519515.99121094,115174041.74804688,116347434.9975586,7729752.540588379,157108123.77929688,157834686.27929688,157742156.98242188,114885841.3696289,110132080.078125
0.23,187498565.67382812,103131927.49023438,96851661.6821289,182073394.77539062,84757057.1899414,194509704.58984375,352496063.2324219,120126960.75439453,33323631.286621094,19296075.82092285,31382312.774658203,92879814.14794922,78257743.83544922,173284591.6748047,344441925.0488281,143557128.90625,22977251.052856445,22527019.500732422,806550.145149231,6650356.769561768,42354049.68261719,230552536.0107422,238692749.0234375,145870651.2451172,109844596.86279297,27872638.702392578,13081355.094909668,-1495177.7458190918,15156555.17578125,49255649.56665039,72306991.57714844,245793365.47851562,117460487.36572266,104330978.39355469,4459058.2847595215,-2490025.281906128,12348774.909973145,12807192.8024292,42265605.92651367,67349105.83496094,126824798.58398438,198843276.97753906,124033386.23046875,25411296.844482422,96187980.65185547,109690643.31054688,34072574.615478516,66061096.19140625,120894104.00390625,162171432.4951172,235337966.9189453,234475891.11328125,178197921.7529297,177160629.27246094,131862747.19238281,133124786.37695312,21078948.974609375,176804489.1357422,177651733.3984375,178489303.5888672,131527526.85546875,125874038.69628906
0.235,186890121.45996094,102825401.30615234,95491050.72021484,182484268.18847656,84079055.78613281,196875701.90429688,354599548.33984375,122513023.37646484,34796352.38647461,19794486.99951172,31295024.871826172,92409950.25634766,76918838.50097656,172627532.95898438,345456909.1796875,146880920.41015625,24654146.194458008,22967590.33203125,350200.7722854614,6249093.055725098,41357849.12109375,228581756.59179688,238378036.49902344,149169021.6064453,113838241.57714844,30429363.250732422,13911008.834838867,-2442426.919937134,14333270.072937012,49559581.7565918,74228965.75927734,246157745.36132812,120522941.58935547,108673469.54345703,7218770.980834961,-1269452.8102874756,14066166.877746582,12982007.026672363,42817142.486572266,68298934.93652344,127886146.54541016,202914764.40429688,128484909.05761719,29720037.46032715,100346038.81835938,113133483.88671875,35330459.59472656,68114181.51855469,123683601.37939453,166463485.71777344,241191421.50878906,240481765.7470703,184060485.83984375,182735717.7734375,136854751.58691406,137643554.6875,24838407.516479492,182602264.40429688,183678802.49023438,184757583.61816406,136543930.05371094,131080581.66503906
0.24,187078491.2109375,105458404.54101562,96475555.41992188,182576675.41503906,84662216.18652344,196927734.375,347373962.40234375,124515541.07666016,38391304.01611328,23107555.389404297,32948993.682861328,90507972.71728516,74855583.19091797,166417907.71484375,338529052.734375,146046005.24902344,27086956.024169922,24602804.18395996,2186684.6084594727,7062685.966491699,39942478.17993164,219836425.78125,229032821.65527344,148054687.5,113286628.72314453,30462907.791137695,14201482.772827148,-2488443.374633789,13572178.840637207,47124954.22363281,71416526.7944336,235468566.89453125,119222572.32666016,107426101.68457031,6854687.213897705,-1598586.916923523,12798024.17755127,11176602.363586426,39744148.25439453,63479839.32495117,121381599.42626953,196741851.80664062,125106452.94189453,29912672.04284668,96061378.4790039,107076133.72802734,31822275.161743164,62711948.39477539,116284103.39355469,157970184.32617188,233710418.70117188,232975250.24414062,177725006.10351562,174255981.4453125,130491989.13574219,130872543.33496094,19664808.27331543,176304611.2060547,177550216.6748047,178174072.265625,130227737.42675781,125427246.09375
0.245,191456008.9111328,109146186.82861328,99860076.90429688,188154922.48535156,88830734.25292969,200556243.89648438,356605346.6796875,129764846.80175781,41205135.345458984,25685737.60986328,36345737.45727539,95877273.55957031,78910461.42578125,172941864.01367188,346577087.40234375,152398391.7236328,29126737.594604492,25990810.39428711,3289250.612258911,7592541.694641113,41716869.35424805,223974182.12890625,235258941.65039062,151414276.12304688,118549392.70019531,32712184.90600586,15047648.429870605,-2433405.1609039307,13227422.714233398,48109737.396240234,74543792.72460938,240128372.1923828,121778358.45947266,110354927.06298828,7368049.144744873,-1597741.961479187,14509282.112121582,8824258.804321289,39235397.33886719,63851459.50317383,122714111.328125,198297409.0576172,126007507.32421875,30098146.438598633,97905738.8305664,107532630.92041016,29636167.526245117,60566051.4831543,116062759.39941406,161428512.5732422,234687820.4345703,233820251.46484375,176456878.66210938,173629379.27246094,127794425.96435547,128416290.28320312,16055719.375610352,175010299.6826172,176271026.61132812,176564773.5595703,127508087.15820312,122675643.92089844
0.25,196847183.22753906,109878662.109375,101384300.2319336,196468338.0126953,92845115.6616211,208642593.38378906,382681610.1074219,136554687.5,40766357.421875,24537668.228149414,38394237.51831055,105465660.09521484,86218276.97753906,190427902.2216797,370507812.5,166620056.15234375,30114587.783813477,25854825.973510742,1555824.9950408936,6469130.039215088,45174034.118652344,241068695.06835938,257493041.9921875,161760955.81054688,131540267.94433594,39054416.65649414,16992317.19970703,-2952687.5019073486,12967983.24584961,52919456.481933594,84820739.74609375,262032836.9140625,131407073.97460938,121311645.5078125,11979971.885681152,609327.495098114,21019910.81237793,8164735.794067383,43382606.506347656,72012954.71191406,134995697.02148438,214605621.33789062,136889694.2138672,34686744.689941406,111267601.0131836,120675155.63964844,32995220.184326172,67084594.7265625,128555145.26367188,182568176.26953125,252779586.7919922,251895431.5185547,189578216.55273438,190355300.9033203,137679214.47753906,138960708.61816406,21961025.23803711,188095809.93652344,189315002.44140625,189412582.39746094,137294570.92285156,131601516.72363281
0.255,199331314.08691406,106946197.50976562,98034523.0102539,202024017.33398438,92617294.31152344,219674804.6875,407678710.9375,142454132.08007812,38607105.25512695,21290534.97314453,37421031.9519043,110581169.12841797,89349662.78076172,202616180.41992188,395042144.7753906,181745117.1875,31431743.621826172,25176509.857177734,-1467122.197151184,4138951.301574707,46735027.31323242,255311447.1435547,276212127.6855469,175641510.00976562,146357406.61621094,47423206.3293457,19718826.293945312,-3735657.6919555664,12376006.126403809,57052883.14819336,93961578.36914062,280708251.953125,144922790.52734375,135801422.11914062,19938150.40588379,4678759.574890137,28718227.38647461,9254910.469055176,48429962.158203125,80543022.15576172,147087280.2734375,236187454.2236328,152110885.6201172,43235473.6328125,128081802.36816406,137639328.0029297,39581752.77709961,76792892.45605469,143325698.85253906,205375885.00976562,276131195.0683594,275388488.76953125,209044235.2294922,213103073.1201172,153269378.66210938,155010787.9638672,35550582.88574219,207557357.78808594,208801284.79003906,208092300.41503906,152790832.51953125,146288024.90234375
0.26,200623962.40234375,104813407.89794922,93193496.70410156,205205688.4765625,90318359.375,232381851.19628906,422325744.62890625,148138275.14648438,38175804.138183594,20191965.103149414,36029445.64819336,110334487.91503906,87446609.49707031,202647735.59570312,411177459.7167969,193599670.41015625,34679771.423339844,26008132.934570312,-2548363.447189331,2618872.64251709,46482913.970947266,258447326.66015625,280793243.4082031,188838333.1298828,157919784.54589844,54956462.86010742,22536863.327026367,-3858416.3188934326,11817230.224609375,58237316.1315918,96600852.9663086,283822509.765625,157000396.72851562,147389160.15625,27584217.071533203,8269037.246704102,33768306.732177734,10031040.19165039,50519409.1796875,83310157.7758789,150225097.65625,250670608.5205078,162823944.09179688,50839344.0246582,138690277.09960938,147625000.0,43803527.83203125,81587890.625,149933441.16210938,216292938.23242188,289762084.9609375,289144500.7324219,221334274.2919922,226748367.3095703,162246017.4560547,164080551.14746094,49280075.07324219,219744903.56445312,221018157.95898438,218836288.45214844,161727188.11035156,155048187.25585938
0.265,204936386.10839844,107401695.25146484,92710441.58935547,210638290.40527344,91354293.82324219,245123458.8623047,434215881.34765625,155113342.28515625,40037719.7265625,22357412.338256836,37462715.14892578,112218276.97753906,86996459.9609375,201067428.5888672,423876525.87890625,204084014.89257812,39176952.36206055,28515529.63256836,-1180226.20677948,3028200.86479187,47664409.63745117,259091827.39257812,281651336.6699219,199630035.40039062,166802322.3876953,61053962.70751953,24987962.72277832,-3111592.0543670654,11919951.438903809,59103569.03076172,97243591.30859375,282088073.73046875,165288482.66601562,154664825.43945312,32652084.350585938,9875637.05444336,36642173.767089844,9226949.691772461,50479354.85839844,83302955.6274414,149317657.47070312,257441436.76757812,167543167.1142578,54241386.41357422,143381423.9501953,151018783.56933594,43861892.70019531,81244567.87109375,151110397.3388672,220759506.22558594,294070983.88671875,293456695.5566406,224818008.42285156,231401321.4111328,162994125.36621094,164928176.8798828,59988124.84741211,222955734.2529297,224120407.1044922,220727569.58007812,162441726.6845703,155801818.84765625
0.27,211755310.05859375,112536148.07128906,96961471.55761719,219093231.20117188,96371566.77246094,255774734.4970703,451558197.0214844,162343170.16601562,41443340.30151367,24380142.211914062,40780204.77294922,120071334.83886719,91884002.68554688,209050430.29785156,439884887.6953125,215628906.25,42618236.54174805,30557178.497314453,-318174.5111942291,3965296.983718872,51130294.79980469,267360412.59765625,291980316.1621094,208625717.16308594,176020385.7421875,66869918.82324219,26915782.928466797,-2515362.9779815674,12320928.573608398,62309043.884277344,102732482.91015625,290768920.8984375,171779281.61621094,161164810.18066406,36492099.76196289,10561516.761779785,40409534.4543457,7902434.825897217,51564895.62988281,86885604.85839844,154194961.54785156,265572692.87109375,172335083.0078125,55698188.78173828,149554107.66601562,156320419.31152344,43484607.6965332,82358993.53027344,156547454.83398438,231760742.1875,301290649.4140625,300661285.4003906,229836105.3466797,239204925.53710938,164965713.50097656,167295852.6611328,71449020.38574219,227707489.01367188,228678543.0908203,224884887.6953125,164337249.75585938,157299713.13476562
0.275,216608917.23632812,116029571.53320312,101360473.6328125,225937072.75390625,100583595.2758789,262685668.9453125,467898132.32421875,166802337.64648438,40634586.334228516,23424566.2689209,42155071.25854492,127490020.75195312,97317626.953125,221230941.77246094,454323699.9511719,225301040.64941406,43761905.670166016,30438295.364379883,-2091150.0453948975,3359429.8362731934,53378639.221191406,277941345.21484375,306268005.37109375,215563201.90429688,184595596.31347656,72095977.78320312,28021156.311035156,-3085847.3777770996,11875799.179077148,65775192.26074219,111136558.53271484,305311096.19140625,178040206.9091797,168264862.06054688,40920555.114746094,11964794.158935547,45405170.44067383,7576311.5882873535,53942028.0456543,93212837.21923828,163632400.5126953,277692260.7421875,180058990.47851562,58678077.697753906,159086151.12304688,166001678.46679688,45897037.506103516,87515861.51123047,166803756.7138672,247670562.74414062,314721221.9238281,314170776.3671875,240727050.78125,253661239.62402344,172459732.05566406,175274490.3564453,84662612.91503906,238575103.75976562,239492080.68847656,235456192.01660156,171755874.63378906,164005187.98828125
0.28,220035446.1669922,121871795.65429688,106370964.05029297,228932846.06933594,101900886.53564453,264320739.74609375,467117065.4296875,166572052.00195312,39674716.94946289,21848445.892333984,40684104.919433594,125873565.67382812,96152870.17822266,221014968.8720703,452094635.0097656,225708404.54101562,43492298.1262207,29147333.1451416,-4231492.519378662,1754791.7366027832,51138389.587402344,274592193.6035156,304224273.6816406,215800247.1923828,185810440.06347656,73615890.50292969,27827873.22998047,-4299703.598022461,10364135.7421875,64698013.30566406,112342155.45654297,303659301.7578125,179292083.74023438,170024429.32128906,44074298.85864258,13439327.239990234,47523200.98876953,7863032.341003418,53568363.189697266,93460113.52539062,164098785.40039062,281010528.5644531,182700393.6767578,61232124.32861328,162891357.421875,170369003.29589844,48123954.77294922,89626617.43164062,169134628.29589844,249461303.7109375,318560852.05078125,318121093.75,244462600.7080078,259598022.4609375,174254837.0361328,177205902.09960938,90328559.87548828,242529876.70898438,243615829.46777344,238552413.9404297,173536880.49316406,165511123.65722656
0.285,232570770.26367188,144397338.8671875,123599380.49316406,235481933.59375,107282302.85644531,260395965.57617188,444919860.83984375,163924789.42871094,42528442.3828125,25210819.244384766,41131240.84472656,117328338.62304688,90268722.53417969,204032821.65527344,425742431.640625,213943756.10351562,43741489.41040039,29390693.66455078,-2368501.901626587,2501363.99269104,46571414.947509766,252372451.78222656,278043212.890625,204142486.57226562,175001159.66796875,69407905.57861328,26659206.39038086,-4396183.013916016,9265477.180480957,58171108.24584961,101534782.40966797,275060546.875,168575241.0888672,159860977.17285156,42488941.19262695,12981081.96258545,43480018.615722656,7076081.275939941,47602108.001708984,82391136.1694336,147255187.98828125,262255187.98828125,170621322.63183594,58033535.00366211,152399703.9794922,159891082.76367188,44432983.3984375,80898361.20605469,153421066.2841797,224819381.7138672,297155426.0253906,296740722.65625,226411590.57617188,241772613.52539062,157247940.06347656,159861251.8310547,78967056.27441406,224707855.22460938,226005218.50585938,219115676.8798828,156531188.96484375,149015426.6357422
0.29,265614440.91796875,194944107.05566406,166532592.7734375,257708618.1640625,127977897.64404297,254594085.69335938,421134613.0371094,165315246.58203125,51173625.94604492,36212482.45239258,49986454.010009766,116199577.33154297,92668670.65429688,191257583.61816406,390495666.50390625,198861587.52441406,45949569.70214844,32736881.256103516,4619482.99407959,8204990.386962891,46483867.64526367,230211959.8388672,250198959.35058594,184340438.84277344,158776916.50390625,63098857.87963867,26177455.90209961,-2391357.898712158,10421308.517456055,52245903.01513672,89133666.9921875,240415939.3310547,148720489.50195312,142434082.03125,37234336.853027344,10722796.440124512,36697814.94140625,4922187.328338623,39776218.41430664,68026420.59326172,124715339.66064453,230085083.0078125,148936767.578125,49280261.9934082,134302749.63378906,141171768.18847656,35180480.95703125,65609924.31640625,129224472.04589844,190165161.1328125,261462463.37890625,260999938.96484375,195003082.27539062,210182327.2705078,128280334.47265625,130425064.08691406,57844409.94262695,193323242.1875,194671142.578125,186123138.42773438,127472473.14453125,120672134.39941406
0.295,314459228.515625,264034698.48632812,232254547.11914062,296619018.5546875,166419357.2998047,251618316.65039062,421741882.32421875,175212478.6376953,63295478.82080078,51346038.818359375,68509536.74316406,135036071.77734375,115174850.46386719,210894134.52148438,373005340.5761719,194122100.83007812,49634490.966796875,37796691.89453125,12932016.372680664,17591201.782226562,55772777.55737305,234371948.2421875,255010208.1298828,169333160.40039062,150895645.14160156,61248542.78564453,27744953.155517578,577385.2467536926,14200063.705444336,54786460.876464844,92252655.02929688,234915863.03710938,133731063.84277344,132164459.22851562,34087951.66015625,9274119.37713623,34928562.16430664,3417223.4535217285,38060382.84301758,65400924.68261719,118773994.44580078,211268768.31054688,136167526.2451172,42585258.48388672,126527961.73095703,133166564.94140625,28430006.02722168,58221591.94946289,119415145.87402344,178402893.06640625,243109405.51757812,242614074.70703125,178007339.47753906,194626464.84375,111778251.64794922,113765235.9008789,47909587.86010742,176118362.4267578,177349182.12890625,168452835.0830078,110780891.41845703,104056350.70800781
0.3,353707519.53125,319850769.04296875,294298095.703125,333124389.6484375,208201156.61621094,249081085.20507812,447699005.1269531,188479049.6826172,72910453.79638672,63116729.736328125,89541748.046875,169336776.73339844,153705444.3359375,265596221.92382812,382098449.70703125,202250167.8466797,51817661.28540039,41036746.978759766,17474361.419677734,26252830.505371094,71825233.45947266,269151245.1171875,300925415.0390625,167439987.1826172,156664031.98242188,65375724.79248047,30261096.954345703,2228284.5973968506,19109437.942504883,67163787.84179688,115596092.2241211,269954742.4316406,133466079.71191406,136760772.70507812,36180118.560791016,10061976.432800293,41492454.528808594,4612652.30178833,46252124.78637695,80298912.04833984,138123413.0859375,220455123.9013672,143022567.74902344,43717597.96142578,137799713.13476562,145775131.22558594,31009479.522705078,67324707.03125,135285018.92089844,203368515.01464844,258341339.11132812,257835723.87695312,190494491.57714844,210994842.52929688,122273330.68847656,124508323.6694336,59948707.580566406,188282653.80859375,189350952.1484375,181994354.24804688,121094665.52734375,113612388.61083984
0.305,355935791.015625,330115020.7519531,318780487.0605469,341151397.7050781,230081985.4736328,237910598.7548828,471509765.625,192535751.34277344,73955551.14746094,65244544.982910156,101795631.4086914,199010086.0595703,188307418.8232422,324271636.9628906,399192352.2949219,211202835.0830078,49126888.275146484,39565750.12207031,16025987.62512207,30096918.1060791,85923576.35498047,310236816.40625,358645965.5761719,172806686.4013672,166784255.9814453,70038139.34326172,30971727.37121582,1319193.8400268555,22893121.71936035,82303100.5859375,145110626.22070312,320324890.13671875,142217910.76660156,148122070.3125,40118511.19995117,11495703.69720459,51607734.68017578,8116477.966308594,59496673.583984375,102902366.6381836,168592880.24902344,243688949.58496094,159854309.08203125,49685710.90698242,157764022.82714844,168642364.50195312,40768363.95263672,86071075.43945312,164354522.70507812,245324600.21972656,289543579.1015625,289010101.3183594,217550704.9560547,243473052.97851562,147939407.3486328,150547378.54003906,82008987.42675781,215047317.5048828,216001922.60742188,211542236.328125,146642196.65527344,138085815.4296875
0.31,316300109.86328125,288553527.83203125,291392333.984375,311645324.70703125,218695510.8642578,214494262.6953125,467422729.4921875,179842086.7919922,64907722.47314453,56770854.94995117,98586509.70458984,205980529.78515625,199442291.25976562,349807403.5644531,401013000.48828125,209058044.43359375,41520439.14794922,33537937.16430664,10019872.665405273,28059331.8939209,90360816.9555664,328403289.7949219,389168548.5839844,174056320.1904297,169478057.86132812,70087799.07226562,28802103.04260254,-1314363.718032837,23965299.606323242,91131370.5444336,161989578.2470703,350422607.421875,147414733.88671875,153393920.8984375,41529167.17529297,11811743.73626709,58294532.775878906,11510169.02923584,68972679.1381836,118288642.88330078,188905181.88476562,257237060.546875,169711990.3564453,53959442.138671875,170026199.3408203,183812973.02246094,49706859.58862305,100439323.42529297,184905288.69628906,273668884.27734375,307874450.68359375,307343048.0957031,234158660.88867188,264579956.0546875,165914337.15820312,168693786.62109375,95535400.390625,231516448.97460938,232424667.35839844,230471176.14746094,164513687.13378906,155191421.50878906
0.315,256567535.40039062,219506866.45507812,229195587.15820312,261319000.24414062,182229660.0341797,188794296.26464844,439025238.0371094,156855148.3154297,50441013.33618164,42453441.61987305,83409782.40966797,189958847.04589844,184556762.6953125,333127166.7480469,386049133.30078125,198161422.7294922,33146472.930908203,25999658.584594727,2602079.8683166504,22221212.38708496,84575950.6225586,316679534.9121094,380293273.92578125,169529190.06347656,164806900.02441406,67165939.33105469,25815776.824951172,-3848524.570465088,22353082.65686035,90538192.74902344,160610305.7861328,348257263.18359375,146134735.10742188,150911132.8125,41498527.52685547,11928421.974182129,59879096.98486328,12908520.698547363,70369575.50048828,120740669.25048828,191460998.53515625,255523056.03027344,168725006.10351562,55460617.06542969,170379241.94335938,185237487.79296875,53023281.09741211,103964019.77539062,188301712.0361328,277739349.3652344,305892242.4316406,305469512.9394531,234161163.33007812,265524078.36914062,168020599.36523438,170698547.36328125,97342300.41503906,231615463.25683594,232500534.0576172,230844726.5625,166531509.39941406,157023208.61816406
0.32,204158691.40625,155907089.23339844,164976959.22851562,215888336.18164062,142470123.29101562,174335601.80664062,410627441.40625,137438262.93945312,37673824.310302734,29160472.869873047,66541687.01171875,165995468.13964844,158024215.6982422,296385040.2832031,371047973.6328125,189945877.0751953,28315284.729003906,20278594.970703125,-3433264.0171051025,15865242.958068848,74485794.06738281,291427185.05859375,351454956.0546875,167095046.9970703,161711700.43945312,66358055.114746094,24618003.845214844,-5264659.881591797,19564176.559448242,84555732.72705078,150219818.11523438,329418853.7597656,145670288.0859375,148967788.69628906,43917060.85205078,13637345.314025879,59749164.58129883,12415909.767150879,66511161.80419922,115724441.52832031,184442520.14160156,251068145.75195312,166184967.04101562,57873020.17211914,167023315.4296875,180883270.26367188,52267768.85986328,100958396.9116211,182544540.40527344,269792205.8105469,298022918.7011719,297754608.1542969,230125442.5048828,258659240.72265625,163824645.99609375,166306228.6376953,97446914.67285156,227893493.65234375,228698364.2578125,225123291.015625,162376327.51464844,153175445.55664062
0.325,170544540.40527344,114149963.37890625,120613395.69091797,187973480.22460938,115552360.53466797,172741363.52539062,398244964.5996094,128904327.39257812,30580026.626586914,20998260.498046875,55745231.62841797,148449951.171875,136209762.5732422,266546905.51757812,367352691.6503906,189731536.86523438,27430490.493774414,17618488.311767578,-6827003.955841064,11145619.39239502,66341217.041015625,271422393.7988281,327858215.33203125,170812744.140625,164427719.11621094,68861686.70654297,25365404.12902832,-5871181.488037109,17224744.79675293,78873451.23291016,141928314.20898438,313902587.890625,150115539.55078125,152082595.8251953,48667564.392089844,16327491.760253906,60714584.35058594,11208508.491516113,62487010.95581055,110738662.71972656,178001541.1376953,252770919.7998047,168517868.0419922,62195652.00805664,166985931.39648438,179436386.10839844,50847118.37768555,97975578.30810547,178170135.49804688,264392181.39648438,296080718.9941406,295846862.79296875,231246047.9736328,256404571.53320312,162980773.92578125,165383056.640625,100662986.7553711,229361602.78320312,230016296.38671875,224305160.52246094,161754135.13183594,153061309.81445312
0.33,149235534.66796875,89691909.79003906,95691238.40332031,171679916.38183594,101032058.71582031,172173828.125,393236907.9589844,126235458.37402344,28098720.55053711,17345945.358276367,50468925.47607422,138531524.65820312,123543144.22607422,249641876.22070312,366402740.4785156,190558334.35058594,27693937.301635742,17087448.120117188,-7948166.847229004,8222182.273864746,61302867.8894043,258880981.4453125,314098052.9785156,173636901.85546875,166691055.29785156,70638938.9038086,26091911.31591797,-6252448.558807373,15658467.292785645,74938499.4506836,136999664.30664062,303724609.375,153133651.73339844,154366149.90234375,51205509.185791016,17528932.571411133,61676059.72290039,10040464.401245117,59664806.3659668,106863510.13183594,172416427.6123047,253553619.38476562,170406768.79882812,64506027.22167969,167348175.04882812,179556549.07226562,49364601.135253906,95701377.86865234,175339080.81054688,260803314.20898438,294191955.56640625,293825531.0058594,231289230.3466797,255791900.63476562,162388885.49804688,164830764.7705078,100038681.03027344,229544998.1689453,230105163.57421875,223664291.38183594,161437683.10546875,153223526.00097656
0.335,128422302.24609375,71609664.91699219,78384124.75585938,153513275.14648438,88272377.01416016,159304321.2890625,370057647.7050781,118315490.72265625,26746480.94177246,15194905.281066895,44970073.69995117,126184883.11767578,112066474.91455078,229408294.67773438,346218841.5527344,179950851.4404297,26644760.131835938,16967124.938964844,-7775806.903839111,6367212.772369385,55549854.27856445,238839691.16210938,291535400.390625,164103591.9189453,158187118.53027344,67054222.106933594,25067752.838134766,-6300949.573516846,14033378.601074219,69088600.1586914,127175224.30419922,281401153.5644531,144742233.2763672,146089096.06933594,48218544.006347656,16097278.594970703,59055442.810058594,8958720.207214355,54858448.02856445,98491226.19628906,158678863.52539062,238543807.98339844,161326522.82714844,60956378.93676758,158615280.1513672,171368759.15527344,45708599.09057617,88957870.48339844,163967391.96777344,243715118.40820312,276227661.1328125,275714569.0917969,217153015.13671875,242302352.90527344,150804885.8642578,153116302.49023438,87874748.22998047,215323974.609375,215956024.16992188,209341308.59375,150066207.8857422,142510528.56445312
0.34,101772239.6850586,55522403.717041016,61584972.3815918,125046920.77636719,70223152.16064453,129727645.87402344,308406677.24609375,97932128.90625,23865234.375,12661829.948425293,35812538.146972656,102399070.7397461,92705085.75439453,187950408.93554688,290268157.9589844,150352661.1328125,23584918.975830078,15823505.401611328,-6730064.392089844,5379995.822906494,45235046.38671875,195613662.71972656,239830078.125,137120208.74023438,133589553.83300781,56613773.345947266,21896903.99169922,-5627061.84387207,11843722.343444824,57144203.186035156,104691093.44482422,229113494.87304688,121151329.04052734,123056221.00830078,40602298.736572266,13066716.194152832,50182273.864746094,7880236.625671387,44783695.220947266,80046173.09570312,128896957.39746094,199762695.3125,136093322.75390625,51662940.979003906,133917373.65722656,146379348.7548828,38036983.489990234,72901535.03417969,134711074.82910156,199292495.72753906,232080337.52441406,231578536.9873047,182743759.15527344,204676605.22460938,121666091.91894531,123343620.30029297,65612480.16357422,180905044.55566406,181667449.95117188,173425003.0517578,121174209.59472656,115051712.03613281
0.345,70536628.72314453,42767498.01635742,46465484.619140625,88010337.82958984,49178104.400634766,89063644.40917969,213445098.87695312,67354644.77539062,18827411.651611328,9938551.902770996,24972595.21484375,69021766.66259766,65588851.92871094,126353324.89013672,204050201.41601562,105548675.53710938,18648471.83227539,13015480.995178223,-4748346.328735352,5409181.594848633,30930419.921875,130863159.1796875,161196792.60253906,97960021.97265625,96657234.19189453,41220848.083496094,17046226.501464844,-4538651.466369629,9592267.990112305,39649421.69189453,71550781.25,150482452.39257812,87244934.08203125,89730979.9194336,31049890.518188477,9631004.333496094,35881996.154785156,6811674.59487915,30434917.449951172,52996368.408203125,86285682.67822266,143261566.16210938,98883392.33398438,39355510.71166992,95982620.23925781,106734588.62304688,26929590.225219727,48905429.84008789,90216285.7055664,132117584.22851562,167432739.2578125,167108520.5078125,134139312.74414062,146922225.95214844,80190315.24658203,80740554.80957031,40948154.44946289,132655334.47265625,133390197.75390625,121968521.11816406,80124519.34814453,76428245.5444336
0.35,39938610.0769043,33256534.576416016,34862682.3425293,50922355.65185547,30886829.376220703,47704917.907714844,114667045.59326172,36079334.2590332,12714319.229125977,7776529.312133789,16089075.088500977,36269725.79956055,38782520.29418945,63703910.82763672,113453132.62939453,58707683.56323242,12540384.292602539,9108298.301696777,-2182097.6734161377,5915174.0074157715,16824579.2388916,63884002.685546875,80588615.41748047,57629261.0168457,57750167.84667969,24779157.638549805,11457225.799560547,-3924153.5663604736,7800940.990447998,21785955.42907715,38344661.712646484,70539787.29248047,52055896.7590332,55457130.432128906,21390542.98400879,6010029.315948486,20363704.681396484,5646677.494049072,16267190.933227539,25572849.27368164,43832111.35864258,84816200.25634766,59669322.9675293,26678581.23779297,56081851.959228516,64748428.34472656,14954443.93157959,24020750.045776367,44470783.23364258,64403617.85888672,100095550.53710938,99987701.41601562,84297958.37402344,86531074.52392578,38776031.494140625,38092098.236083984,19185596.466064453,83424224.85351562,83959709.16748047,69948280.33447266,39214073.181152344,38248352.05078125
0.355,14942072.868347168,24431840.896606445,24985700.607299805,21963956.832885742,17513650.89416504,15025081.634521484,41880004.8828125,13343169.212341309,7562857.627868652,6378102.779388428,10148189.544677734,12550215.721130371,19355634.689331055,18106515.884399414,44625698.08959961,23236688.6138916,7209202.289581299,5727767.9443359375,81855.78882694244,5928870.677947998,6461169.242858887,14031760.215759277,22134666.442871094,25703256.607055664,27399795.532226562,11578468.322753906,6538773.536682129,-4160797.119140625,6196572.780609131,8455210.68572998,14677944.18334961,13065627.098083496,23626251.220703125,28586156.845092773,13056972.50366211,2576377.6302337646,8322146.415710449,4295859.813690186,5831375.1220703125,5565893.650054932,12957870.483398438,39356880.18798828,27992441.177368164,15879635.81085205,25680286.407470703,32841121.673583984,4776773.452758789,4903571.605682373,10537710.189819336,16631767.272949219,47244571.685791016,47280578.61328125,44289257.04956055,40494419.09790039,6934638.500213623,5256210.803985596,361492.0675754547,43884029.388427734,44254379.27246094,29671699.52392578,7674619.197845459,8734109.878540039
0.36,-370092.4515724182,16540653.228759766,16312204.360961914,6157873.153686523,9144495.010375977,-1884684.8011016846,8581821.44165039,3565657.377243042,5330544.471740723,5763685.22644043,6556021.690368652,921946.108341217,10068794.250488281,-3330250.9784698486,10871362.686157227,6835971.832275391,5113636.493682861,4339475.154876709,1211347.222328186,5357890.1290893555,1245561.3613128662,-10131666.18347168,-4991870.880126953,8863763.809204102,12797349.92980957,5379556.179046631,3844458.1031799316,-4830953.598022461,4540863.990783691,1885370.0160980225,4567249.298095703,-13139475.82244873,8514255.52368164,15007141.11328125,8669231.414794922,743971.7650413513,2835885.763168335,3112467.7658081055,526292.0260429382,-3490849.256515503,-1900456.6669464111,16253602.981567383,10983338.356018066,10059049.606323242,11228809.356689453,17277317.04711914,-1329562.6640319824,-4974307.060241699,-6144328.594207764,-3985569.0002441406,19377191.5435791,19466606.14013672,21663900.37536621,17462320.32775879,-10747692.108154297,-13092689.514160156,-14709516.525268555,21366525.650024414,21726558.685302734,7607931.613922119,-10020669.937133789,-8101693.153381348
0.365,-1321457.7436447144,14183552.742004395,13545475.959777832,7797019.958496094,8852966.30859375,3254647.0165252686,20543735.50415039,8212128.639221191,6701487.5411987305,6015412.8074646,6499475.955963135,4358859.062194824,13663558.006286621,3808331.4895629883,19844152.450561523,14009364.128112793,7056749.34387207,4966477.394104004,541317.9993629456,4954183.578491211,2553611.0401153564,-3801966.667175293,3817623.1384277344,13669485.092163086,19147882.46154785,9113055.229187012,4404818.534851074,-5658343.79196167,3564993.8583374023,4049740.791320801,10926365.852355957,-3675013.303756714,13293499.946594238,20456277.84729004,11523571.014404297,1916908.7409973145,6107933.521270752,2799861.6695404053,2320894.479751587,1257344.2459106445,2941601.037979126,23038015.365600586,15356115.341186523,12946020.126342773,17196298.599243164,22330173.49243164,-507919.7883605957,-1991180.0622940063,-1333658.4568023682,6313367.84362793,25499677.658081055,25590450.286865234,25262969.970703125,24071689.60571289,-8032187.461853027,-10583665.84777832,-17961612.701416016,24825532.913208008,25248559.951782227,11210968.017578125,-7489985.942840576,-5858370.780944824
0.37,14254131.317138672,20009302.139282227,20690959.930419922,28917858.123779297,20106161.11755371,32013542.17529297,81923118.5913086,27084402.084350586,10535779.95300293,6666399.4789123535,11827032.089233398,25934352.87475586,32699958.80126953,44156101.22680664,76258605.95703125,46402614.59350586,11346801.7578125,6385025.978088379,-2436156.5113067627,4776163.101196289,11547561.645507812,37054733.27636719,54063591.00341797,43028423.30932617,48023590.087890625,23276563.64440918,8146391.868591309,-6994690.418243408,4040670.394897461,16756471.633911133,36351974.48730469,47289669.036865234,40334041.595458984,47767322.5402832,22625734.329223633,5966403.961181641,19294677.734375,3638926.7444610596,13409187.316894531,22539426.803588867,31842430.114746094,63552539.82543945,44338314.056396484,25787296.295166016,46567413.330078125,51721942.90161133,9327444.076538086,17390012.741088867,30193637.84790039,53462215.423583984,71427474.97558594,71485763.54980469,61520465.85083008,66268608.09326172,21558860.778808594,19573156.356811523,646377.444267273,60827857.971191406,61334648.13232422,47381568.908691406,21883893.966674805,22076671.600341797
0.375,37392444.6105957,28568990.70739746,32324062.34741211,59494388.580322266,37544979.095458984,70637054.44335938,171243560.79101562,52579360.96191406,14313816.07055664,6646102.428436279,20094812.393188477,57605915.06958008,59946414.947509766,103679534.91210938,158600082.39746094,91682929.99267578,15185191.15447998,7430617.809295654,-7002774.238586426,3852886.67678833,24455007.553100586,97355323.7915039,128867172.24121094,84138465.88134766,87820655.8227539,42188407.89794922,13356296.53930664,-8906064.987182617,5173954.963684082,35369789.123535156,72231376.64794922,123442115.7836914,77600753.78417969,86074676.51367188,37465526.58081055,10901688.575744629,38025295.25756836,4914649.486541748,29996679.306030273,53329704.28466797,75263847.35107422,121954872.13134766,86113929.74853516,43192802.42919922,89452369.6899414,95944969.1772461,24520214.080810547,46814792.63305664,78773468.01757812,123933494.5678711,139642272.94921875,139605545.0439453,116541778.56445312,130190002.44140625,67921485.9008789,67168296.81396484,35749443.05419922,115464096.06933594,116143447.87597656,103329879.76074219,68002258.30078125,65972572.326660156
0.38,48343055.725097656,30091821.670532227,36416080.474853516,76228446.96044922,46780799.865722656,91241455.078125,229121627.8076172,67682662.96386719,15467037.200927734,5458037.853240967,24406988.1439209,77232383.72802734,76419143.67675781,142007446.2890625,210112365.72265625,120227005.00488281,16501375.198364258,7691068.172454834,-10550521.850585938,1915040.7314300537,31840061.18774414,135512451.171875,177609298.7060547,108383285.52246094,112668846.1303711,54327018.73779297,16961034.774780273,-10490598.678588867,5131186.962127686,47019527.435302734,95195716.85791016,173971389.7705078,99635414.12353516,109706748.96240234,47177104.94995117,13976007.461547852,50950870.513916016,5428923.606872559,40668495.178222656,73305557.25097656,103723968.50585938,158987442.01660156,112597457.88574219,54211723.32763672,118490119.93408203,126339225.76904297,34771369.93408203,66534248.35205078,111935577.39257812,172160110.4736328,183612304.6875,183407852.17285156,152341888.42773438,173723297.11914062,98950607.29980469,99159988.40332031,60644271.85058594,150844039.9169922,151732254.0283203,140481323.2421875,98785629.27246094,95094642.63916016
0.385,35859775.54321289,21538557.052612305,28337366.104125977,64747810.36376953,39882709.50317383,78324440.0024414,212275741.57714844,61173599.24316406,13335394.859313965,3928081.98928833,21249870.30029297,70520118.7133789,70466537.47558594,130801528.93066406,191235107.421875,112057014.46533203,15074502.944946289,7208026.885986328,-10890205.383300781,300888.0615234375,28248025.89416504,122743972.77832031,163540405.2734375,98639976.50146484,106084030.15136719,52620273.59008789,16866916.65649414,-10970479.965209961,3488492.488861084,43319614.41040039,89703308.10546875,161189056.39648438,91531112.67089844,102106727.60009766,46513488.76953125,13830343.246459961,49995193.48144531,4790529.727935791,37886470.794677734,68362693.7866211,96137908.93554688,147880798.33984375,105438568.11523438,52304420.471191406,113621078.49121094,121318740.84472656,32943309.783935547,62327053.07006836,104948921.20361328,163073623.65722656,170922622.68066406,170561462.40234375,142798370.36132812,165326675.41503906,91419548.03466797,91453926.08642578,53346019.74487305,141144317.62695312,142039123.53515625,131147140.50292969,91104583.74023438,87568855.28564453
0.39,15080606.460571289,11232387.54272461,17982002.25830078,42405185.69946289,28030616.760253906,53474006.65283203,161597259.52148438,45669719.69604492,10371540.069580078,3242597.1031188965,16441066.74194336,53952159.8815918,56635383.60595703,98482917.78564453,141833908.0810547,88131835.9375,12933248.519897461,6322903.633117676,-9488848.686218262,203340.88802337646,21334594.7265625,88716987.60986328,121756515.50292969,75900054.93164062,86432510.37597656,45093269.34814453,14697545.051574707,-11063422.203063965,2113251.209259033,33886466.97998047,72949142.45605469,119915611.26708984,71707054.1381836,81061805.72509766,41289585.11352539,12223831.176757812,42585453.033447266,3996294.2600250244,29907831.1920166,52941520.69091797,73060424.8046875,115312469.48242188,83793884.27734375,44764606.47583008,92668647.76611328,99325050.3540039,25630361.557006836,47421104.431152344,79225852.9663086,127454452.51464844,132906814.57519531,132518157.95898438,113215888.97705078,132218261.71875,66325325.01220703,65527023.31542969,29371862.411499023,111743293.76220703,112392509.46044922,100760673.52294922,65929252.62451172,63605049.13330078
0.395,14163886.070251465,9806518.5546875,18523447.036743164,43639495.849609375,30440248.489379883,56850639.34326172,170862518.31054688,48250411.98730469,10511875.15258789,3651955.8429718018,19147089.0045166,60085067.74902344,62311470.03173828,106687347.41210938,149533569.3359375,93959030.15136719,13274366.37878418,5949776.649475098,-10309089.660644531,917414.9632453918,24743835.44921875,96876953.125,130678680.41992188,81198944.09179688,92095977.78320312,48544567.1081543,14795988.082885742,-12196888.92364502,2875414.3714904785,37823661.80419922,80118690.49072266,129530166.62597656,76183052.06298828,84201484.68017578,43738845.82519531,12877149.58190918,45809791.564941406,4356693.267822266,33219699.85961914,57831771.85058594,79426445.00732422,120519279.47998047,88627586.3647461,46781654.357910156,97707397.4609375,104502624.51171875,27396646.49963379,51380420.68481445,85307777.40478516,138028594.97070312,139490997.31445312,139191467.28515625,119251243.5913086,139003250.1220703,71249114.99023438,70402862.54882812,30441179.275512695,117872863.76953125,118374679.56542969,106797920.22705078,70657653.80859375,68233779.90722656
0.4,39638046.26464844,17860918.045043945,30080383.30078125,77333457.94677734,50168292.99926758,98036064.14794922,268386596.6796875,77290214.53857422,15323570.251464844,4710426.807403564,30156774.520874023,95759597.77832031,92523094.1772461,171594375.61035156,239377975.4638672,142890579.2236328,17603307.723999023,7209282.398223877,-14462412.83416748,967389.8220062256,40470588.68408203,163355346.6796875,211777893.06640625,124776023.8647461,133956695.55664062,68188949.58496094,19290195.46508789,-14393012.046813965,5122753.143310547,58996784.21020508,119252349.85351562,212204711.9140625,114455383.30078125,122757049.56054688,57977748.87084961,17465282.440185547,64858566.28417969,5786865.711212158,51126922.607421875,90646751.4038086,126810043.33496094,181820144.6533203,131787063.59863281,63252914.42871094,142140213.0126953,150671234.13085938,42146991.72973633,82230964.66064453,138043670.65429688,216047149.65820312,211411941.5283203,211156768.79882812,176916503.90625,205667861.93847656,119853317.26074219,120259819.03076172,70965705.87158203,175147994.9951172,175906967.16308594,165837707.51953125,118918846.1303711,114144065.8569336
0.405,66436904.90722656,25879322.052001953,39879741.66870117,112921760.55908203,69263809.20410156,140827758.7890625,370957855.2246094,109162979.12597656,22055181.5032959,6272732.734680176,40282756.80541992,130033569.3359375,120808029.17480469,236692001.34277344,333151672.36328125,194557632.44628906,23740070.343017578,10152149.200439453,-18132896.423339844,306660.86077690125,54815216.064453125,229524719.23828125,293895629.8828125,169690048.21777344,177963851.92871094,89600875.85449219,25221912.384033203,-15972704.887390137,6392984.390258789,78827705.38330078,157067520.14160156,295886352.5390625,154686920.16601562,164456909.1796875,73899940.49072266,23307828.903198242,84592880.24902344,6689618.5874938965,67778099.0600586,122782043.45703125,173838165.28320312,247605529.78515625,177108612.06054688,81536705.01708984,189260360.71777344,199114547.7294922,56749069.21386719,113192764.28222656,192015563.96484375,295633117.67578125,287011718.75,286669128.41796875,237032455.44433594,275551940.91796875,169992706.29882812,171776031.49414062,112799835.20507812,234663848.87695312,235848175.04882812,226875869.75097656,168814788.81835938,161433944.70214844
0.41,68696014.40429688,26044275.283813477,38491352.08129883,117780380.24902344,71056282.04345703,146754211.42578125,385621856.6894531,116285156.25,26238952.63671875,8295191.764831543,41577003.479003906,132418136.59667969,122028701.78222656,242501296.9970703,345195861.81640625,203766967.7734375,27600105.28564453,13116395.950317383,-17513034.82055664,89999.10205602646,55258285.52246094,234295135.49804688,301474853.515625,176678131.10351562,186295852.6611328,95816375.73242188,27900924.682617188,-15712512.016296387,5405838.489532471,79180351.25732422,160023941.04003906,303620910.64453125,162177352.90527344,172980438.23242188,79050140.38085938,26213693.618774414,88131744.38476562,5884840.01159668,67933433.53271484,124969886.77978516,177501846.31347656,258817749.0234375,184437393.18847656,86583847.04589844,197292892.4560547,206467254.63867188,57548347.47314453,116036178.58886719,197841384.8876953,305136505.1269531,297889526.3671875,297470733.6425781,245709609.98535156,285622711.1816406,175963424.6826172,177926681.5185547,110487556.45751953,243177795.41015625,244447204.58984375,234399353.02734375,174822845.45898438,167016921.9970703
0.415,50764869.689941406,20533151.626586914,30404359.817504883,96786056.51855469,59953254.69970703,121103630.06591797,325496551.5136719,100467391.96777344,26113100.051879883,9900872.230529785,36453815.46020508,110803947.44873047,103631332.39746094,201312423.7060547,288718750.0,176262405.3955078,27370100.021362305,14059755.325317383,-14156761.169433594,534215.3906822205,45879074.09667969,190459259.03320312,249608383.17871094,151986785.88867188,163850311.27929688,87862197.87597656,26402902.603149414,-14462770.462036133,3380580.425262451,65106971.740722656,136396057.12890625,250586883.54492188,141504043.57910156,152660827.63671875,73687431.33544922,25346378.326416016,78104072.57080078,4184823.989868164,56171947.47924805,104226364.13574219,147131622.31445312,222108688.3544922,159514099.12109375,79346565.24658203,171896591.18652344,179400039.67285156,47801235.19897461,96733451.84326172,164635086.0595703,257543090.8203125,254296157.83691406,253991088.8671875,211493545.53222656,245907440.18554688,145679595.94726562,146849655.1513672,70748275.75683594,209343078.61328125,210285751.34277344,197830810.546875,144670989.99023438,138337066.65039062
0.42,37489444.732666016,16611690.521240234,25941968.91784668,81236022.94921875,52802787.78076172,101020248.41308594,281912261.9628906,87050956.72607422,23807096.481323242,9804186.820983887,33008232.11669922,97493751.5258789,92888023.37646484,174572586.0595703,248384231.5673828,155984878.54003906,25182815.551757812,12688706.398010254,-12948742.866516113,431019.3955898285,40411983.489990234,160779296.875,215624053.95507812,134389984.13085938,147474182.12890625,81380714.4165039,24070962.90588379,-14018160.820007324,2205342.5312042236,56377723.693847656,121829284.66796875,215631072.99804688,126309967.04101562,138320159.91210938,69063476.5625,23814733.505249023,71433113.09814453,3362119.674682617,49284736.63330078,91444709.77783203,127226089.47753906,194822647.09472656,142148422.24121094,73901397.70507812,154189605.71289062,161032714.84375,41902545.92895508,84483467.10205078,142700088.50097656,225578689.5751953,224025848.38867188,223942672.7294922,188099853.515625,219104034.42382812,125069946.2890625,125725090.02685547,43696113.58642578,186271316.5283203,186941070.55664062,172823745.72753906,124003517.1508789,118683723.44970703
0.425,40766281.12792969,16813819.885253906,27431447.982788086,86602096.55761719,56192268.37158203,106673316.9555664,301521392.8222656,90815887.45117188,22281856.536865234,7930049.896240234,34265335.08300781,106020835.87646484,100462730.40771484,190249465.9423828,266679534.91210938,166101501.46484375,24263969.42138672,10737892.150878906,-15598040.580749512,-940476.4771461487,44067100.524902344,173824493.40820312,234923522.94921875,143563369.75097656,156630752.56347656,85656394.9584961,23902511.596679688,-14961874.008178711,2258958.8165283203,61425823.21166992,131957260.13183594,235280334.47265625,134398696.89941406,148147949.21875,72328063.96484375,24459457.397460938,76537910.46142578,3873651.7429351807,54102054.595947266,100068267.82226562,137947113.03710938,208129333.49609375,152763717.6513672,78484626.77001953,165033615.1123047,172539443.96972656,45880104.064941406,92475265.50292969,155769027.70996094,243859329.2236328,241042953.49121094,241014587.40234375,202269195.55664062,235610504.15039062,136456314.08691406,137383834.8388672,57787170.41015625,200239013.671875,201031524.65820312,186494125.36621094,135178878.7841797,129283935.546875
0.43,47989097.595214844,17057020.18737793,28072860.717773438,97139045.71533203,60634304.04663086,121190063.4765625,338535217.28515625,100378501.89208984,21901968.002319336,5668215.751647949,35798892.974853516,118312896.72851562,110566307.0678711,214920761.10839844,300891967.7734375,184972320.55664062,25094377.517700195,9794196.128845215,-18833257.6751709,-2582436.8000030518,49136592.864990234,196368072.50976562,265978851.31835938,160182922.36328125,173213958.74023438,93681190.49072266,25150371.551513672,-16283996.58203125,2581168.6515808105,69617568.96972656,147628463.7451172,267722198.48632812,149337890.625,164637374.8779297,78673149.10888672,26556707.38220215,84668815.61279297,4500655.174255371,61336303.7109375,113336112.97607422,155853424.07226562,234143432.6171875,171033981.3232422,86386543.27392578,183260528.56445312,191435226.4404297,51519519.8059082,104998092.65136719,177275222.7783203,274405700.68359375,270467590.33203125,270237335.2050781,226382034.3017578,262565338.13476562,156145675.6591797,157425247.1923828,87459823.60839844,223920806.88476562,225003112.79296875,210136306.7626953,154755142.21191406,147984832.76367188
0.435,43390930.17578125,13539616.584777832,22937850.952148438,92770820.61767578,56450771.33178711,119665733.33740234,332629730.2246094,98303619.38476562,20780054.092407227,4158257.484436035,33232273.10180664,114517784.11865234,106961997.98583984,209634246.82617188,295370208.7402344,182955535.88867188,25486509.323120117,9490839.958190918,-19365280.151367188,-3144330.0247192383,47873310.08911133,189706054.6875,260016510.00976562,158416580.2001953,172284484.86328125,94401657.10449219,25200771.33178711,-16868356.704711914,2519014.835357666,69028968.81103516,147073379.51660156,263241790.77148438,148250579.83398438,164201751.70898438,79879829.40673828,27551193.237304688,84666625.9765625,4272113.32321167,60966979.98046875,112461700.43945312,153651397.70507812,233272903.4423828,169947616.57714844,87248542.78564453,181590942.3828125,189605621.33789062,49989864.349365234,103805458.06884766,175187515.25878906,271060668.9453125,267312408.44726562,266867858.88671875,224788543.70117188,259351409.91210938,154322753.90625,155337707.51953125,93671371.45996094,222229141.23535156,223351242.0654297,207611602.78320312,152944595.33691406,146475845.33691406
0.44,30557809.829711914,8621570.587158203,16242540.35949707,77983741.7602539,47731414.794921875,104504959.10644531,294807525.6347656,86826370.23925781,18449722.290039062,3231540.9183502197,28496183.395385742,100695449.82910156,95882431.03027344,185025161.74316406,260211364.74609375,164916961.66992188,24586856.842041016,8750770.568847656,-18241237.64038086,-2887445.6882476807,43015625.0,164201797.48535156,229651184.08203125,142612380.9814453,157770874.0234375,88877044.67773438,23797702.78930664,-16747430.801391602,2273375.0343322754,62621223.44970703,136061294.55566406,233921325.68359375,134580856.3232422,150968261.71875,76511566.16210938,27130544.662475586,78750724.79248047,3709800.0049591064,55832542.419433594,102758537.29248047,138408416.74804688,210581863.4033203,154264022.82714844,82068534.85107422,165688690.18554688,173232345.5810547,44249629.974365234,93612915.0390625,157068527.2216797,244727615.3564453,240303878.7841797,239892837.52441406,204207183.83789062,235188140.86914062,137057769.77539062,137524475.09765625,76771842.95654297,201895019.53125,202800735.4736328,186311492.91992188,135590148.92578125,130106475.83007812
0.445,28209749.221801758,8475445.747375488,16016849.517822266,76380554.19921875,46946063.99536133,103378738.40332031,292160675.0488281,86025505.06591797,17851396.560668945,2447626.3523101807,27308712.005615234,99617683.41064453,96688552.85644531,184995788.57421875,257236938.4765625,164284942.62695312,25208354.949951172,8236020.088195801,-18964466.094970703,-3429406.8813323975,43066635.13183594,163158035.2783203,229408874.51171875,142013717.6513672,157691864.01367188,89496986.38916016,23962038.040161133,-16836612.701416016,2031024.9328613281,62667537.689208984,137980178.8330078,234290206.9091797,134260910.0341797,151510681.15234375,77757080.078125,28046789.169311523,79220863.34228516,3668123.722076416,56522033.69140625,104722900.390625,140031280.51757812,208852127.0751953,154061737.06054688,82441612.24365234,166060836.7919922,173648117.0654297,44446308.13598633,94497970.58105469,158058334.35058594,246555221.5576172,239378890.99121094,239176834.1064453,204181350.7080078,235567550.6591797,137310501.0986328,137847732.5439453,71347724.91455078,201961822.50976562,202755020.14160156,186264068.60351562,135575851.4404297,130050888.06152344
0.45,46685173.03466797,15369287.490844727,23876428.604125977,100761749.26757812,59106403.35083008,134471054.07714844,361570343.0175781,108245140.0756836,22037925.720214844,2170262.098312378,32203083.038330078,121449157.71484375,116360115.05126953,228879821.77734375,320860137.9394531,200323211.66992188,30402795.791625977,9870039.939880371,-22653097.15270996,-5547305.583953857,51155982.971191406,206447402.95410156,284651702.8808594,173635513.30566406,188419479.3701172,104205818.17626953,28262102.127075195,-17778102.87475586,1563427.209854126,74301704.40673828,162538986.2060547,289767150.87890625,162810379.0283203,180793899.5361328,89631072.99804688,32488933.563232422,92619979.85839844,3851502.1800994873,67175651.55029297,126809394.83642578,171748779.296875,253146575.92773438,185958984.375,95860954.28466797,198469772.3388672,206740295.41015625,54641616.82128906,115584869.38476562,194862045.28808594,301219329.8339844,291168334.9609375,291044036.8652344,246075683.59375,283513854.98046875,172256729.12597656,173824371.33789062,96712585.44921875,243515457.1533203,244471755.9814453,228436752.31933594,170294479.3701172,163022186.27929688
0.455,72462959.28955078,23467792.510986328,32399711.60888672,134135025.02441406,74765808.10546875,178654067.99316406,456763214.1113281,139236343.38378906,28915952.682495117,2740670.680999756,39385993.95751953,150586242.67578125,140091461.18164062,284978210.44921875,408802062.98828125,249892028.80859375,37896041.87011719,13369401.931762695,-26614555.35888672,-7835482.120513916,61457550.048828125,263664855.95703125,357044677.734375,217208862.3046875,230788681.03027344,124544570.92285156,34650344.84863281,-19184930.8013916,926779.2105674744,89107299.8046875,192609451.2939453,361776824.9511719,202424118.0419922,220554626.46484375,105755744.93408203,38385551.45263672,110760559.08203125,3398505.210876465,80157798.76708984,154126708.984375,211773269.6533203,314685119.62890625,229368942.2607422,114776382.44628906,241723419.18945312,250820648.19335938,67471572.87597656,142764022.82714844,242970123.29101562,372697784.4238281,361317352.2949219,361002655.0292969,302669830.3222656,347539825.4394531,219019714.35546875,221904541.015625,131197814.94140625,299625183.10546875,300767791.7480469,285168334.9609375,217053787.2314453,207552871.70410156
0.46,79635719.2993164,23984094.619750977,32971046.447753906,144546737.67089844,79471595.76416016,194038070.67871094,490491851.8066406,150024536.1328125,31855236.053466797,3392439.603805542,42514167.78564453,161714752.19726562,147241912.84179688,303515045.1660156,440141693.1152344,267889739.99023438,40813793.18237305,15196432.113647461,-27591053.009033203,-8081078.52935791,65593643.18847656,284510162.3535156,382978912.3535156,232747009.27734375,246893280.02929688,132634231.56738281,37515201.568603516,-20030183.792114258,746976.1967658997,94407363.89160156,202322143.5546875,386449737.5488281,217224258.42285156,235866134.6435547,112605613.7084961,40808223.724365234,118488777.16064453,2454202.41355896,84423088.07373047,164072357.17773438,225326965.33203125,337330322.265625,245656738.28125,123090019.22607422,257983764.6484375,267473754.8828125,71896652.22167969,153109451.2939453,261262329.1015625,399506103.515625,386792114.2578125,386216491.69921875,323488800.0488281,371653656.0058594,236384796.14257812,239811203.0029297,140128005.9814453,320249694.82421875,321298706.0546875,306151275.6347656,234549209.59472656,224181686.4013672
0.465,58199188.232421875,14876621.24633789,24693275.451660156,119749618.53027344,68847557.0678711,163083053.5888672,428849914.55078125,128965255.73730469,27250434.87548828,3074714.8990631104,39027820.5871582,145825805.6640625,132794799.8046875,269124633.7890625,383108917.2363281,236701797.48535156,35755302.42919922,12660833.358764648,-25362543.1060791,-5937822.341918945,60809093.4753418,251116317.74902344,340338531.4941406,204614334.1064453,221467849.7314453,120977737.42675781,33825679.779052734,-19789695.739746094,1269739.5086288452,86427757.2631836,184434738.1591797,342291687.01171875,192708038.33007812,213146850.5859375,104588066.10107422,37653671.26464844,109675308.22753906,2103395.462036133,77149978.63769531,150067352.29492188,201585372.9248047,299265319.82421875,219998626.70898438,113953567.50488281,233201217.6513672,242385635.37597656,64812599.182128906,139152206.42089844,235585769.6533203,359780761.71875,343657562.2558594,343023101.8066406,289251678.4667969,334822601.3183594,209273330.68847656,212055328.36914062,117579086.30371094,286184204.1015625,286916503.90625,272390045.1660156,207529525.75683594,198270675.6591797
0.47,26555286.407470703,2995906.8298339844,13505867.958068848,82056610.10742188,52039791.107177734,117529022.21679688,331420867.9199219,96532348.6328125,19507629.39453125,1805139.0647888184,31956344.604492188,117832580.56640625,110256774.90234375,214127258.30078125,293791351.3183594,188101943.96972656,28064178.466796875,7913518.42880249,-22737831.115722656,-3818922.0428466797,51564834.59472656,195235443.11523438,269981384.27734375,161680358.88671875,180666702.2705078,102081451.41601562,27179136.276245117,-19067529.678344727,1525409.460067749,73100509.64355469,156729385.37597656,272029449.4628906,154091049.19433594,176404678.34472656,91282829.28466797,32712402.34375,93833915.71044922,2632308.006286621,65874427.795410156,127433197.02148438,164576644.89746094,238912551.8798828,178525894.16503906,98157348.6328125,192515045.16601562,200847625.73242188,53930679.32128906,116254241.94335938,193194839.47753906,294278381.34765625,274242126.46484375,273776397.7050781,234030929.5654297,274127716.0644531,165892227.17285156,167498962.40234375,89781959.5336914,231265548.7060547,231763809.20410156,217765853.88183594,164198196.4111328,156913635.25390625
0.475,10051028.25164795,-5128249.168395996,3023359.2987060547,62450317.3828125,39538120.26977539,103653419.4946289,283377441.40625,81842422.48535156,15781845.092773438,164765.50698280334,25318593.978881836,97944343.56689453,94055122.37548828,178647521.97265625,252803894.04296875,167214141.84570312,26018455.505371094,5630801.200866699,-22344491.958618164,-4621678.352355957,43661586.76147461,160349395.75195312,226917541.50390625,144947052.00195312,162361816.40625,94329475.40283203,23935764.31274414,-18862545.013427734,125812.88814544678,64093307.49511719,140543045.0439453,232340545.65429688,137828018.18847656,159753997.80273438,86592704.77294922,31500265.12145996,85073966.97998047,2784304.618835449,59080848.693847656,114954986.57226562,144720794.67773438,210203002.9296875,158189453.125,91590446.47216797,171138748.1689453,178322311.4013672,48614261.627197266,104244789.12353516,170593002.31933594,258763275.14648438,238238922.11914062,237963043.21289062,205774871.82617188,241853271.484375,144888107.2998047,145777069.09179688,80369750.9765625,203255035.40039062,203745895.3857422,189796081.54296875,143291595.45898438,137326095.5810547
0.48,11137510.299682617,-11554196.35772705,-9733525.276184082,64690200.80566406,31276826.858520508,127268974.30419922,298739868.1640625,88892356.8725586,17143686.294555664,-1963658.9288711548,19462644.577026367,89785560.60791016,83866798.4008789,167131988.52539062,273063415.52734375,180648147.5830078,30797801.971435547,7163309.097290039,-23999078.75061035,-8615612.983703613,38139640.80810547,153762283.3251953,219794998.1689453,160046737.67089844,172617904.66308594,100678627.01416016,25850107.192993164,-19357597.35107422,-3087673.4256744385,60320873.26049805,137442123.41308594,231121322.63183594,149455993.65234375,168450576.78222656,92578521.72851562,34720207.21435547,86251884.46044922,1283269.1669464111,56802169.79980469,114149093.62792969,144868377.68554688,220556915.28320312,164909164.42871094,96761802.67333984,174972381.59179688,180631210.32714844,49424312.591552734,105132911.6821289,172780090.33203125,261814849.85351562,245270751.953125,245051162.71972656,211844070.4345703,246532974.24316406,151350479.12597656,152210510.25390625,84421676.63574219,209509948.73046875,210079879.7607422,195679138.18359375,149888854.98046875,144274871.82617188
0.485,11167836.18927002,-22055669.7845459,-27107334.13696289,66860176.08642578,20946374.893188477,151813842.7734375,319776489.2578125,96909835.81542969,18434000.01525879,-4936299.3240356445,12768226.623535156,82626548.76708984,70474273.68164062,155759750.36621094,298380126.953125,196301147.4609375,35797058.10546875,9314045.906066895,-25646257.400512695,-13189034.461975098,32503913.87939453,149270980.83496094,215211166.38183594,176777893.06640625,184951919.55566406,108034408.56933594,28849784.85107422,-19937793.731689453,-6646917.819976807,56132938.385009766,133564437.86621094,231866073.60839844,162828033.44726562,178850357.05566406,99101837.15820312,38080673.21777344,88569320.67871094,-1338206.0527801514,53365718.841552734,112503280.63964844,144277175.9033203,232338912.9638672,173803863.52539062,102555183.41064453,181093811.03515625,184773040.77148438,49764511.10839844,105518608.09326172,175755172.7294922,267314300.53710938,255673721.31347656,255435333.25195312,220017532.3486328,253740875.24414062,158652893.06640625,159577316.2841797,82471954.34570312,217835861.2060547,218421234.13085938,203416931.15234375,157268005.37109375,151887176.51367188
0.49,-562422.8119850159,-35687847.13745117,-43651092.529296875,55598560.33325195,8626811.981201172,150234329.2236328,305928039.55078125,91774368.28613281,16258134.841918945,-7996098.041534424,6318201.065063477,71300460.81542969,52699108.1237793,134263397.21679688,288602508.5449219,191495346.06933594,35767459.869384766,9100118.637084961,-26289918.899536133,-15772977.828979492,26559823.989868164,131687255.859375,194010894.77539062,173463088.9892578,180370727.5390625,106769935.60791016,29094625.47302246,-20322328.567504883,-8897175.788879395,49796379.08935547,123055877.68554688,212950958.25195312,158998291.015625,174434478.75976562,98741867.06542969,38473369.59838867,85831726.07421875,-3126600.2655029297,47545497.89428711,104274238.58642578,132037643.43261719,220968902.58789062,167778259.27734375,101167198.18115234,174059570.3125,175973129.27246094,46726509.09423828,98612945.55664062,165308746.33789062,252668823.2421875,243012786.86523438,242814041.1376953,209359680.17578125,241156539.9169922,150294143.6767578,150943267.82226562,70023124.69482422,207256332.39746094,207836624.1455078,192442794.7998047,148887817.3828125,144139739.99023438
0.495,-13961356.163024902,-45193447.11303711,-51543201.4465332,41939060.21118164,1540242.4335479736,135221832.27539062,280730346.6796875,82103332.51953125,12978700.637817383,-9718729.972839355,3421980.619430542,62971740.72265625,39945629.11987305,118574073.7915039,265688232.421875,178680465.6982422,32672733.306884766,7339441.776275635,-26851316.452026367,-16268053.05480957,23439500.80871582,116048866.27197266,174653656.00585938,161280059.81445312,169254531.86035156,101839263.91601562,27435070.037841797,-20941131.591796875,-9569336.891174316,46063175.201416016,115326606.75048828,193386489.86816406,147714965.8203125,164854232.78808594,95313201.90429688,37572811.126708984,82070755.00488281,-2899179.220199585,44523292.541503906,97710601.80664062,120169807.43408203,203603698.73046875,157517623.9013672,97214637.75634766,164286560.05859375,165677169.7998047,44941085.81542969,92901794.43359375,154391189.5751953,235959228.515625,225471832.27539062,225385833.74023438,195235244.75097656,225872680.6640625,139503067.01660156,139836181.640625,60479434.967041016,193111862.1826172,193749984.74121094,178300872.80273438,138018478.3935547,133771362.3046875
0.5,-17446998.596191406,-47398162.841796875,-51053413.39111328,39254425.048828125,2428319.9310302734,130145339.96582031,278870178.22265625,80575035.09521484,11956312.17956543,-9797864.91394043,4573173.999786377,62959697.72338867,38253608.70361328,120432022.09472656,263520965.57617188,177242507.9345703,31177951.81274414,6523905.7540893555,-28130071.64001465,-16206937.789916992,24393978.118896484,117683609.00878906,175611465.45410156,158673614.50195312,168050109.86328125,101754570.00732422,26759933.471679688,-22007040.02380371,-9718974.113464355,47611755.37109375,117520210.26611328,193830032.3486328,145138412.47558594,164532745.36132812,95494117.7368164,38261581.42089844,82792419.43359375,-1482315.182685852,47029647.82714844,99741592.40722656,120503547.66845703,202974243.1640625,158185714.7216797,97695503.23486328,165643753.0517578,167669342.04101562,48147239.685058594,96199501.03759766,157235885.6201172,238245635.98632812,226865982.05566406,226886367.79785156,197023727.4169922,228939743.0419922,141957611.08398438,142351684.5703125,62130592.346191406,194835357.66601562,195517456.0546875,180099975.5859375,140395538.33007812,135947906.49414062
0.505,-14515962.600708008,-46467861.17553711,-49116615.295410156,43582782.74536133,5736484.527587891,134808319.09179688,292331146.2402344,85049377.44140625,12894248.008728027,-9136085.510253906,6676931.858062744,66179733.27636719,43494083.404541016,129178039.55078125,275444976.8066406,183978652.95410156,32108459.47265625,7192343.711853027,-29381067.276000977,-16338560.104370117,26772939.682006836,128001907.34863281,186320480.3466797,163585693.359375,174201385.49804688,105759918.21289062,27612703.323364258,-22948009.490966797,-10198346.138000488,50663959.50317383,123515724.1821289,204549957.27539062,149456665.0390625,170455490.1123047,98868995.6665039,40203304.290771484,86121490.47851562,-468040.406703949,50878559.11254883,105310012.81738281,126946708.67919922,212494232.17773438,165790145.87402344,101235389.70947266,173443786.62109375,175845046.9970703,52826416.015625,103140342.71240234,166941802.97851562,250141128.54003906,238925872.80273438,239014450.0732422,207344772.3388672,241477432.25097656,150905929.5654297,151598144.53125,67615432.73925781,205092529.296875,205681808.4716797,189938690.18554688,149307830.81054688,144277633.6669922
0.51,-13197557.44934082,-45763839.72167969,-48384391.78466797,45452079.77294922,7414638.996124268,136260009.765625,296421295.1660156,87069641.11328125,13886770.248413086,-8104619.026184082,8075784.683227539,67596687.31689453,50463500.9765625,133027236.93847656,278292968.75,185970245.36132812,32951622.009277344,8010043.144226074,-29528102.87475586,-15960596.084594727,28695117.950439453,132970367.43164062,190756896.97265625,164461654.66308594,176467300.41503906,107889419.55566406,28427906.036376953,-23149589.53857422,-10555414.199829102,51837207.79418945,126126602.17285156,208522750.8544922,150334411.62109375,172111495.9716797,100717468.26171875,41008781.43310547,87413597.1069336,-248001.50096416473,51974666.595458984,107506744.38476562,129430892.94433594,214620422.36328125,168450637.8173828,102451690.67382812,175980545.0439453,177602767.94433594,53795509.338378906,105216453.5522461,170397796.63085938,253342315.67382812,241862884.52148438,242000808.7158203,209303359.98535156,244107971.19140625,152201889.03808594,153045181.27441406,67986198.42529297,206972595.21484375,207390838.62304688,190764602.6611328,150615142.82226562,145227279.66308594
0.515,-12965450.286865234,-43679397.58300781,-45523685.455322266,45238372.802734375,9731877.326965332,132912231.4453125,290670501.7089844,85823547.36328125,14615205.764770508,-6195196.151733398,10250601.768493652,69361083.984375,58395359.03930664,134924148.5595703,271818298.33984375,182401504.51660156,32083213.806152344,8034838.676452637,-28551433.563232422,-14383409.50012207,31256517.41027832,133221481.32324219,190909362.79296875,160313812.25585938,173475006.10351562,106373535.15625,28165676.11694336,-22675920.486450195,-9797330.856323242,52666095.73364258,127092468.26171875,207052413.9404297,146441162.109375,168348678.5888672,99255905.15136719,39824810.02807617,86399337.76855469,-16261.838376522064,51576976.77612305,107206558.22753906,128501647.94921875,208710388.18359375,164849548.33984375,100268257.14111328,172351364.1357422,172946609.4970703,51091197.9675293,102647781.37207031,167407455.44433594,248212097.16796875,235203323.3642578,235332809.4482422,202445083.61816406,236238281.25,145675582.8857422,146459548.9501953,62776012.4206543,200048950.1953125,200394134.52148438,182545776.3671875,144086593.6279297,138655487.06054688
