time,Fp1,Fpz,Fp2,AF3,AF4,F7,F5,F3,F1,Fz,F2,F4,F6,F8,FT7,FC5,FC3,FC1,FCz,FC2,FC4,FC6,FT8,T7,C5,C3,C1,Cz,C2,C4,C6,T8,TP7,CP5,CP3,CP1,CPz,CP2,CP4,CP6,TP8,P7,P5,P3,P1,Pz,P2,P4,P6,P8,PO7,PO5,PO3,POz,PO4,PO6,PO8,CB1,O1,Oz,O2,CB2
0.0,723755.6576728821,1867834.3296051025,1989605.6652069092,-439115.64350128174,1211652.5173187256,-2459304.5711517334,-1766790.1515960693,-1799815.29712677,-103962.67473697662,84360.53991317749,342816.561460495,1074082.9706192017,1212424.2782592773,2116615.5338287354,-2144158.6017608643,-1471255.5408477783,-691665.7090187073,-187287.5541448593,-142091.304063797,458724.82657432556,871090.1737213135,1056756.3772201538,1608138.2036209106,1009239.4351959229,-1194210.2909088135,-810139.4772529602,-217395.46954631805,-88986.337184906,407812.4761581421,748589.4560813904,1011910.5577468872,859226.0479927063,-595110.833644867,-719974.5178222656,-377933.65120887756,107141.54690504074,-92934.37749147415,355086.23719215393,1168437.9577636719,1035997.6291656494,1940210.7000350952,-627054.6913146973,-591538.3696556091,-308137.32743263245,-233976.88567638397,-119985.98277568817,307543.45655441284,794024.2290496826,993638.8731002808,1417135.8346939087,-365911.93079948425,-335845.55983543396,-499694.67520713806,196742.07270145416,458637.2375488281,781686.544418335,755704.8797607422,343820.81031799316,-732253.37266922,-17318.615689873695,370594.2928791046,274704.81395721436
0.005,-7893209.457397461,-6572679.9964904785,-12907993.31665039,-13623004.913330078,-11137677.192687988,-7067251.205444336,-7806786.060333252,-9399957.656860352,-12059713.363647461,-10634269.714355469,-10560656.547546387,-7812717.914581299,-8540743.827819824,-1381813.5261535645,-8307229.042053223,-7906057.357788086,-5356119.155883789,-8034521.102905273,-9866510.391235352,-7333696.365356445,-7047936.916351318,-7290195.465087891,-3043545.722961426,34283882.14111328,1051721.453666687,-2450073.719024658,-1519141.9124603271,-3647102.3559570312,-3139380.45501709,-4020287.036895752,-2505941.867828369,-6559150.695800781,12160963.05847168,-2902246.7136383057,-132455.09564876556,1088715.4340744019,-1578880.9061050415,-486178.9643764496,-418047.60694503784,3528445.9590911865,23402685.165405273,517941.8921470642,-2642058.1340789795,-367154.8366546631,-5147652.149200439,-1455060.0051879883,2999454.2598724365,9029534.339904785,12111865.997314453,20334484.100341797,-244364.2020225525,327834.9041938782,-5951008.319854736,-3269001.7223358154,6710430.62210083,13408597.946166992,12876942.63458252,10289340.019226074,-2591320.276260376,-1344976.6635894775,4823533.535003662,5463359.832763672
0.01,-10994836.807250977,-6697312.355041504,-15139868.73626709,-19568014.14489746,-14001246.452331543,-10580131.530761719,-12623263.359069824,-14671618.461608887,-19168378.829956055,-16506893.157958984,-15112217.903137207,-9870421.409606934,-10417987.823486328,-430157.54222869873,-11633294.105529785,-11622096.061706543,-9229596.138000488,-13831727.027893066,-16268342.971801758,-11455173.49243164,-9338444.709777832,-8865248.680114746,-2621267.318725586,49658515.93017578,2256608.486175537,-3847540.3785705566,-3460281.6104888916,-6566552.16217041,-5386012.077331543,-5446866.035461426,-2227969.169616699,-7591187.477111816,19384031.295776367,-2436242.8188323975,634090.781211853,2302417.039871216,-2255884.6473693848,-292397.46928215027,-18719.930201768875,6115979.194641113,36091396.33178711,4963459.014892578,-58132.49200582504,2353418.5886383057,-3954860.210418701,1059808.9694976807,6247027.397155762,14324435.234069824,19038440.704345703,31171762.466430664,5081205.368041992,5881983.280181885,-3064362.2875213623,426109.31396484375,13279025.077819824,22120094.299316406,21490726.470947266,19695213.317871094,1280397.2959518433,3019534.111022949,11857865.333557129,11976398.468017578
0.015,-6072956.085205078,1348923.2063293457,-6060182.571411133,-17152873.992919922,-7917016.506195068,-11406401.634216309,-14269064.903259277,-15892645.835876465,-19670452.117919922,-15993815.422058105,-12578902.244567871,-5719004.154205322,-5965802.192687988,3986766.815185547,-11508892.059326172,-12099389.07623291,-11057152.74810791,-15930899.620056152,-17708650.588989258,-11065164.566040039,-6373771.190643311,-4859126.091003418,1710859.5371246338,48670600.89111328,2402110.815048218,-4942625.522613525,-5296671.390533447,-8030310.63079834,-5927430.152893066,-3787066.2212371826,898435.2350234985,-3265191.3166046143,21193044.662475586,475308.8653087616,1597767.1146392822,2988532.304763794,-2161833.2862854004,340506.6132545471,1858684.5397949219,8437520.980834961,39303768.157958984,11209098.815917969,5925084.114074707,6616620.063781738,1494706.9883346558,5511249.542236328,8894509.315490723,16025537.490844727,21072393.4173584,33423988.342285156,13890238.761901855,14601314.544677734,5774989.128112793,8490980.14831543,18445587.158203125,25774614.334106445,25335718.154907227,26667667.388916016,9189413.070678711,10847195.625305176,19043222.427368164,18144399.642944336
0.02,818360.9247207642,7389956.474304199,-256805.9265613556,-12588167.190551758,-2997379.779815674,-9368844.985961914,-12466037.75024414,-13846084.594726562,-16369089.126586914,-12419198.989868164,-8638241.7678833,-2731864.4523620605,-4277002.811431885,5140273.571014404,-9611401.557922363,-10909258.842468262,-10343982.696533203,-14534276.008605957,-15579823.49395752,-8973938.941955566,-3913479.5665740967,-2822133.5411071777,3205689.4302368164,45341941.833496094,2155979.3949127197,-5736208.438873291,-5714450.836181641,-7820212.841033936,-5779366.016387939,-2462759.494781494,2155462.9802703857,-764544.5466041565,21293487.548828125,3114913.7020111084,1961251.8548965454,2378838.7775421143,-1919600.1291275024,43120.64126133919,2720319.0326690674,9270212.173461914,37748054.50439453,14628849.983215332,9930329.322814941,8860222.816467285,4581867.694854736,7085920.333862305,9232236.862182617,15437067.031860352,20150058.74633789,31845180.51147461,19409118.65234375,19974414.825439453,11118041.9921875,12340079.307556152,19759706.497192383,25583360.67199707,25235994.338989258,29034202.575683594,14181491.85180664,14759630.20324707,21284170.150756836,20617750.16784668
0.025,-1793540.596961975,1720124.9599456787,-8642424.583435059,-13456357.0022583,-7427460.670471191,-8033138.275146484,-11047915.4586792,-12781773.567199707,-14701354.026794434,-11434970.85571289,-9697851.181030273,-6564845.085144043,-10720969.200134277,-2020012.378692627,-9099368.09539795,-10632515.907287598,-9108260.154724121,-12580187.797546387,-13581201.553344727,-8976803.77960205,-6298605.442047119,-7305886.268615723,-2692145.586013794,45627559.661865234,1210268.8550949097,-6610584.259033203,-4964522.361755371,-6970119.476318359,-6446903.705596924,-4029050.827026367,-1243523.120880127,-5030437.469482422,20808193.20678711,2759536.9815826416,1187550.0679016113,977081.6564559937,-1885930.7765960693,-1205574.0356445312,1187372.2076416016,7486343.860626221,34378795.6237793,12697179.794311523,8693629.264831543,7616968.154907227,2824617.624282837,4966638.088226318,7515209.674835205,14094004.63104248,17969699.85961914,29472604.751586914,17588415.145874023,18155094.146728516,8446582.794189453,9318857.192993164,17375638.961791992,23255401.611328125,22823392.868041992,26478818.893432617,12306261.06262207,11587146.759033203,17468744.2779541,18150318.145751953
0.03,-14880023.956298828,-10456328.392028809,-22901706.69555664,-20018676.7578125,-16803602.21862793,-12510813.71307373,-14830634.117126465,-16966550.827026367,-17594165.802001953,-15076820.373535156,-15481041.90826416,-13966702.461242676,-19497278.213500977,-12276686.668395996,-13328240.394592285,-13797237.396240234,-10727829.933166504,-13442599.296569824,-14216526.985168457,-11490996.360778809,-11029098.510742188,-13934355.735778809,-11631525.039672852,43435089.111328125,-2100023.7464904785,-8594911.575317383,-5069044.11315918,-6784044.7425842285,-7897575.855255127,-7101265.907287598,-6426651.0009765625,-12920705.795288086,17379716.873168945,-1279573.7981796265,-784893.8703536987,-132023.73683452606,-1934334.9933624268,-1904834.8665237427,-1049630.6419372559,4123191.8334960938,30016963.958740234,6980266.094207764,3805387.258529663,4504272.4609375,-298436.1946582794,2843751.907348633,5933595.657348633,12992615.699768066,15433600.425720215,26533332.82470703,11016997.337341309,11665478.706359863,2161676.1684417725,5087321.2814331055,14630699.157714844,20508636.474609375,20037944.793701172,20941303.253173828,6174487.590789795,5618014.335632324,12187980.651855469,12912865.63873291
0.035,-21276329.040527344,-10271486.282348633,-21878133.77380371,-23785095.21484375,-17555761.337280273,-23187885.284423828,-23185733.795166016,-25323785.78186035,-21796091.079711914,-18590204.2388916,-18358982.08618164,-15571708.679199219,-19452230.45349121,-12800783.157348633,-23220621.10900879,-20841440.200805664,-15775649.070739746,-16827373.504638672,-15829689.979553223,-12569824.21875,-11417410.850524902,-14302096.366882324,-13626171.112060547,34791706.08520508,-8369105.339050293,-12142832.75604248,-7122262.954711914,-7167949.199676514,-8145600.318908691,-7904432.29675293,-7799834.251403809,-16515233.993530273,10027456.283569336,-7250633.239746094,-3426756.8588256836,-802030.1461219788,-1935538.649559021,-1158117.413520813,-1225870.8477020264,2351734.399795532,27183059.692382812,613028.9435386658,-1109926.700592041,1579278.2306671143,-1591654.4198989868,2900212.287902832,5647450.923919678,12516101.837158203,13559333.801269531,24007595.06225586,5116741.65725708,5755309.581756592,-1712775.2304077148,4466290.473937988,14106713.29498291,18793989.181518555,18391571.044921875,14994361.877441406,598746.5381622314,2240549.8027801514,9934275.62713623,8053272.247314453
0.04,-4441624.641418457,13079323.768615723,3478249.0730285645,-17032247.54333496,-2672544.240951538,-33353614.807128906,-29312093.73474121,-31367441.177368164,-20957347.869873047,-15330108.642578125,-11843788.146972656,-6594331.741333008,-7182682.514190674,1904906.3920974731,-34930747.985839844,-28320747.37548828,-20208871.841430664,-18429437.6373291,-14480059.623718262,-8599122.047424316,-4776313.781738281,-6204129.219055176,-4573201.1795043945,24975112.915039062,-14915184.020996094,-15648278.23638916,-9340878.4866333,-6735285.28213501,-5768745.899200439,-4839066.505432129,-3576270.818710327,-12095360.75592041,1599068.4032440186,-12305541.038513184,-5680078.029632568,-1726126.1940002441,-1984140.396118164,4576.890729367733,793159.3656539917,3985465.5265808105,28427204.132080078,-4643622.875213623,-4228683.948516846,-610873.8780021667,-2231111.2880706787,2932476.282119751,5319147.58682251,12106222.152709961,12783721.923828125,23418386.459350586,2082116.3654327393,2626887.798309326,-2593608.1409454346,5055389.404296875,14252509.117126465,17881263.732910156,17476232.528686523,10000345.230102539,-2874408.24508667,1324652.5526046753,9684297.561645508,4681274.890899658
0.045,26767976.760864258,45221809.38720703,36039886.474609375,-3329316.3776397705,18224702.835083008,-36337314.60571289,-28407718.658447266,-30720577.239990234,-13779561.042785645,-5575394.153594971,721981.406211853,6527797.698974609,7801563.262939453,20481985.092163086,-42655441.28417969,-31664886.474609375,-20082294.464111328,-15507801.055908203,-9459685.325622559,-1594625.9498596191,3606580.4958343506,3046634.4356536865,7398899.078369141,19226989.74609375,-18275119.78149414,-17006307.60192871,-9338918.685913086,-4879347.324371338,-2327912.0922088623,-718852.2219657898,1752057.1947097778,-4826481.342315674,-4770117.75970459,-15087061.882019043,-7027347.564697266,-3130989.5515441895,-2084497.6902008057,64782.05323219299,2095000.7438659668,6701339.7216796875,31263053.89404297,-8949799.537658691,-6489828.586578369,-2586144.208908081,-4643428.802490234,758243.6800003052,3797054.7676086426,10756114.00604248,11914949.417114258,23367408.752441406,-291392.0283317566,243571.1920261383,-3772410.3927612305,2429293.394088745,12042010.307312012,15886384.963989258,15365243.911743164,5817343.711853027,-5843729.019165039,-977912.0087623596,7287431.240081787,1704152.3456573486
0.05,43854705.810546875,59658958.435058594,49698158.264160156,4591928.958892822,28027961.73095703,-34484642.028808594,-24810508.728027344,-27491550.44555664,-7527871.131896973,1761746.4065551758,8421606.063842773,12250348.091125488,12913702.011108398,26149446.487426758,-45333953.857421875,-31265619.2779541,-17652929.306030273,-11791258.811950684,-5529046.058654785,2040534.9731445312,6069701.194763184,4752168.655395508,10457386.97052002,15066082.954406738,-19054641.723632812,-17140411.376953125,-7950412.273406982,-3036448.0018615723,-978693.5448646545,326561.89799308777,2497092.0085906982,-3098190.0691986084,-9128231.048583984,-17174226.760864258,-8525207.51953125,-4513350.963592529,-2031342.2679901123,-822020.947933197,754534.5425605774,6749917.984008789,30489500.045776367,-13142254.829406738,-9718777.656555176,-4841509.3421936035,-8140687.942504883,-1484325.1705169678,2944829.225540161,8962776.184082031,10021055.221557617,20999420.166015625,-4412685.871124268,-3760011.1961364746,-6756031.9900512695,-2041537.5232696533,8603956.22253418,12558326.721191406,11998386.38305664,2050531.6257476807,-9163440.704345703,-5569251.06048584,2318899.393081665,-1770028.829574585
0.055,32313419.342041016,48088642.12036133,38783618.92700195,-1158317.9235458374,20946100.23498535,-36723869.32373047,-27172082.901000977,-29784130.096435547,-10547028.541564941,-1461821.6753005981,4581731.31942749,6641993.999481201,6455883.026123047,17101995.46813965,-47874500.2746582,-32920455.932617188,-19428415.298461914,-13776425.3616333,-7828761.577606201,-1312199.354171753,1286799.9076843262,-1068312.406539917,3445114.850997925,8892064.094543457,-21466129.302978516,-19547092.43774414,-8595384.59777832,-3131739.377975464,-2666943.7885284424,-2221501.350402832,-1339433.5508346558,-8335950.85144043,-12817230.224609375,-20687343.59741211,-11411680.221557617,-5497624.397277832,-1783224.4634628296,-1056129.0979385376,-1056362.3905181885,4244313.716888428,26453168.869018555,-17019220.35217285,-13867452.621459961,-7139422.416687012,-9681985.855102539,-178751.1110305786,5477467.060089111,9248404.502868652,8992012.023925781,17641187.66784668,-8955586.433410645,-8232641.220092773,-9552436.828613281,-2800088.1671905518,9010351.181030273,11229095.458984375,10768961.906433105,-494500.070810318,-11186186.790466309,-8578701.972961426,-461490.2138710022,-4436463.832855225
0.06,9131017.684936523,29129924.774169922,22558502.197265625,-14148203.84979248,8097668.647766113,-45853927.61230469,-36459114.07470703,-38521282.19604492,-21458374.0234375,-12606782.913208008,-5792316.913604736,-2455287.6949310303,-1186975.9559631348,8485389.709472656,-53364788.05541992,-39480289.459228516,-26907579.42199707,-21696966.17126465,-15091408.729553223,-8052970.886230469,-4551663.398742676,-6099327.564239502,-2685333.490371704,4151408.1954956055,-26665334.701538086,-24813735.961914062,-12214364.051818848,-5058887.958526611,-4933071.613311768,-4594525.8140563965,-4032997.6081848145,-12947866.439819336,-14878492.35534668,-24431207.65686035,-14426451.683044434,-6048941.135406494,-1624916.672706604,143258.4822177887,256881.56485557556,3357927.083969116,25641206.741333008,-18704782.485961914,-16242923.736572266,-8264090.538024902,-7941697.120666504,3980486.6313934326,10255370.140075684,13043610.572814941,11578416.82434082,18329692.840576172,-10217345.237731934,-9608613.014221191,-9855296.13494873,1494574.5468139648,14956204.414367676,14733332.633972168,14298684.120178223,-187437.2512102127,-10143058.776855469,-6758773.8037109375,2412826.0612487793,-3939910.888671875
0.065,237274.3934392929,24175010.681152344,19880626.678466797,-20937913.89465332,3471825.122833252,-53771804.80957031,-43729930.87768555,-45244556.42700195,-29396135.330200195,-20527984.619140625,-11921303.749084473,-4856003.284454346,-391331.91108703613,12462285.995483398,-57845397.94921875,-45509193.420410156,-33058559.41772461,-27696901.321411133,-20192361.83166504,-11229040.145874023,-5068657.875061035,-3939225.435256958,985018.3725357056,6075024.604797363,-29982572.555541992,-28359245.30029297,-15185055.73272705,-6577795.505523682,-4852548.122406006,-3179085.7315063477,-1195032.7157974243,-9941523.551940918,-13508591.651916504,-24933876.037597656,-14640248.29864502,-6105830.669403076,-1752253.0555725098,1703168.0345535278,4525062.084197998,6564052.581787109,31027170.181274414,-17032260.89477539,-14854125.9765625,-7326895.236968994,-5262447.834014893,5960687.160491943,12369290.351867676,17629602.432250977,16560356.140136719,23854951.858520508,-7575873.851776123,-7144815.444946289,-8506353.378295898,5135558.128356934,20460390.090942383,20015804.290771484,19413608.55102539,2719869.1368103027,-7419200.420379639,-2650365.8294677734,7449880.599975586,-470565.0806427002
0.07,9103586.196899414,32683952.33154297,27820085.525512695,-16541934.967041016,8331185.340881348,-52521492.00439453,-41767829.89501953,-43060848.236083984,-26537897.10998535,-18119922.637939453,-9082661.628723145,518837.1539115906,6690726.757049561,23003141.403198242,-56356361.389160156,-44285289.7644043,-30919771.194458008,-25160856.246948242,-18142164.23034668,-8048871.040344238,-391470.1044559479,2577220.678329468,9942210.19744873,12065694.808959961,-27377061.84387207,-26169887.54272461,-13905497.550964355,-5903383.255004883,-2307103.8722991943,1178325.6530761719,4695607.1853637695,-2390609.7412109375,-10099273.681640625,-21813867.568969727,-11703212.73803711,-5749547.481536865,-1945923.2091903687,2108842.611312866,7392185.688018799,10722333.908081055,36591869.35424805,-14306372.64251709,-12074621.200561523,-5613039.016723633,-5299574.851989746,2578581.5715789795,8968107.223510742,18224205.017089844,18605659.48486328,27523262.02392578,-5511543.273925781,-5115755.081176758,-8917349.815368652,2374485.492706299,18166904.44946289,20301992.416381836,19564126.96838379,4740386.009216309,-6898225.784301758,-2128401.517868042,7785561.084747314,1939362.4067306519
0.075,17793962.478637695,37923725.12817383,30546396.255493164,-8903745.651245117,12843351.364135742,-45160587.310791016,-34410804.748535156,-35677154.541015625,-17283113.479614258,-9775826.454162598,-2285879.135131836,5931122.303009033,10334893.226623535,25674037.93334961,-50887405.39550781,-37529262.54272461,-22879560.470581055,-17116075.51574707,-11635517.120361328,-2243112.325668335,4172031.879425049,5677923.679351807,12915119.171142578,14497628.211975098,-21737646.102905273,-20615573.88305664,-9660811.424255371,-3705434.799194336,242836.3859653473,4110242.8436279297,7306884.765625,435847.28240966797,-8330853.462219238,-19052721.02355957,-8979989.051818848,-5454482.555389404,-1884245.8724975586,1058689.3558502197,5576656.818389893,10790127.754211426,35251171.11206055,-14237313.270568848,-12297397.61352539,-5589912.414550781,-8900854.110717773,-3411454.916000366,2991688.4899139404,13499713.897705078,14563948.631286621,23494709.014892578,-8118355.751037598,-7618604.66003418,-12775275.230407715,-5162064.075469971,8880641.93725586,13606271.743774414,12998107.91015625,2699865.8180236816,-10245400.428771973,-7006278.038024902,1934386.7301940918,-330289.90030288696
0.08,14334684.371948242,31247123.71826172,22545400.619506836,-7603951.930999756,10305923.461914062,-40039588.928222656,-30230957.03125,-31467706.68029785,-12119546.890258789,-5062786.102294922,973372.1613883972,5125109.1957092285,6065713.882446289,17404987.335205078,-46981998.443603516,-32629150.390625,-17233949.661254883,-12108820.915222168,-7424731.254577637,562221.5270996094,4458903.789520264,2294850.8262634277,7035821.437835693,12058267.593383789,-18689186.096191406,-17123899.459838867,-6677401.065826416,-2148294.687271118,600011.2295150757,2702716.588973999,4196426.3916015625,-4332323.5511779785,-8635558.128356934,-19059185.028076172,-8822335.243225098,-5329401.016235352,-1571246.2663650513,-621344.2087173462,905197.0839500427,6446053.981781006,28888631.82067871,-16156055.450439453,-15182585.716247559,-7068830.490112305,-12541113.85345459,-6423886.775970459,-298059.52310562134,7566674.709320068,8097582.817077637,15586614.608764648,-12574378.967285156,-11999155.044555664,-16768661.499023438,-10066303.253173828,1524643.3019638062,6292278.289794922,5942343.711853027,-1230664.610862732,-13633580.207824707,-11996400.833129883,-3696297.6455688477,-4992611.885070801
0.085,6291649.341583252,21276142.120361328,14267931.938171387,-12179859.161376953,4711531.162261963,-38381923.67553711,-30573165.893554688,-31807756.423950195,-14630874.633789062,-7461778.163909912,-1193495.1543807983,231346.2644815445,-409099.0126132965,9254702.5680542,-44873359.68017578,-31818323.135375977,-17223400.115966797,-13452405.92956543,-8603585.243225098,-1490940.9284591675,1298216.2237167358,-2865543.6038970947,928773.1647491455,11504563.331604004,-18350395.20263672,-16728076.934814453,-6533672.80960083,-2364454.2694091797,-1068683.385848999,-1165408.4920883179,-296036.0646247864,-9186605.453491211,-6985961.437225342,-18733236.31286621,-9086838.722229004,-4582987.7853393555,-1224132.2994232178,-1954281.0916900635,-1827938.199043274,2844680.7861328125,25885343.551635742,-14556671.142578125,-14870905.876159668,-6474472.999572754,-11768377.304077148,-4142934.3223571777,907025.158405304,5734411.239624023,5900672.912597656,13222187.995910645,-11665515.899658203,-11087431.907653809,-15425580.978393555,-7501775.26473999,3076984.167098999,6047825.336456299,5773876.190185547,-837246.5968132019,-11308673.858642578,-10491831.77947998,-2272599.935531616,-5216384.8876953125
0.09,5865314.00680542,20099275.588989258,16758073.806762695,-14821805.000305176,4149945.2590942383,-35695251.46484375,-30256175.994873047,-31573116.302490234,-18843576.431274414,-12051838.874816895,-4721318.244934082,-1882990.1218414307,-756395.1015472412,11442414.283752441,-41033657.07397461,-30970840.454101562,-18732746.124267578,-16728702.545166016,-12362447.738647461,-5502773.761749268,-1014587.40234375,-3239550.3520965576,3110640.287399292,16970434.188842773,-16613399.505615234,-16238595.962524414,-7242181.777954102,-3461549.997329712,-2609100.580215454,-2695549.0112304688,-93392.31252670288,-6281511.306762695,-1306776.8812179565,-14738625.526428223,-6923068.046569824,-2845861.4349365234,-939638.2570266724,-2143700.361251831,175920.65036296844,4768207.550048828,30401767.73071289,-7005843.639373779,-8366042.137145996,-1878205.1801681519,-6546688.556671143,632725.179195404,4225457.668304443,9388650.894165039,10319650.650024414,19801044.464111328,-3541284.5611572266,-2901970.148086548,-8004911.422729492,-104441.5682554245,11383674.621582031,13248054.504394531,12837615.966796875,6404341.697692871,-2938757.89642334,-2370886.3258361816,5574675.559997559,2223454.236984253
0.095,12815148.35357666,28848377.227783203,28804964.065551758,-11868926.048278809,10831718.444824219,-33062194.82421875,-28140342.712402344,-29515243.530273438,-18674024.58190918,-12981170.654296875,-5038863.658905029,2196390.151977539,6553823.471069336,22306053.161621094,-37364261.627197266,-28924886.70349121,-18439918.518066406,-17385967.254638672,-14488336.563110352,-7350710.868835449,868046.9989776611,2469948.2917785645,12167770.385742188,23381696.701049805,-13652145.385742188,-14887464.52331543,-7260167.121887207,-3882641.315460205,-2088874.8168945312,573357.6416969299,5756625.175476074,2451423.8834381104,3910416.3646698,-9950255.393981934,-3965962.4099731445,-1496296.763420105,-745695.0545310974,-793121.0994720459,5564687.728881836,11302923.202514648,38252449.03564453,583809.494972229,-1230250.9546279907,3183674.5738983154,-1823343.276977539,3634088.5162353516,6784413.814544678,15348109.245300293,17465023.040771484,29197851.181030273,4754085.063934326,5567864.418029785,-573151.6480445862,5680389.404296875,19002420.42541504,21480405.807495117,20967363.357543945,15306645.393371582,4763185.024261475,5824707.984924316,13199725.151062012,12232614.517211914
0.1,18265245.43762207,38783611.29760742,40023799.896240234,-7544691.08581543,18970294.952392578,-35991096.49658203,-28549804.6875,-29877445.220947266,-15086965.560913086,-9949720.38269043,-1671733.6177825928,8704543.113708496,14812954.902648926,31841426.849365234,-39641967.7734375,-29584053.03955078,-18029668.8079834,-16060895.919799805,-13781247.13897705,-5827924.2515563965,5664590.835571289,8989072.799682617,19450462.341308594,23870393.753051758,-14146108.627319336,-15304080.00946045,-7259243.965148926,-3201996.8032836914,49180.91371655464,5570591.926574707,11807305.335998535,8147833.824157715,3249186.5158081055,-9717793.464660645,-3970855.474472046,-2055831.9091796875,-776840.6271934509,1246324.7776031494,10339105.606079102,16720319.747924805,42694114.685058594,1072867.751121521,-545560.4791641235,3997803.4496307373,-1670207.2620391846,3429534.673690796,7679210.186004639,19110885.620117188,21949195.861816406,33677501.6784668,6076015.949249268,7020324.230194092,963160.0379943848,6782778.739929199,21588031.768798828,25238405.227661133,24780929.565429688,19005855.560302734,5777672.76763916,8593300.819396973,15999540.328979492,16947834.014892578
0.105,18145849.227905273,41365577.697753906,41367549.896240234,-6554858.684539795,20855840.6829834,-41950889.587402344,-31716186.5234375,-33011959.075927734,-12604381.561279297,-6916708.946228027,1674092.173576355,10532230.377197266,15824715.614318848,31787189.483642578,-46013767.24243164,-33032913.208007812,-18940771.102905273,-15322561.264038086,-11902019.500732422,-3549288.272857666,8156558.036804199,9777741.432189941,18641422.271728516,19160438.537597656,-18259181.97631836,-17489429.473876953,-7690879.344940186,-2386991.262435913,1267255.3062438965,6796925.5447387695,12000802.993774414,5904844.760894775,-1401637.4349594116,-13367655.754089355,-6531424.045562744,-3621416.5687561035,-1073478.6987304688,2035677.9098510742,11051977.157592773,16412300.109863281,41078529.357910156,-3778125.286102295,-4881829.738616943,1328263.0443572998,-4367053.031921387,1968284.3685150146,7467467.784881592,18520339.965820312,21947746.27685547,31817762.37487793,2211870.4319000244,3089469.9096679688,-1868313.5509490967,5781028.270721436,20560241.69921875,24628686.904907227,24251348.4954834,16973087.310791016,2100381.61277771,7124825.954437256,15380174.63684082,14705091.47644043
0.11,15331190.10925293,34924285.888671875,31768337.24975586,-8047746.658325195,14322042.465209961,-40756160.736083984,-31391530.990600586,-32788829.803466797,-12818772.315979004,-6945837.97454834,944821.4769363403,4773964.881896973,8117187.5,22153602.600097656,-46658977.50854492,-33003997.802734375,-18762311.935424805,-15376370.429992676,-10847569.465637207,-3787391.185760498,4888373.851776123,3946562.0517730713,11200996.398925781,15530150.413513184,-19484645.84350586,-17460708.618164062,-7589344.024658203,-2525328.8745880127,-80592.37897396088,2892579.3170928955,6381595.611572266,-539322.4954605103,-2891290.1878356934,-14918902.397155762,-7419159.889221191,-3797301.0540008545,-1337751.5077590942,678682.5060844421,7701404.571533203,11587414.741516113,35835895.53833008,-5760523.319244385,-6678017.139434814,235234.5883846283,-5183822.6318359375,1691417.8133010864,7100201.606750488,15220393.180847168,19651679.99267578,27730588.912963867,349090.0695323944,1042493.5817718506,-2708566.427230835,6492419.719696045,19180027.00805664,22952856.063842773,22556186.67602539,14106593.132019043,517520.60651779175,6226428.031921387,14904450.416564941,10881572.723388672
0.115,12434903.144836426,25313415.52734375,19189241.409301758,-8873657.2265625,5449560.165405273,-31338766.09802246,-25594165.802001953,-27114627.838134766,-14141079.902648926,-9690375.328063965,-3759636.402130127,-3194638.729095459,-666907.8469276428,11690486.907958984,-38815479.27856445,-27530597.686767578,-16201229.095458984,-15476559.63897705,-11502135.276794434,-6530428.886413574,-881587.3861312866,-2091898.6797332764,4440396.308898926,16141101.837158203,-14862569.808959961,-14145725.25024414,-6868441.104888916,-3569900.2742767334,-2462112.6651763916,-1393356.3232421875,1279849.0524291992,-4257048.1300354,1176933.6462020874,-12266279.220581055,-5337391.376495361,-2339194.5362091064,-1240582.7045440674,-1168702.7215957642,4121286.392211914,7886632.442474365,31831130.981445312,-2133014.440536499,-3581657.886505127,2602140.426635742,-2946385.8604431152,2854669.3325042725,7417525.291442871,13021871.566772461,18314210.891723633,25605417.251586914,2690788.984298706,3290842.294692993,646098.8521575928,9034939.765930176,18909524.91760254,22471958.16040039,22021480.560302734,13558271.408081055,3261452.1980285645,7784273.147583008,15522145.27130127,10591482.162475586
0.12,9893193.244934082,20997316.360473633,14793758.392333984,-8757741.928100586,2813111.0668182373,-25819881.439208984,-21454252.243041992,-22948116.302490234,-15380465.507507324,-12833929.061889648,-8044334.411621094,-5055749.416351318,-1551095.0088500977,10208293.914794922,-32272228.240966797,-23874391.555786133,-14681710.243225098,-16464065.551757812,-13592812.538146973,-8810949.325561523,-2770144.22416687,-1866429.090499878,4277697.563171387,19201663.970947266,-10519747.734069824,-12225620.26977539,-7182199.478149414,-4491845.13092041,-3183226.3469696045,-1439782.5002670288,1766748.4283447266,-2805824.7566223145,5837370.872497559,-9604102.13470459,-3743107.0804595947,-1591885.6859207153,-878515.1839256287,-1289876.103401184,4117413.5208129883,8947731.018066406,32522884.368896484,1568590.0449752808,-789854.109287262,5102488.5177612305,-950384.7360610962,3936820.2686309814,8511475.563049316,14098015.785217285,19327093.12438965,26600131.98852539,4984477.996826172,5633466.720581055,4046978.9505004883,10603666.305541992,19758516.311645508,23471786.499023438,23028907.775878906,14509569.16809082,6152952.671051025,9884216.30859375,16193712.23449707,13621928.215026855
0.125,9502048.49243164,24187133.7890625,21065971.37451172,-8937911.033630371,7351555.824279785,-29822723.388671875,-23507244.110107422,-24893108.367919922,-16388950.34790039,-14641576.766967773,-8632215.49987793,24876.980111002922,4429386.615753174,16761770.248413086,-33544193.267822266,-26479938.507080078,-16572740.55480957,-18846181.869506836,-16021734.237670898,-9175514.221191406,-251346.31991386414,2381693.124771118,8530153.274536133,23043054.580688477,-11672719.00177002,-14505689.62097168,-8992595.672607422,-4593088.626861572,-2323532.819747925,772469.1033363342,5169855.117797852,158283.23364257812,7394435.405731201,-9393461.227416992,-4621363.162994385,-2586065.2923583984,-602053.4634590149,-66060.03642082214,6860579.967498779,12185588.836669922,36382373.80981445,1762455.701828003,-1307659.5067977905,5336248.874664307,-1573768.8541412354,4067897.319793701,9492270.469665527,16679281.234741211,21403577.80456543,29058670.043945312,4874766.3497924805,5560129.165649414,4199514.389038086,10109185.218811035,21660003.662109375,25395553.588867188,24994569.778442383,16330232.620239258,6230372.428894043,11278064.727783203,16988996.505737305,16891084.671020508
0.13,12674287.796020508,26546516.41845703,25952713.012695312,-8613717.079162598,9710634.231567383,-30776105.880737305,-24519403.4576416,-25930599.212646484,-16514120.101928711,-15282866.477966309,-7936533.9279174805,3144598.960876465,5850626.9454956055,18149917.602539062,-34054004.66918945,-27709907.53173828,-17874494.552612305,-20467878.341674805,-17632575.98876953,-9939569.473266602,-122554.7045469284,1582739.3531799316,8353066.444396973,27562398.91052246,-13185073.852539062,-16268144.607543945,-10040839.195251465,-4363713.264465332,-2706174.373626709,-510874.4502067566,4441492.557525635,-569784.2836380005,8994184.494018555,-8038796.424865723,-4899039.268493652,-3108144.998550415,-483448.0285644531,-26506.079360842705,7832997.3220825195,12179541.58782959,37464672.08862305,2790581.703186035,-739009.1419219971,5661108.016967773,-3180803.060531616,4068761.8255615234,9507719.993591309,17207660.675048828,22038043.975830078,30015645.98083496,5702785.968780518,6289136.88659668,3641584.873199463,9675235.748291016,23905912.399291992,27137929.916381836,26753751.754760742,20001966.47644043,6313897.132873535,13141410.827636719,18797491.0736084,18724250.79345703
0.135,15493247.985839844,18815868.377685547,16005043.029785156,-6757258.415222168,1628327.9657363892,-17975337.982177734,-16871213.912963867,-18451480.865478516,-15347743.98803711,-16118724.822998047,-10663431.167602539,-2831427.0973205566,-4306108.474731445,5581865.310668945,-24546508.7890625,-19951179.50439453,-14261377.334594727,-19317224.502563477,-18181545.25756836,-13293141.36505127,-6441600.322723389,-7593972.682952881,-699618.8759803772,30430818.557739258,-7921828.269958496,-12512014.389038086,-8703223.22845459,-4724760.53237915,-5429050.445556641,-6000759.601593018,-2029079.1988372803,-5857619.762420654,13814146.041870117,-3173604.0115356445,-1982781.8870544434,-1362448.9307403564,-330517.38142967224,-2087640.2854919434,5086004.257202148,7880282.878875732,32312786.102294922,8469674.110412598,4506747.245788574,8385654.449462891,-3588144.7792053223,4697861.194610596,8642050.743103027,14648126.602172852,20125394.821166992,27803186.416625977,9772309.303283691,10198894.500732422,5819027.423858643,10816784.858703613,24407724.380493164,27137435.913085938,26767875.67138672,24237815.856933594,9250122.0703125,15623215.675354004,20596641.540527344,19139249.801635742
0.14,11837228.775024414,4819757.461547852,-4153450.9658813477,-5796000.4806518555,-11723352.432250977,-4307759.761810303,-7663343.906402588,-9302091.598510742,-14500978.469848633,-17809696.197509766,-16483776.092529297,-12537939.071655273,-17283918.380737305,-10539937.019348145,-13740243.911743164,-10948431.968688965,-9533853.530883789,-17365112.3046875,-18392261.505126953,-17061380.38635254,-13332087.516784668,-16510229.110717773,-11037204.74243164,27058874.130249023,-438671.4696884155,-7199861.0496521,-6976625.919342041,-5704432.010650635,-7791688.919067383,-9693070.411682129,-7619905.948638916,-11006788.25378418,17463064.193725586,142513.90099525452,830700.5763053894,569100.4395484924,-145816.8476819992,-4073100.5668640137,2095741.0335540771,4046521.6636657715,25501173.01940918,13572508.811950684,9554478.645324707,10746640.2053833,-3777424.3354797363,5005846.977233887,7362096.309661865,11419478.416442871,17187812.80517578,24230651.85546875,12941713.333129883,13295413.970947266,8655158.042907715,11441781.997680664,21508224.487304688,24806312.561035156,24495786.666870117,24681375.50354004,11680769.920349121,15922413.82598877,19812967.30041504,18094560.623168945
0.145,2749326.229095459,-1240211.1291885376,-14561519.622802734,-9104243.278503418,-16789575.576782227,-10935457.229614258,-10916763.305664062,-12325435.638427734,-16069990.158081055,-19476915.35949707,-19876190.185546875,-14629168.510437012,-18852855.682373047,-12252065.658569336,-18331659.3170166,-14868164.0625,-11367285.72845459,-18344476.6998291,-19000558.853149414,-17406234.741210938,-12776899.337768555,-15471002.578735352,-11593812.942504883,16938701.629638672,-2277273.416519165,-8540174.48425293,-7756221.294403076,-6480725.288391113,-7220230.579376221,-7436572.551727295,-6349359.98916626,-11112550.735473633,13377754.211425781,-3930176.9733428955,-1290169.2390441895,-526565.7305717468,-139335.81113815308,-3784341.335296631,2740288.9728546143,4804557.323455811,24596483.23059082,10370812.41607666,7386958.122253418,8575361.251831055,-5890087.127685547,3733175.754547119,6000044.345855713,10077989.57824707,15786952.018737793,22954458.236694336,10165231.704711914,10552027.702331543,7251183.032989502,8865216.255187988,16783098.220825195,21777338.0279541,21551788.330078125,19640285.49194336,8323750.4959106445,12065030.097961426,16098150.253295898,15693376.541137695
0.15,-3074032.3066711426,6732084.75112915,-4815279.483795166,-15170420.64666748,-8802488.327026367,-35141986.84692383,-26555690.76538086,-27603887.5579834,-19293590.545654297,-19858114.24255371,-17739343.643188477,-7334905.14755249,-8665144.920349121,1237265.3484344482,-37610725.40283203,-30605503.08227539,-19717336.654663086,-22241205.2154541,-19995960.235595703,-14709071.159362793,-6425555.229187012,-7211893.081665039,-2712038.040161133,6227078.437805176,-14602328.300476074,-16715948.104858398,-10524291.9921875,-6654799.938201904,-5174992.561340332,-2985893.726348877,-945574.939250946,-6965589.0464782715,3211586.2369537354,-12644164.085388184,-7189825.534820557,-4130617.141723633,-279745.6383705139,-1956296.5631484985,5871792.793273926,8432643.89038086,30049026.489257812,308508.038520813,-635441.6608810425,2905193.090438843,-9388322.830200195,1676159.6202850342,5343484.401702881,10543332.09991455,16853221.893310547,24941541.67175293,3198125.3623962402,3641346.6930389404,1328572.154045105,4413517.951965332,14333830.833435059,20449054.718017578,20284412.384033203,13325716.018676758,383981.1086654663,6540160.655975342,12584664.344787598,13090886.116027832
0.155,-496103.10792922974,18455366.134643555,12865402.221679688,-18475938.79699707,2815915.107727051,-52026638.03100586,-39045623.779296875,-39932464.599609375,-21015569.68688965,-18756481.170654297,-13231205.940246582,-250831.0079574585,-361887.48478889465,12457350.730895996,-52936481.47583008,-41868408.203125,-26239601.135253906,-25142700.1953125,-20757354.736328125,-13037340.16418457,-3017951.726913452,-2810307.9795837402,4394131.660461426,1160321.593284607,-25506824.493408203,-23304208.755493164,-12312482.833862305,-6660869.121551514,-4732929.706573486,-2288282.1559906006,1599091.7682647705,-3680907.4878692627,-4601903.438568115,-17953927.993774414,-11132325.172424316,-6749752.998352051,-276880.26428222656,-921159.8038673401,7503851.413726807,10435788.15460205,34593349.45678711,-7826710.224151611,-6837423.801422119,-1264939.9042129517,-11942873.95477295,737803.3399581909,6229896.545410156,10903695.106506348,18778446.197509766,27036884.307861328,-1975211.7395401,-1448806.1666488647,-4486958.5037231445,1856919.4078445435,15942307.472229004,20901187.896728516,20744922.637939453,10348393.440246582,-5646203.994750977,3302573.6808776855,11858927.726745605,11326478.958129883
0.16,5206389.427185059,21293863.29650879,20440847.396850586,-16823307.037353516,7545367.240905762,-48274974.82299805,-38178077.697753906,-39254570.00732422,-19856088.638305664,-17083803.176879883,-10727760.314941406,-272812.72411346436,-2184088.945388794,10561869.621276855,-52973480.224609375,-39449375.15258789,-25634037.017822266,-24645696.64001465,-20699512.481689453,-13891846.656799316,-5466711.99798584,-6027321.815490723,3278505.802154541,1701789.379119873,-26079261.779785156,-22961338.04321289,-12061648.36883545,-6740561.962127686,-5836079.120635986,-5055444.717407227,-191327.92949676514,-3904939.1746520996,-5741609.0965271,-17148773.193359375,-10704067.23022461,-6865301.609039307,-91792.7548289299,-1523116.8270111084,6497960.090637207,9538021.087646484,33359668.731689453,-9666462.898254395,-7871262.550354004,-1863023.281097412,-13142715.454101562,831407.8450202942,7629985.332489014,9595961.570739746,18968208.31298828,26012359.619140625,-3300818.2048797607,-2564886.8083953857,-7272439.479827881,1732869.029045105,18178846.35925293,20421583.17565918,20204406.73828125,10019407.272338867,-6837781.90612793,2625628.2329559326,12475685.119628906,10053312.301635742
0.165,5855116.844177246,15342848.777770996,15210826.873779297,-14068100.929260254,5177381.51550293,-36463718.41430664,-30388788.2232666,-31840841.29333496,-17968223.571777344,-16079856.872558594,-10743031.50177002,-3546617.269515991,-7402647.495269775,4203716.278076172,-45528434.75341797,-31307382.583618164,-21338874.81689453,-22532810.21118164,-19867734.909057617,-14453684.80682373,-7891080.856323242,-9697496.41418457,-570108.2944869995,4200866.69921875,-20336530.685424805,-19176820.755004883,-11353072.166442871,-6433695.316314697,-5929770.469665527,-6413870.334625244,-1904763.5793685913,-5501782.417297363,-3386795.2823638916,-14434328.079223633,-8914631.843566895,-6200403.213500977,-48772.49896526337,-2751648.6644744873,4910015.106201172,7795564.651489258,29567150.115966797,-8526400.566101074,-7177486.896514893,-1408455.0142288208,-14577808.380126953,-29064.24179673195,6962127.685546875,6419152.736663818,16199630.737304688,22427328.10974121,-3480829.954147339,-2436519.6228027344,-8441795.349121094,826501.7867088318,16504177.09350586,17000843.048095703,16669761.657714844,9425933.837890625,-6356556.415557861,1959615.94581604,11508281.707763672,8851143.836975098
0.17,550330.638885498,8629822.731018066,6812024.5933532715,-14244771.957397461,1009244.6804046631,-31782546.997070312,-25986181.259155273,-27679224.014282227,-17870042.80090332,-16686746.597290039,-11864582.061767578,-4124772.548675537,-7535696.983337402,4067585.9451293945,-41061038.970947266,-27506021.49963379,-18428312.301635742,-21390367.50793457,-19016389.846801758,-12903409.004211426,-6200781.82220459,-8403967.85736084,-1021598.6967086792,7078662.872314453,-16049812.316894531,-16971065.521240234,-11131491.661071777,-5553649.90234375,-4615111.827850342,-5001197.814941406,-1543290.0190353394,-6590878.486633301,-961157.2027206421,-12952643.394470215,-8437183.380126953,-6053745.269775391,-282413.125038147,-3625983.715057373,3786121.606826782,6175351.142883301,27751377.10571289,-7486880.779266357,-7410234.9281311035,-1817754.9839019775,-16436561.584472656,-2086585.7601165771,3856947.898864746,2633260.488510132,11687699.317932129,18899742.126464844,-3758723.258972168,-2546140.432357788,-9277719.497680664,-2011988.1629943848,11610852.241516113,12293375.968933105,11905134.201049805,9086295.127868652,-6725002.765655518,935812.4732971191,9222875.595092773,8644519.805908203
0.175,-5299918.651580811,4096146.1067199707,926844.8352813721,-16400627.136230469,-3079922.676086426,-32088207.244873047,-25586862.564086914,-27185873.03161621,-19197868.34716797,-18700361.251831055,-13889247.89428711,-3052783.966064453,-5327185.153961182,5683022.499084473,-38524196.62475586,-27133867.263793945,-17060726.165771484,-21276144.02770996,-18790622.71118164,-11369084.358215332,-4034459.5909118652,-6340116.97769165,-1372175.5743026733,10408845.901489258,-14320794.105529785,-16314205.169677734,-10587025.64239502,-4792221.0693359375,-4251248.359680176,-4230917.930603027,-2363900.899887085,-8987594.604492188,1899107.4562072754,-11621233.940124512,-8350668.907165527,-5571605.682373047,-480224.28154945374,-3917411.0889434814,2126101.016998291,3620898.485183716,26505786.895751953,-5570353.031158447,-7044451.2367248535,-1831762.194633484,-16961921.69189453,-2878965.6162261963,1675435.7814788818,430089.23530578613,7995272.159576416,16219028.47290039,-2462059.736251831,-1392027.6165008545,-8509757.995605469,-3511652.2312164307,8728346.824645996,9668850.898742676,9406292.915344238,10932825.088500977,-6233355.99899292,1579690.69480896,8423277.854919434,9925641.059875488
0.18,-7931705.474853516,-194664.79122638702,-3413857.6984405518,-17476003.646850586,-7054862.976074219,-29863521.575927734,-25335067.749023438,-26596132.278442383,-19890039.443969727,-20252536.77368164,-16144432.067871094,-3834436.1782073975,-7444878.101348877,224448.23384284973,-34481170.654296875,-26064973.831176758,-15936488.151550293,-21156564.712524414,-18883903.50341797,-11747357.368469238,-5248599.052429199,-8733225.82244873,-6655907.63092041,12377962.112426758,-13358611.106872559,-15748784.065246582,-9674595.832824707,-4690823.554992676,-5693651.6761779785,-5727093.21975708,-6147968.769073486,-13867954.25415039,4644457.817077637,-10265411.376953125,-7685672.760009766,-4462244.987487793,-383744.83585357666,-3421407.93800354,81062.36904859543,619815.8860206604,22755868.911743164,-3104450.464248657,-5595888.614654541,-682867.169380188,-15716588.020324707,-1159575.5815505981,3147520.7805633545,1298103.928565979,7024193.286895752,13861544.609069824,-22889.53587412834,758069.1576004028,-6048627.3765563965,-1352926.8503189087,10519555.09185791,10177396.774291992,10173905.372619629,12925345.420837402,-3946315.5269622803,3670054.9125671387,9867068.29071045,10920521.73614502
0.185,-7867662.42980957,-2825376.033782959,-5359651.565551758,-17302148.818969727,-8227227.210998535,-27987367.630004883,-26129764.556884766,-27123025.89416504,-19386236.1907959,-19556655.883789062,-16262201.309204102,-5194677.352905273,-11967515.94543457,-7834504.6043396,-33020866.39404297,-26515426.635742188,-16449075.698852539,-21375005.7220459,-18698751.44958496,-12501217.84210205,-7360481.262207031,-12687374.114990234,-12627415.657043457,11346898.078918457,-14591070.175170898,-16626016.616821289,-9920688.62915039,-4783499.717712402,-6840704.917907715,-6724648.475646973,-9056415.557861328,-17314731.59790039,4162363.5292053223,-11091071.128845215,-7764005.184173584,-4297513.484954834,-175269.88685131073,-2125178.575515747,-255512.44616508484,101340.31623601913,19378801.345825195,-3391419.6491241455,-5621341.705322266,-146658.0033302307,-14544118.881225586,745726.2873649597,6220574.855804443,4409482.002258301,8917871.475219727,13237448.692321777,372213.6318683624,1019448.2803344727,-4705497.264862061,1816420.555114746,14003704.071044922,12241580.963134766,12400214.195251465,11572195.053100586,-2672827.72064209,4344989.29977417,11600570.678710938,10239694.595336914
0.19,-6681397.438049316,-899487.6742362976,-2870654.582977295,-17716278.076171875,-5479610.443115234,-30845499.03869629,-29253396.98791504,-30304952.62145996,-19034824.37133789,-17749090.19470215,-14166047.096252441,-4702577.590942383,-12382452.011108398,-7507159.70993042,-36544067.3828125,-30284646.98791504,-19037055.96923828,-22698881.149291992,-18803506.85119629,-12246187.210083008,-7025310.516357422,-12491598.129272461,-11263168.334960938,10210490.226745605,-18077966.690063477,-19432159.423828125,-11678925.514221191,-4589411.735534668,-6472620.487213135,-5303625.583648682,-7315680.503845215,-14603540.420532227,1136854.4101715088,-13152458.190917969,-8924002.647399902,-5574589.729309082,-131063.35699558258,-1032486.3195419312,1764255.166053772,3326390.9816741943,22128234.86328125,-5963845.252990723,-7007760.047912598,-913671.7319488525,-14375148.77319336,445467.9787158966,7025333.404541016,7448154.449462891,12501640.319824219,16842531.204223633,-1144342.541694641,-465358.07847976685,-5530914.306640625,2645768.642425537,15707036.972045898,14750552.1774292,14828276.634216309,8966917.037963867,-3589940.5479431152,3392849.2069244385,12934798.240661621,10234932.899475098
0.195,-5539743.423461914,2045318.841934204,-132378.2205581665,-18832275.390625,-3889999.3896484375,-31976261.138916016,-29973762.51220703,-31365177.154541016,-19843799.591064453,-18170068.740844727,-14050168.991088867,-4822288.990020752,-9397941.589355469,-17947.494983673096,-37190368.65234375,-31382890.701293945,-19986021.041870117,-24294134.14001465,-20433259.963989258,-12931085.586547852,-6488134.384155273,-9171063.423156738,-3927362.2035980225,13400766.372680664,-18161071.77734375,-20510866.165161133,-12930169.105529785,-4660613.059997559,-6447162.15133667,-3871201.515197754,-3324956.8939208984,-7607183.933258057,1658123.254776001,-11597012.519836426,-8675143.241882324,-6153541.564941406,-200788.82575035095,-1399397.611618042,3756823.5397338867,7277774.810791016,29909908.294677734,-4924277.305603027,-5276141.166687012,-509090.48318862915,-13738924.026489258,-854972.6605415344,5496441.841125488,9015048.98071289,15980119.705200195,23328395.84350586,70042.36429929733,665047.1687316895,-5308170.795440674,2224457.025527954,16196594.23828125,17700454.711914062,17565748.21472168,10784008.026123047,-2905189.9909973145,4403036.594390869,15346773.147583008,14000205.993652344
0.2,-6068734.645843506,68851.538002491,-3124091.148376465,-19448175.43029785,-7551757.335662842,-25786722.18322754,-25323457.717895508,-27033443.450927734,-21287902.83203125,-21493854.522705078,-18093109.130859375,-8243815.4220581055,-9015578.269958496,3604033.946990967,-29889791.48864746,-25901515.96069336,-17151592.254638672,-24739673.614501953,-22976274.490356445,-15862157.821655273,-8855329.513549805,-7990101.337432861,284417.599439621,19083822.25036621,-12153083.801269531,-17741968.154907227,-12369029.04510498,-5557822.704315186,-8195863.723754883,-4978324.890136719,-2146191.120147705,-3363240.4804229736,7448905.944824219,-6012568.473815918,-6150555.610656738,-4808807.849884033,-223930.4780960083,-2906620.979309082,3460185.2893829346,8118223.190307617,34593811.03515625,1187227.6067733765,329769.70076560974,2099493.0267333984,-12089061.737060547,-859237.8497123718,4605635.643005371,9173984.52758789,17287387.84790039,26775472.64099121,5015923.976898193,5310081.481933594,-2372694.730758667,3064308.4049224854,16988109.588623047,19548854.82788086,19258138.65661621,16258939.743041992,1239703.5360336304,8107406.6162109375,18155849.45678711,19069343.56689453
0.205,-8672060.012817383,-3776497.6024627686,-8000719.07043457,-19908294.677734375,-11037861.824035645,-22430070.877075195,-22897144.317626953,-24645265.579223633,-22303678.512573242,-23577955.24597168,-21224084.854125977,-10804282.188415527,-11265480.041503906,1229570.984840393,-25534622.192382812,-22382524.490356445,-15285605.430603027,-24336893.08166504,-23567506.790161133,-17675910.94970703,-11207389.831542969,-9375518.798828125,-1596931.3383102417,19637218.475341797,-8367410.659790039,-15914305.686950684,-11732118.606567383,-6481316.566467285,-9726696.968078613,-7005066.871643066,-4225696.086883545,-5113537.311553955,10085343.360900879,-3910311.698913574,-5212289.333343506,-4030431.7474365234,-288299.64995384216,-3798286.4379882812,1616186.6188049316,5881769.65713501,31891290.66467285,3921760.320663452,2547245.0256347656,3001227.617263794,-11934074.401855469,-347004.59241867065,5054212.0933532715,8178522.109985352,15373911.85760498,23472164.154052734,6952848.9112854,7029714.584350586,-1180759.072303772,3729053.258895874,16610694.885253906,17575859.06982422,17200708.389282227,17129598.61755371,3021590.232849121,9186307.907104492,17536024.09362793,18899145.126342773
0.21,-10531044.006347656,-430880.18894195557,-4886558.532714844,-21291599.27368164,-6391849.517822266,-34038070.67871094,-30994615.55480957,-32535320.281982422,-22280761.71875,-20441930.770874023,-17438772.201538086,-6768600.940704346,-10467273.712158203,1744655.728340149,-36491100.3112793,-30476078.033447266,-19633298.873901367,-24452234.268188477,-20554670.333862305,-14707999.229431152,-8788385.391235352,-9096411.70501709,-3176839.590072632,12082459.449768066,-15827711.10534668,-20382419.58618164,-13052210.807800293,-6234477.519989014,-8568548.202514648,-6815829.277038574,-5619748.115539551,-8828239.440917969,1924089.6701812744,-10747002.601623535,-9210983.276367188,-6454225.063323975,-532433.032989502,-3137335.5388641357,510956.46619796753,3893800.0202178955,26959733.963012695,-3990894.7944641113,-4313163.757324219,-1447928.4286499023,-15110332.489013672,-1563941.8363571167,4699790.954589844,6389357.089996338,12024144.172668457,17298126.220703125,462097.16796875,707598.1497764587,-6140446.186065674,1246767.520904541,13633141.51763916,12533421.516418457,12053948.402404785,9576418.87664795,-3478846.549987793,3781917.3336029053,12499048.233032227,12157289.505004883
0.215,-9004133.224487305,9467409.133911133,5397184.8487854,-22383249.282836914,3233277.7976989746,-51271774.29199219,-43008350.37231445,-44368618.01147461,-20953147.888183594,-14110737.800598145,-9483267.784118652,819264.9483680725,-6349922.180175781,7702125.549316406,-53974002.838134766,-43319641.11328125,-26408161.163330078,-24870031.356811523,-16219524.383544922,-9471453.666687012,-3563684.2250823975,-6402973.651885986,-515477.59771347046,3585200.548171997,-28690248.489379883,-27467271.80480957,-14990501.403808594,-5135103.702545166,-5872256.755828857,-4617866.039276123,-4487898.826599121,-9758839.60723877,-10962219.23828125,-20470005.03540039,-14712520.599365234,-10076676.368713379,-800097.7635383606,-1952147.2454071045,929196.7749595642,4161695.0035095215,26330364.227294922,-16283889.770507812,-14285108.56628418,-7851257.32421875,-18908510.208129883,-3740667.1047210693,3080197.811126709,5100951.194763184,10795831.680297852,15060558.319091797,-9111111.640930176,-8444808.006286621,-13433441.162109375,-2725940.465927124,10903610.229492188,9528968.811035156,8965531.349182129,1078633.3084106445,-13653188.705444336,-3330974.578857422,8261320.114135742,5937265.396118164
0.22,-6584852.21862793,13397279.739379883,9636143.684387207,-21069585.8001709,6193904.399871826,-52345043.18237305,-43883781.43310547,-45315021.51489258,-18669828.414916992,-10846327.781677246,-6354483.127593994,3056964.159011841,-5464942.455291748,9900217.056274414,-56534114.837646484,-44532352.447509766,-26658832.550048828,-23966489.791870117,-14417772.29309082,-7997827.529907227,-2041718.2445526123,-5363062.381744385,1590937.9720687866,3123148.202896118,-31805637.35961914,-28094995.498657227,-14462342.262268066,-4556856.155395508,-4803851.127624512,-3225281.9538116455,-3216127.634048462,-8513213.157653809,-14988801.956176758,-22374954.223632812,-15079132.080078125,-10456197.738647461,-851140.7971382141,-1676652.3122787476,1860768.9142227173,5336983.680725098,28889165.8782959,-19976387.02392578,-16348125.457763672,-9135441.780090332,-19154994.96459961,-4025617.5994873047,2448666.572570801,5464736.461639404,12761378.288269043,17580570.220947266,-11570532.79876709,-10622733.116149902,-15101232.528686523,-3531893.730163574,12040307.04498291,11471797.943115234,10996116.638183594,511252.7012825012,-16832241.05834961,-4376170.635223389,9728255.271911621,6692602.634429932
0.225,-8902034.759521484,3754395.7233428955,243199.33354854584,-19024368.286132812,-1804970.9796905518,-34574096.6796875,-31952917.098999023,-33654407.5012207,-17382223.12927246,-14244174.003601074,-11979029.655456543,-2513421.058654785,-10575911.521911621,2704672.09815979,-40147804.260253906,-31767026.901245117,-19267282.485961914,-21913213.7298584,-16405242.919921875,-11813531.875610352,-6001711.368560791,-8085230.827331543,-1817927.8373718262,10804327.011108398,-21525959.014892578,-20686523.4375,-11396407.127380371,-4859418.869018555,-6117595.195770264,-3993634.9391937256,-4111440.658569336,-8668720.245361328,-6720254.421234131,-15048079.490661621,-9511466.026306152,-7037205.696105957,-765662.3721122742,-2357266.1876678467,2160803.3180236816,5203326.70211792,28989067.07763672,-12401486.39678955,-9035674.095153809,-4028879.6424865723,-15934067.726135254,-2248500.108718872,3666383.5048675537,6564803.600311279,14772823.333740234,19272720.336914062,-5110070.705413818,-4174638.271331787,-9948194.50378418,-646016.7765617371,15502767.562866211,14692991.256713867,14477177.619934082,6600708.961486816,-10407364.845275879,1049807.7869415283,14577038.764953613,12133722.305297852
0.23,-17334201.81274414,-12033248.901367188,-14897202.491760254,-21284055.709838867,-13077474.594116211,-19301849.365234375,-22508308.41064453,-24406934.73815918,-19909887.313842773,-22263021.46911621,-21684125.900268555,-9820774.07836914,-16659328.46069336,-6765372.753143311,-23962747.57385254,-20574331.283569336,-13333026.885986328,-21647329.330444336,-20537103.6529541,-16957593.91784668,-11206492.42401123,-11931784.629821777,-7780869.483947754,18999958.038330078,-10552925.109863281,-13853216.171264648,-9352230.072021484,-5261985.778808594,-7920282.363891602,-5885942.9359436035,-6171773.910522461,-10886322.021484375,3567946.672439575,-7229389.667510986,-4099881.649017334,-3935372.3526000977,-788063.5261535645,-2813394.30809021,1726660.3708267212,3865258.6936950684,25819200.51574707,-3381709.098815918,-1351809.6208572388,1505355.1197052002,-12933568.000793457,-798387.348651886,5065164.089202881,6981315.135955811,14269680.976867676,17171922.68371582,2653005.599975586,3454606.294631958,-4257505.416870117,2219555.8547973633,17435253.143310547,15038476.943969727,15025740.623474121,12078288.078308105,-2207092.761993408,6869433.403015137,17518186.569213867,16341411.590576172
0.235,-26829195.022583008,-23374792.098999023,-25609310.150146484,-29161794.662475586,-20576421.7376709,-20743799.209594727,-25809240.341186523,-27632022.857666016,-26480133.056640625,-30333133.697509766,-29792264.938354492,-14723377.227783203,-20162220.001220703,-11214424.133300781,-22140890.12145996,-21809005.737304688,-15458055.49621582,-25018840.789794922,-24927776.336669922,-20442844.39086914,-14888168.334960938,-14794840.812683105,-11150821.685791016,22400043.487548828,-9298096.656799316,-14339916.229248047,-10760378.83758545,-5616213.321685791,-9123754.501342773,-7842414.855957031,-7502610.206604004,-12840373.992919922,6959681.034088135,-5156064.033508301,-3365280.3897857666,-4066041.4695739746,-862999.5584487915,-2127359.390258789,1301227.8079986572,3314975.9769439697,24069400.787353516,-265877.75349617004,728055.7751655579,2911718.6069488525,-11787209.510803223,108986.40006780624,6326076.507568359,7865856.170654297,13822507.858276367,15616951.942443848,6203148.365020752,6904091.835021973,-1745086.0738754272,4006216.049194336,18860252.380371094,15174624.4430542,15114033.699035645,15045738.220214844,1742780.6854248047,10154841.423034668,18837821.96044922,18934522.62878418
0.24,-31864200.592041016,-29861604.690551758,-32420658.111572266,-36563201.904296875,-25914165.496826172,-26712196.350097656,-32638751.983642578,-34218994.140625,-32687274.932861328,-34813697.814941406,-34867374.420166016,-19415939.331054688,-24175745.010375977,-14434685.707092285,-25271472.930908203,-27127393.72253418,-20661577.224731445,-29247646.33178711,-28181177.139282227,-22870740.89050293,-18367622.37548828,-17972908.02001953,-12832010.269165039,22737939.834594727,-12300756.454467773,-18181756.9732666,-13566870.68939209,-6535373.687744141,-10311358.451843262,-9612130.165100098,-8246673.583984375,-13430685.043334961,6687833.786010742,-5486752.033233643,-4949096.6796875,-5601480.007171631,-709152.340888977,-650101.363658905,1554446.9356536865,4472474.098205566,26064504.623413086,830662.9657745361,1184158.9212417603,2478400.707244873,-10782729.148864746,2561031.8183898926,9226795.196533203,11286217.68951416,17291574.478149414,19231613.159179688,7960238.933563232,8550912.857055664,476581.75230026245,7204397.201538086,23565776.824951172,20060785.2935791,19782211.303710938,18858093.26171875,4159106.2545776367,13293590.545654297,22607957.83996582,23227584.838867188
0.245,-31851819.99206543,-35868961.334228516,-39344818.115234375,-36628074.645996094,-31514089.584350586,-19741798.400878906,-29004070.281982422,-30483856.201171875,-33295475.006103516,-34256507.873535156,-36824344.635009766,-24592597.96142578,-30331689.834594727,-21643423.080444336,-18254323.959350586,-23328107.833862305,-19989007.9498291,-29563226.6998291,-28667358.3984375,-24528364.181518555,-21712003.707885742,-21724302.291870117,-16110235.214233398,24177051.544189453,-8877804.75616455,-17399019.241333008,-13891495.704650879,-7639367.580413818,-11412119.86541748,-10522624.969482422,-9194159.507751465,-13568917.274475098,10614515.30456543,-2317674.398422241,-4154978.2752990723,-5323672.294616699,-344654.76870536804,221103.37018966675,2193446.636199951,6046652.317047119,28726099.014282227,6232909.679412842,5537889.003753662,4460628.509521484,-9129394.53125,5758924.961090088,12908575.057983398,15398776.054382324,22700393.676757812,25190124.51171875,11629207.611083984,12054484.367370605,4606253.623962402,11069822.311401367,29253263.473510742,27106525.421142578,26686616.897583008,23411312.103271484,8905875.205993652,16890403.747558594,27893442.153930664,28091587.06665039
0.25,-29928560.256958008,-39522315.979003906,-42783081.0546875,-30612010.955810547,-33656398.77319336,-4002158.6418151855,-16783769.607543945,-18457214.35546875,-28587858.200073242,-30523529.052734375,-35001251.220703125,-25261363.983154297,-32780540.466308594,-26974714.279174805,-4155069.8280334473,-11780117.988586426,-12957134.246826172,-25377780.91430664,-26194723.12927246,-23999965.66772461,-21796199.798583984,-22399967.193603516,-18467773.4375,27919071.197509766,623754.4417381287,-11094384.19342041,-10833329.200744629,-7633889.675140381,-11291128.158569336,-9508677.48260498,-9133622.169494629,-12989870.071411133,19279411.31591797,4234827.041625977,-212895.005941391,-2902470.350265503,-146187.6630783081,-602672.9941368103,2343055.486679077,6781838.893890381,29515914.916992188,14481027.603149414,12332549.095153809,8865526.19934082,-8434867.858886719,5692174.434661865,13015031.814575195,15465306.282043457,23902408.599853516,27126483.917236328,16188413.619995117,16488330.841064453,7719442.844390869,10834943.771362305,28587490.08178711,28257146.83532715,27902847.290039062,25061843.872070312,13839218.139648438,17825059.89074707,29114559.173583984,29161529.541015625
0.255,-28888740.53955078,-36442813.873291016,-37590713.50097656,-26544353.485107422,-29276502.60925293,2434278.964996338,-9904937.744140625,-11867491.722106934,-24637245.178222656,-28398010.25390625,-31288421.630859375,-18761280.059814453,-26553585.052490234,-21540761.947631836,2045301.1989593506,-4714541.435241699,-7248669.624328613,-21513856.887817383,-23993486.404418945,-21950845.71838379,-17796689.987182617,-17485397.338867188,-14509944.915771484,32169879.913330078,6909187.793731689,-5336846.828460693,-7192451.953887939,-6681447.982788086,-10059612.274169922,-6703033.447265625,-6132994.651794434,-9887527.465820312,26406635.284423828,9579058.647155762,4192639.8277282715,-314248.29363822937,-283593.92285346985,-2371961.5936279297,2264950.5138397217,7587802.886962891,30461864.471435547,19622735.97717285,16887912.75024414,12840591.430664062,-8927165.031433105,1975464.3440246582,8544264.793395996,11201453.20892334,19889255.52368164,24615604.400634766,19236509.323120117,19537384.033203125,7823333.740234375,6374087.810516357,21087135.314941406,22523576.736450195,22356174.46899414,24704011.917114258,15638030.052185059,16057533.264160156,25864881.51550293,27353309.631347656
0.26,-29571420.669555664,-30214155.197143555,-28883325.576782227,-28974391.93725586,-23307283.401489258,-5592320.442199707,-14301477.432250977,-16328569.412231445,-25811531.06689453,-30730951.3092041,-29994155.883789062,-11100998.878479004,-17295507.431030273,-9754191.398620605,-3890273.8094329834,-7673969.268798828,-7937617.778778076,-22142326.35498047,-25542150.497436523,-21653751.373291016,-13921361.923217773,-10969034.194946289,-6374789.714813232,34153606.41479492,5372529.029846191,-4525888.919830322,-5885612.487792969,-6679286.479949951,-9404708.862304688,-3847355.365753174,-1471200.8237838745,-5251374.244689941,27255270.00427246,10724804.878234863,6723035.3355407715,953890.5620574951,-441336.15493774414,-2852906.7039489746,3506581.3064575195,9682940.483093262,33074138.641357422,19387235.641479492,18009532.928466797,14843374.252319336,-8370421.409606934,28688.088059425354,5240259.647369385,8525800.704956055,16774719.23828125,22871635.43701172,20682943.34411621,21041946.411132812,7891699.79095459,4663421.154022217,16008506.774902344,18475042.34313965,18458545.684814453,26838846.20666504,15489007.949829102,16061153.411865234,24537473.678588867,27890327.45361328
0.265,-31342781.06689453,-29168182.373046875,-27118066.787719727,-33728092.193603516,-22368297.576904297,-16009176.254272461,-22192638.397216797,-23984807.96813965,-29131074.905395508,-33880546.56982422,-31694530.487060547,-9857289.31427002,-15495895.385742188,-6112709.045410156,-12419931.411743164,-14994999.885559082,-12319367.408752441,-25401132.583618164,-28983160.0189209,-23564029.693603516,-13847152.709960938,-9866330.14678955,-3937582.492828369,31078680.03845215,-455442.1901702881,-7658882.617950439,-7064900.875091553,-8140845.29876709,-9839101.791381836,-2819067.4781799316,38137.15651631355,-4546727.180480957,21477958.67919922,7339431.285858154,6067485.809326172,318369.597196579,-292335.2122306824,-1043325.4241943359,6088905.334472656,11195169.448852539,33276733.3984375,14757596.015930176,16160240.173339844,14139051.43737793,-6831743.7171936035,2877254.7245025635,7729856.967926025,10860174.179077148,18055414.1998291,23138986.587524414,19479475.021362305,19837791.442871094,9073373.794555664,8719432.830810547,18702907.56225586,20887229.919433594,20905952.45361328,29165037.155151367,14404482.8414917,17998695.373535156,27107076.64489746,29578790.66467285
0.27,-32725276.947021484,-33904304.50439453,-33278148.651123047,-34364372.25341797,-25201765.060424805,-19534355.16357422,-25616765.97595215,-27093004.22668457,-28570306.7779541,-31649309.158325195,-31555240.631103516,-14364553.451538086,-22790485.382080078,-15618551.254272461,-16879110.33630371,-20514451.98059082,-15514372.825622559,-26144063.94958496,-28447860.717773438,-23495983.123779297,-15844738.006591797,-15856986.999511719,-12213693.618774414,22228307.723999023,-6722758.769989014,-12115785.598754883,-8873068.809509277,-8758999.824523926,-9771297.454833984,-4242949.00894165,-4779481.887817383,-11769550.323486328,10752259.254455566,-135602.51891613007,1336953.9976119995,-2550649.404525757,2259.556669741869,1036499.9771118164,6924190.521240234,8311283.111572266,26422992.706298828,5715847.015380859,9627315.521240234,9218084.335327148,-8348100.662231445,5341525.077819824,11767239.570617676,13012556.076049805,18492250.442504883,20008577.346801758,12089626.31225586,12393364.906311035,5933059.6923828125,10725013.732910156,21496067.04711914,22565919.876098633,22524143.21899414,22816450.119018555,8512316.703796387,14721173.286437988,26095842.361450195,24105445.861816406
0.275,-32348724.365234375,-36321235.65673828,-37873939.514160156,-30760898.59008789,-25620716.094970703,-20217147.827148438,-26062185.287475586,-27367424.01123047,-23597082.138061523,-24328220.36743164,-26799266.815185547,-17782262.802124023,-30006464.0045166,-26588857.650756836,-20442798.614501953,-23974817.276000977,-16587770.462036133,-23041118.621826172,-22461454.391479492,-19107587.814331055,-16099523.544311523,-22942047.119140625,-23428070.068359375,12152463.912963867,-12751333.236694336,-16484888.076782227,-9819657.325744629,-6761968.612670898,-8338020.324707031,-7103083.13369751,-12651867.866516113,-22606975.555419922,-1037791.0137176514,-9100013.732910156,-5822072.0291137695,-6622334.003448486,23814.640939235687,735405.3258895874,3622741.222381592,1115693.3307647705,15987657.54699707,-6196614.2654418945,-1170024.2757797241,1091282.9637527466,-14312665.939331055,1647682.6667785645,10099370.956420898,8835163.116455078,12721369.743347168,11286856.651306152,-442923.57563972473,-147062.0483160019,-4550426.483154297,3634182.6915740967,15635518.074035645,15943633.079528809,15820207.595825195,7545940.399169922,-3630657.196044922,3517321.5866088867,16705490.112304688,10409780.502319336
0.28,-30252449.03564453,-32028018.951416016,-34914295.1965332,-28074850.08239746,-22485994.338989258,-23166305.541992188,-27532876.96838379,-28850606.91833496,-19872976.303100586,-19657690.048217773,-22003833.770751953,-16830497.74169922,-29277164.459228516,-26413690.5670166,-24929771.423339844,-25867218.017578125,-17011329.650878906,-20024591.44592285,-17341590.881347656,-14807110.786437988,-14445969.581604004,-24268508.911132812,-25999101.638793945,8992873.191833496,-16481687.545776367,-18897180.557250977,-9630932.807922363,-4094635.486602783,-7328960.89553833,-9396281.242370605,-16502786.636352539,-27498214.721679688,-6778392.791748047,-13337184.90600586,-9953596.115112305,-8775805.473327637,-307766.1991119385,-1503003.716468811,-1144485.592842102,-4510568.141937256,11362260.818481445,-13584924.697875977,-8437957.763671875,-3802972.0783233643,-18712186.813354492,-4501125.812530518,3937474.012374878,1613442.063331604,5300424.098968506,4323981.285095215,-8204500.198364258,-7822578.430175781,-13716465.950012207,-5450307.846069336,6452270.5078125,6619279.384613037,6466490.268707275,-2454633.2359313965,-13142002.10571289,-5442323.207855225,7319369.316101074,1066771.9841003418
0.285,-27724681.854248047,-25975751.876831055,-28527242.66052246,-28946895.599365234,-20030197.143554688,-24360794.067382812,-28347555.16052246,-29799760.818481445,-21309701.919555664,-22783048.629760742,-22803121.56677246,-14351984.977722168,-22669034.957885742,-16826286.31591797,-24870244.9798584,-23947814.94140625,-16664108.276367188,-20455118.17932129,-19295547.485351562,-16208389.282226562,-13610333.442687988,-19385389.32800293,-18325059.89074707,15845595.359802246,-14059168.815612793,-16949943.54248047,-8618587.493896484,-3962673.9025115967,-8632085.800170898,-9580265.998840332,-13132706.642150879,-22282545.08972168,-1758203.625679016,-8276567.459106445,-6716747.283935547,-6674552.917480469,-648591.9952392578,-2600852.0126342773,-2101734.6382141113,-3237797.260284424,16264713.287353516,-9303592.681884766,-3952452.8980255127,463287.3833179474,-15102639.198303223,-4222095.012664795,1865103.9600372314,332406.78906440735,5285220.623016357,7003117.084503174,-2588941.5740966797,-2078158.1401824951,-10286999.702453613,-3452233.5529327393,6636849.880218506,6349599.361419678,6223548.412322998,4049819.9462890625,-9704864.501953125,-1005932.4502944946,9322308.540344238,6607365.131378174
0.29,-25862705.23071289,-23854387.283325195,-24484233.856201172,-30558916.091918945,-19608634.94873047,-19382589.34020996,-25402437.210083008,-27056571.96044922,-24935834.884643555,-29103244.78149414,-27266643.524169922,-13138484.001159668,-17189367.294311523,-8781792.640686035,-17840610.50415039,-18310329.43725586,-14613363.265991211,-22697992.3248291,-25851749.420166016,-21808322.90649414,-14319466.590881348,-13652543.067932129,-9250960.350036621,25361375.80871582,-6584034.9197387695,-11493280.410766602,-7289355.278015137,-6071626.663208008,-11063023.567199707,-7980978.488922119,-6533887.86315918,-12883266.44897461,9057135.581970215,1898758.5306167603,869905.8890342712,-2240291.3570404053,-718581.49766922,-1135548.710823059,1754185.676574707,2988695.6214904785,24122306.82373047,2756389.617919922,8602466.583251953,10347523.68927002,-6673367.500305176,3126237.154006958,7122703.075408936,6589877.605438232,12740146.63696289,16029596.328735352,10764609.336853027,11376849.174499512,2454529.5238494873,8753658.294677734,16713043.212890625,15281321.52557373,15155766.487121582,18478895.18737793,2610432.1479797363,11985824.584960938,19937738.4185791,19542480.46875
0.295,-24864692.68798828,-24797231.674194336,-23111068.725585938,-29436208.724975586,-18127620.697021484,-12959594.7265625,-20912904.739379883,-22734930.03845215,-25248996.73461914,-30426343.91784668,-28569580.078125,-12440116.882324219,-16037166.595458984,-8179406.16607666,-10996397.018432617,-13886736.869812012,-11890718.460083008,-22957635.8795166,-29041587.829589844,-24668863.29650879,-14575667.381286621,-11869228.36303711,-6665455.341339111,27527656.55517578,-1134531.7363739014,-7234630.107879639,-6265166.282653809,-6912252.426147461,-11767717.361450195,-6548136.234283447,-2963227.5104522705,-8109061.241149902,15155425.071716309,7467219.352722168,5039259.433746338,62170.34533619881,-617928.4453392029,780794.0244674683,5776075.839996338,7253376.483917236,26825942.993164062,10308678.62701416,15901314.735412598,15390576.362609863,-3369896.173477173,8126770.973205566,12679645.538330078,11999421.119689941,18049808.502197266,20589942.932128906,17144313.81225586,17798059.463500977,8630156.517028809,15648245.811462402,23189537.048339844,21019393.920898438,20802061.080932617,23059000.01525879,8495010.375976562,17611196.517944336,24968566.89453125,23718374.252319336
0.3,-24104001.998901367,-25184061.05041504,-22854187.01171875,-25664871.215820312,-14763549.8046875,-11551213.264465332,-18762264.251708984,-20558122.634887695,-20983407.974243164,-25315093.994140625,-24673551.559448242,-11203443.52722168,-17465723.037719727,-12026285.171508789,-10570703.506469727,-13732987.403869629,-10299036.979675293,-20420427.322387695,-25719438.552856445,-21705286.026000977,-13360567.092895508,-13892305.374145508,-9852795.600891113,22528018.951416016,-1641758.7995529175,-7060239.315032959,-5713974.952697754,-4824857.234954834,-10170117.378234863,-6694118.499755859,-4188053.1311035156,-9961250.305175781,13421304.702758789,5065752.983093262,2930993.5569763184,-1298227.4293899536,-590444.2071914673,779449.4032859802,6069357.872009277,6135401.248931885,24288084.030151367,8084542.274475098,11765733.71887207,11287710.189819336,-8623044.01397705,4557772.159576416,11531473.159790039,10164974.212646484,15517730.712890625,16783334.732055664,11511935.234069824,12150725.364685059,926052.9279708862,8604933.738708496,18044342.041015625,16474573.135375977,16134176.254272461,14850098.609924316,2058001.0414123535,10531503.677368164,18636318.20678711,16453229.904174805
0.305,-21713705.06286621,-23916568.756103516,-24054023.74267578,-20949085.235595703,-13057299.613952637,-11767210.960388184,-17077022.552490234,-18635452.270507812,-15175478.9352417,-19289628.982543945,-20447069.16809082,-10715617.179870605,-19289659.50012207,-15441325.187683105,-11486515.045166016,-13618261.337280273,-9017621.040344238,-17327051.162719727,-20513048.17199707,-17099914.55078125,-12249357.223510742,-16362548.828125,-13156862.258911133,20695590.97290039,-3057870.1496124268,-7926234.722137451,-4908564.09072876,-2249595.4036712646,-8534251.21307373,-7770151.615142822,-6982736.110687256,-13283154.487609863,11806014.060974121,2016063.928604126,3784.140106290579,-3225702.2857666016,-667201.2209892273,-489583.9989185333,4090633.3923339844,2834801.197052002,22201665.8782959,4261156.08215332,5086193.084716797,5453613.758087158,-14726760.864257812,-2110201.358795166,6236289.501190186,4985893.249511719,10544981.956481934,11747900.96282959,4518998.622894287,5104637.622833252,-9448273.658752441,-2091320.276260376,9737330.436706543,9254944.801330566,8888540.267944336,8088938.7130737305,-5239459.037780762,2737175.464630127,11029211.044311523,10596388.816833496
0.31,-15227716.445922852,-20286066.05529785,-25094125.747680664,-15616416.931152344,-14203264.236450195,-6053039.55078125,-11360020.637512207,-12718009.948730469,-10485352.516174316,-16434343.338012695,-19906940.460205078,-11808822.631835938,-20462703.704833984,-15922188.758850098,-6002202.987670898,-8378291.130065918,-5638709.545135498,-15229516.983032227,-18500169.75402832,-15739300.727844238,-12574738.502502441,-16864744.186401367,-12821656.227111816,27824451.446533203,845192.6708221436,-5416627.407073975,-3156732.5592041016,-2032134.771347046,-8512402.534484863,-8089749.336242676,-7942899.227142334,-13243216.514587402,17029304.50439453,5670791.6259765625,1921645.0452804565,-2529385.3282928467,-705378.8900375366,-863909.7809791565,3167863.368988037,1686797.9764938354,23321002.960205078,7622994.899749756,6722425.937652588,6455038.070678711,-13831943.51196289,-3346293.6878204346,3895277.500152588,3658531.904220581,10274435.997009277,12297073.364257812,6706951.61819458,7220086.574554443,-9083215.713500977,-2623746.156692505,9551002.502441406,9113911.628723145,8835830.688476562,12375198.364257812,-2109156.1317443848,5469523.4298706055,12524369.239807129,14438050.270080566
0.315,-4757180.213928223,-11254777.908325195,-19766057.96813965,-9978937.149047852,-13056786.53717041,2071116.6858673096,-4269213.1996154785,-5706611.156463623,-7409893.989562988,-15340849.876403809,-20608097.076416016,-11766128.540039062,-18913240.432739258,-11205146.789550781,1243636.965751648,-1517790.3175354004,-1032512.6647949219,-13783864.974975586,-19087774.2767334,-16832960.12878418,-12711544.99053955,-14992338.180541992,-8344464.302062988,35809944.15283203,7021693.229675293,-866250.75340271,-1171350.0022888184,-3538134.3364715576,-8885885.238647461,-6742401.123046875,-6402236.9384765625,-9916453.36151123,23483137.130737305,12230031.967163086,6446845.054626465,-199283.33163261414,-691391.8256759644,41469.47339177132,3641075.849533081,3004649.1622924805,25392715.454101562,13900308.609008789,13989735.60333252,12159595.489501953,-8535473.823547363,387491.3156032562,5713176.250457764,6462353.706359863,13315291.404724121,15847923.278808594,13652078.628540039,14107251.167297363,-1019987.940788269,5040169.239044189,15313397.407531738,13817452.430725098,13616119.384765625,19753187.17956543,5609503.269195557,13472475.051879883,19232585.906982422,20406843.185424805
0.32,5136020.660400391,3407327.41355896,-4894480.228424072,-6240355.491638184,-4926362.037658691,379112.95890808105,-4186205.8639526367,-5878680.229187012,-6002424.240112305,-13412331.581115723,-17828901.290893555,-7159702.301025391,-12561325.073242188,-539917.7670478821,-1981284.1415405273,-1818953.275680542,458090.51394462585,-12701644.897460938,-18711132.049560547,-16220243.453979492,-9922439.575195312,-11036208.152770996,-1349998.950958252,33016925.811767578,6705948.829650879,163525.5217552185,-483355.67116737366,-4033346.176147461,-7653436.183929443,-4138948.917388916,-3526945.3525543213,-6331304.550170898,20567865.3717041,11832499.504089355,7072005.271911621,476779.0138721466,-763538.5990142822,849845.5882072449,3891123.2948303223,4449115.753173828,25898199.0814209,12006036.758422852,15286668.77746582,13610779.762268066,-7121287.822723389,1948354.4826507568,7081613.540649414,8262928.009033203,13622620.582580566,15831786.155700684,13450300.216674805,13917792.320251465,1411846.7569351196,8218797.68371582,16833932.876586914,14319722.175598145,14094117.164611816,18209304.809570312,4468387.603759766,14189705.848693848,20308134.078979492,18083803.176879883
0.325,9232767.105102539,16225193.02368164,11943159.103393555,-6000348.5679626465,6495004.177093506,-13008605.003356934,-12485174.179077148,-14278906.82220459,-6178295.612335205,-10956646.919250488,-11514509.201049805,768157.6013565063,-3875649.2137908936,10186903.953552246,-16291912.078857422,-10531272.888183594,-2909272.1939086914,-12472959.518432617,-16408378.601074219,-12686149.597167969,-4416224.479675293,-5930533.885955811,3983344.316482544,20400434.494018555,-1670561.43283844,-3908605.0987243652,-1402853.9657592773,-2660374.164581299,-5104845.04699707,-1465632.9154968262,-1011267.3044204712,-5104025.840759277,8310123.443603516,2850833.8928222656,2504620.7904815674,-1316814.0649795532,-900293.4098243713,1009172.797203064,4027316.093444824,4881901.741027832,24679807.662963867,793820.5003738403,7157676.696777344,8107776.641845703,-11487847.328186035,-911891.8776512146,6161396.026611328,7263463.497161865,10643466.94946289,11618799.209594727,4360971.450805664,4935808.181762695,-5380527.973175049,3165164.7090911865,12522123.336791992,9334609.985351562,9043256.759643555,9031598.091125488,-5771986.484527588,6379679.203033447,14230303.764343262,9569646.835327148
0.33,7333257.19833374,18714305.877685547,18931221.00830078,-7509337.902069092,12682550.430297852,-24961574.55444336,-20363628.387451172,-21988430.02319336,-6592081.546783447,-9505108.833312988,-6155361.175537109,6533154.487609863,720858.9315414429,11831476.211547852,-28219253.540039062,-19125272.750854492,-7547419.548034668,-13125088.691711426,-14154058.456420898,-9054606.437683105,295604.7058105469,-1636769.5331573486,3120855.5698394775,10144755.363464355,-10149982.452392578,-8640906.33392334,-2786611.0801696777,-1178122.5204467773,-3342652.3208618164,262091.42804145813,-275860.5182170868,-6860537.528991699,-2140216.35055542,-5894330.024719238,-2202612.4000549316,-3303558.588027954,-836773.0975151062,1539526.343345642,5609045.028686523,5114668.369293213,22583440.78063965,-8975751.876831055,-1679733.5147857666,2002243.0419921875,-15448760.986328125,-2922753.33404541,6408070.087432861,6930756.092071533,9631568.908691406,8471761.703491211,-3562593.936920166,-2851983.070373535,-11756664.276123047,-1020671.3676452637,10788532.257080078,6488081.932067871,6164833.068847656,3042078.2566070557,-12094076.156616211,472693.0260658264,9622242.92755127,4800263.88168335
0.335,3977138.042449951,12045222.282409668,13757401.466369629,-8179527.282714844,10586166.381835938,-25686498.641967773,-21351949.69177246,-22759115.21911621,-5849436.7599487305,-9100227.355957031,-5018689.6324157715,6699562.549591064,-1590584.2781066895,3863356.590270996,-28943746.56677246,-21142953.872680664,-9739418.983459473,-14066349.029541016,-13406154.63256836,-7888415.336608887,1415351.8676757812,476442.75426864624,-2874284.029006958,9557578.086853027,-12397234.916687012,-10370963.096618652,-3953205.347061157,-1124686.2411499023,-3378407.7167510986,1011631.7272186279,-1066298.3655929565,-9650008.201599121,-3207632.064819336,-7432082.653045654,-3319534.0633392334,-3684230.089187622,-453146.0404396057,3025519.847869873,8428587.913513184,6146517.753601074,20890094.757080078,-9242644.309997559,-3303927.421569824,866269.7076797485,-14300889.015197754,-386602.34212875366,9861215.591430664,9669673.919677734,13014517.784118652,9718191.146850586,-3221103.4297943115,-2462833.6429595947,-10542311.668395996,2164858.818054199,15744625.091552734,10026021.003723145,9657028.198242188,4922303.676605225,-7700726.9859313965,2780765.2950286865,11836003.303527832,7153599.739074707
0.34,2506488.32321167,5830278.8734436035,5912706.8519592285,-8659632.682800293,5681953.907012939,-21720397.94921875,-20028961.181640625,-21368703.842163086,-4972285.747528076,-9131614.685058594,-6860766.887664795,3824543.9529418945,-5556631.088256836,-2417830.7056427,-25126743.31665039,-19943864.822387695,-10479612.350463867,-15303401.947021484,-13823146.82006836,-8643471.717834473,33467.721194028854,1692997.0979690552,-6162951.469421387,13718005.180358887,-10899772.644042969,-10681631.088256836,-5395308.971405029,-1944451.8089294434,-4141659.736633301,1780338.8833999634,-935738.2655143738,-9750242.233276367,1163823.7237930298,-4576659.202575684,-2554730.4153442383,-3136682.9872131348,-85894.12271976471,4371215.343475342,10296203.61328125,8232198.715209961,21903623.580932617,-3587819.0994262695,123400.58386325836,2963710.5464935303,-10711707.11517334,3022397.27973938,12945394.515991211,13161439.895629883,17001914.978027344,13480738.639831543,1457295.4177856445,2138294.219970703,-6259164.333343506,7286833.2862854,20757001.876831055,15050839.4241333,14576318.740844727,9616910.934448242,-542894.5422172546,8337241.172790527,16645524.978637695,11525776.863098145
0.345,2242017.2691345215,5583762.645721436,3991028.5472869873,-10901973.724365234,3961129.1885375977,-22148012.161254883,-22130998.611450195,-23469779.96826172,-6046965.599060059,-9962039.947509766,-8641805.648803711,2477504.9686431885,-4795856.475830078,1643519.639968872,-24790300.369262695,-20234006.881713867,-11738256.454467773,-16964715.9576416,-14790927.88696289,-9563241.958618164,-1004704.7138214111,3963778.257369995,-1519636.2733840942,16037939.071655273,-9735027.313232422,-11522983.55102539,-6865355.968475342,-2283211.7080688477,-4525037.2886657715,3098207.712173462,1673121.452331543,-5561187.267303467,4857557.29675293,-2433832.883834839,-2182392.358779907,-2721256.732940674,-165170.0735092163,4094865.7989501953,9862607.0022583,10737137.794494629,26464212.41760254,1336504.1017532349,3182137.966156006,4717813.491821289,-9366237.64038086,2279790.163040161,11607460.975646973,14068405.151367188,17568296.432495117,16664463.04321289,4444397.926330566,4996152.400970459,-5262544.15512085,7012744.426727295,19089157.104492188,15883118.629455566,15372382.164001465,12494397.163391113,843737.0657920837,10765876.770019531,18611907.958984375,14283156.394958496
0.35,1838595.5095291138,7162372.589111328,6400472.164154053,-13049621.58203125,5054252.147674561,-22119245.529174805,-23060861.587524414,-24317131.04248047,-8103808.403015137,-11568547.248840332,-9095962.524414062,3467164.7548675537,-612384.3193054199,9777925.491333008,-23257333.755493164,-18709852.21862793,-11164890.28930664,-17639631.271362305,-15970293.998718262,-10105667.114257812,-991647.6607322693,6386232.376098633,5783978.462219238,17969816.207885742,-6768620.96786499,-10416030.883789062,-6573078.632354736,-1858966.8273925781,-4842838.764190674,3930873.6324310303,4498256.206512451,-490287.57214546204,8989389.419555664,205733.13534259796,-777983.7846755981,-1947914.958000183,-585047.4238395691,2190636.157989502,7944690.227508545,12184744.834899902,31148574.829101562,5701879.501342773,6155781.7459106445,6921440.124511719,-10110394.477844238,-1389214.5156860352,7453677.654266357,12381764.41192627,15712325.096130371,18565721.51184082,6799468.517303467,7228396.415710449,-5379541.397094727,3668126.5830993652,13930118.560791016,14155321.12121582,13841814.041137695,14989642.143249512,-96406.75783157349,11273337.364196777,19005870.819091797,17315164.56604004
0.355,2233657.3600769043,5359561.920166016,7045243.263244629,-10793517.112731934,5111631.393432617,-12224874.496459961,-15333963.394165039,-16489948.272705078,-7464208.126068115,-12076760.292053223,-8693460.464477539,4121031.7611694336,471435.93430519104,9908347.129821777,-13145311.35559082,-10429775.23803711,-5663520.812988281,-15541172.02758789,-16505790.710449219,-10455500.602722168,-1332132.339477539,6219676.0177612305,6570286.750793457,23297369.0032959,1017076.849937439,-4943756.103515625,-3887050.6286621094,-1367187.3807907104,-5634267.330169678,3063436.508178711,4057919.979095459,579951.286315918,16438432.693481445,6341125.48828125,3099380.4931640625,-248856.3060760498,-763843.7151908875,141047.55222797394,6081935.882568359,11435541.152954102,31437091.827392578,12358602.523803711,11648532.86743164,11392166.137695312,-9620432.85369873,-2841085.67237854,5421090.126037598,10465868.949890137,14860983.848571777,19825551.986694336,11956002.235412598,12249397.277832031,-1537410.9745025635,4388584.613800049,12830458.641052246,14798475.26550293,14820973.39630127,19037548.065185547,3965527.5344848633,13843481.063842773,21677644.729614258,21855562.210083008
0.36,4397609.233856201,2192156.0764312744,5198371.410369873,-4501674.652099609,3313213.109970093,2229022.50289917,-3357565.402984619,-4540027.618408203,-3431660.1753234863,-10073199.272155762,-7896119.594573975,3082779.884338379,-3256351.4709472656,1801453.4711837769,-481409.2218875885,-213985.57722568512,1313269.3767547607,-11936996.459960938,-15658857.345581055,-10310359.001159668,-2425302.743911743,3487006.902694702,586867.5708770752,29022871.017456055,8948318.481445312,930753.8270950317,-1511267.5428390503,-1302032.9475402832,-6304089.546203613,1190654.2778015137,851323.7833976746,-2316862.3447418213,23001205.444335938,12357223.510742188,6337118.625640869,1035931.9448471069,-424364.3283843994,-651602.4470329285,5182088.375091553,9410848.617553711,27881591.796875,18292821.884155273,16914890.28930664,15267683.982849121,-7513892.650604248,-817040.741443634,6916998.386383057,9714334.487915039,15848796.844482422,20492029.190063477,17246456.146240234,17404306.411743164,3914535.5224609375,9189347.267150879,16557519.912719727,17926162.719726562,18116264.34326172,22269767.76123047,10727559.089660645,17100315.09399414,25536596.298217773,24815576.553344727
0.365,6456624.0310668945,2334889.6503448486,4580272.197723389,-772672.2359657288,1959364.1757965088,5805473.327636719,-77455.93786239624,-1363603.8303375244,-680436.4919662476,-7678362.846374512,-7301085.472106934,1727151.870727539,-6735690.116882324,-3479313.611984253,1727264.165878296,1349849.3432998657,2050464.8685455322,-10991448.402404785,-14529637.336730957,-9771130.561828613,-3156888.723373413,1402951.0021209717,-3625355.2436828613,29195959.091186523,9018879.890441895,591915.1306152344,-2700214.147567749,-1648261.308670044,-6162645.33996582,82962.58747577667,-1118626.356124878,-4450780.391693115,21957260.131835938,11691473.960876465,4726908.6837768555,71370.70596218109,5358.089227229357,-157920.4499721527,5468397.14050293,8383409.50012207,25483209.60998535,17660352.70690918,16493314.743041992,13996603.012084961,-6938966.274261475,843513.6675834656,8616819.381713867,9779767.990112305,16757009.506225586,20315378.189086914,16883651.733398438,17018671.0357666,4132192.611694336,11179627.418518066,19242923.736572266,19309913.635253906,19365606.3079834,21725084.30480957,11609746.932983398,16582601.547241211,26054681.7779541,23569377.899169922
0.37,5525280.475616455,4508447.647094727,5452905.178070068,-4314653.396606445,1753246.0689544678,-4389735.221862793,-8821702.95715332,-10116847.99194336,-3339043.617248535,-8560495.376586914,-8322632.789611816,1018406.6295623779,-6603388.786315918,-756244.957447052,-7071384.906768799,-7210816.860198975,-4962220.191955566,-14614364.624023438,-15312718.391418457,-10283869.743347168,-3528129.1007995605,1431238.1744384766,-1669492.483139038,24609375.0,1581535.6969833374,-5905745.029449463,-6764886.856079102,-2344042.5395965576,-5948669.910430908,-135656.74424171448,-245700.21033287048,-3455006.8378448486,14951952.934265137,5188134.670257568,-477845.162153244,-2561806.6787719727,-2635.4265864938498,504314.124584198,6447056.293487549,8992269.515991211,26418775.55847168,11280674.934387207,10907099.723815918,8555779.457092285,-9453070.640563965,-456456.72082901,7870009.422302246,10117951.393127441,16312074.661254883,19556421.279907227,11208811.75994873,11499447.8225708,-1315402.1501541138,7526546.955108643,17805307.388305664,17377281.188964844,17205511.09313965,18479719.161987305,5385963.439941406,12472341.537475586,22550643.920898438,20088495.2545166
0.375,1702382.9221725464,3899701.3568878174,4434407.711029053,-11417335.510253906,1388307.2137832642,-15185216.903686523,-18887784.957885742,-20082103.729248047,-8780300.14038086,-12496179.580688477,-11177086.83013916,370224.6844768524,-5585770.130157471,3082454.6813964844,-15122880.935668945,-16192066.192626953,-12397781.372070312,-19363513.946533203,-18062202.45361328,-12604392.051696777,-4798368.453979492,1393604.040145874,1243261.5756988525,21367229.461669922,-5013754.367828369,-11698625.564575195,-9657498.359680176,-3237949.848175049,-6738395.214080811,-844144.7019577026,758276.4029502869,-2374033.6894989014,10090895.652770996,304271.1615562439,-3863601.9229888916,-4228176.593780518,-346407.1750640869,504313.52853775024,7021578.311920166,9500710.487365723,27479003.90625,5830590.24810791,6189183.235168457,4536550.521850586,-12616528.511047363,-2498967.170715332,6137791.156768799,10729340.553283691,15227416.038513184,18526536.94152832,6352079.86831665,6856767.177581787,-5914844.512939453,3406202.793121338,15499603.271484375,15214901.9241333,14971959.114074707,15467626.571655273,-512216.80641174316,9484001.159667969,19247129.440307617,17593198.776245117
0.38,-1757865.309715271,1223339.0808105469,1855297.2078323364,-14639254.570007324,1484343.17111969,-18162101.74560547,-21474094.39086914,-22596042.63305664,-10651422.500610352,-14664150.23803711,-12840868.949890137,193682.55138397217,-6322373.390197754,2064914.7033691406,-17333869.93408203,-18802165.985107422,-13941895.484924316,-20507738.11340332,-19864892.959594727,-14540137.29095459,-6302115.917205811,-70724.75552558899,-64043.62618923187,20801395.416259766,-6716403.961181641,-12680208.206176758,-9153816.223144531,-3773928.165435791,-7819727.420806885,-1941910.5052947998,-162215.82889556885,-4082185.2684020996,9675653.457641602,-60278.9930999279,-3366644.1440582275,-3597297.9068756104,-520072.0429420471,258562.71386146545,6702188.491821289,8769330.978393555,26040565.490722656,3909565.210342407,4897687.4351501465,4311321.73538208,-13438717.84210205,-2293418.4074401855,6001282.215118408,11600852.012634277,14667731.285095215,17224397.659301758,5093387.126922607,5708254.337310791,-6196640.968322754,3769975.185394287,15769907.95135498,15441751.480102539,15266366.004943848,13193980.21697998,-1841172.0991134644,9622664.451599121,19030118.942260742,16032039.642333984
0.385,-2135252.4757385254,2089132.7857971191,2349324.7032165527,-11973320.007324219,4151039.1235351562,-19486389.16015625,-20164556.5032959,-21270229.33959961,-7276685.2378845215,-11917272.567749023,-10312166.213989258,1896424.1743087769,-6838540.554046631,-290619.79055404663,-20517810.821533203,-18789552.688598633,-11741345.405578613,-17840013.50402832,-18503118.51501465,-13266807.556152344,-5455744.26651001,-1067487.4782562256,-3146520.3762054443,18367959.97619629,-8115393.63861084,-11901814.460754395,-7194367.8855896,-3451076.5075683594,-7484226.226806641,-1654898.4050750732,-1412895.2026367188,-6835231.304168701,7997177.1240234375,-683319.9858665466,-2306695.6996917725,-2053823.9479064941,-406294.0180301666,555259.8237991333,6246867.1798706055,7848293.304443359,23918779.373168945,1729899.6448516846,3705033.540725708,4804249.7634887695,-11995060.920715332,-755667.8056716919,6972611.904144287,12120901.107788086,14637568.473815918,15580302.238464355,4075624.942779541,4720239.639282227,-5482476.234436035,6454566.00189209,17044143.676757812,16418230.056762695,16280344.009399414,10339149.475097656,-2465677.7381896973,9786984.44366455,19793626.78527832,13416666.984558105
0.39,133983.59715938568,7130405.426025391,6548887.729644775,-7911725.044250488,7932058.811187744,-24611801.147460938,-21334928.512573242,-22344295.501708984,-3427742.7196502686,-7382461.5478515625,-5897901.0581970215,4315043.926239014,-5470207.691192627,233359.05373096466,-27628395.080566406,-21132917.404174805,-11035114.288330078,-15198391.914367676,-15588610.649108887,-9734913.82598877,-2269170.7611083984,-410735.27932167053,-3856436.7294311523,12832140.922546387,-12684354.782104492,-13022270.202636719,-6506573.677062988,-2607031.5837860107,-5842143.0587768555,112211.65955066681,-1321301.9371032715,-7883399.963378906,2469609.9758148193,-4680032.730102539,-3422768.5928344727,-1402249.0978240967,-393673.1219291687,1131426.0959625244,6442182.0640563965,7654522.41897583,23117340.087890625,-2551242.3515319824,697670.8769798279,3575224.6379852295,-10478948.593139648,-972006.618976593,6376481.533050537,11458992.958068848,14171030.044555664,13546112.060546875,913986.86170578,1646399.4979858398,-6671964.168548584,6343634.128570557,15738041.877746582,15063726.425170898,14905173.301696777,7121320.2476501465,-5845643.043518066,7344668.865203857,18248847.96142578,9804269.790649414
0.395,2258865.1180267334,9683544.158935547,8419893.264770508,-6797705.65032959,7854568.4814453125,-27407899.856567383,-23436965.942382812,-24218036.651611328,-3538406.6104888916,-6451524.257659912,-5542085.17074585,3838537.4546051025,-5000235.557556152,531978.2495498657,-30676380.157470703,-23509811.401367188,-12122509.956359863,-15084862.70904541,-14416898.727416992,-7996494.770050049,-480394.06538009644,-227634.459733963,-3556626.081466675,9355232.238769531,-16434719.08569336,-14581282.615661621,-7099897.384643555,-2117020.606994629,-4915153.026580811,1044245.0046539307,-1068997.5023269653,-8035461.42578125,-1369853.138923645,-8183370.590209961,-5019262.313842773,-1631654.8585891724,-684212.9230499268,1049044.7282791138,6950544.357299805,7244361.877441406,22009336.471557617,-5104900.83694458,-1022251.6059875488,2470987.319946289,-10197461.128234863,-3353107.690811157,3496566.0572052,9567107.200622559,12515615.463256836,11036370.277404785,-1677849.6503829956,-806126.9521713257,-7588799.476623535,2878468.2750701904,11591919.898986816,11288414.001464844,11168959.617614746,5318905.830383301,-8953911.781311035,4130454.5402526855,14669611.930847168,7320545.196533203
0.4,1640787.124633789,5711356.639862061,4247404.5753479,-8759246.826171875,2712807.6553344727,-23001317.977905273,-22651935.577392578,-23231933.59375,-6527255.058288574,-9623116.493225098,-10559248.924255371,-11640.198528766632,-7464591.503143311,-2490531.2061309814,-25509906.768798828,-22416042.32788086,-12156435.012817383,-16269981.384277344,-15541769.027709961,-9510394.096374512,-2019962.5492095947,-1853840.947151184,-5062833.786010742,10862674.713134766,-15493430.137634277,-13852925.300598145,-7389966.011047363,-2235387.5637054443,-5549336.4334106445,219816.13337993622,-1775657.296180725,-9282742.500305176,393712.4013900757,-7740307.331085205,-4841077.80456543,-1766576.7669677734,-944941.1630630493,401738.64364624023,7171431.064605713,5918306.350708008,19052747.72644043,-3704298.0194091797,460439.62240219116,3349472.999572754,-10847487.449645996,-5175993.919372559,712346.3749885559,7703430.652618408,10065732.955932617,8550464.630126953,-1235574.722290039,-333513.94534111023,-6216112.6136779785,-86027.80848741531,7669885.635375977,7934609.413146973,7947181.224822998,5387658.11920166,-8336702.346801758,3103591.203689575,12086420.059204102,6921127.3193359375
0.405,-1809130.7878494263,69141.84987545013,-1102057.0993423462,-11783186.912536621,-2072103.500366211,-19064060.21118164,-21597463.607788086,-22169416.427612305,-8626811.027526855,-12373893.737792969,-14995084.762573242,-2841486.930847168,-9468876.838684082,-4441242.694854736,-21111192.70324707,-20706586.837768555,-11317352.294921875,-16589008.331298828,-16431585.311889648,-11040896.41571045,-3715065.2408599854,-2832874.059677124,-6429165.840148926,13130712.509155273,-13306795.120239258,-12088088.989257812,-6980577.9457092285,-2329778.6712646484,-6178564.548492432,-254130.12504577637,-2058202.5051116943,-10673278.80859375,2905993.700027466,-6529869.556427002,-4062059.8793029785,-1655215.2633666992,-843047.559261322,351104.37870025635,7216244.697570801,4913995.742797852,16666322.708129883,-2397754.907608032,1641469.7170257568,4356058.120727539,-11748280.52520752,-4718145.370483398,179102.46551036835,7321568.489074707,8158926.963806152,7413416.862487793,-102908.4101319313,671828.4487724304,-5241325.378417969,-236155.37583827972,6217244.1482543945,7183233.261108398,7292540.550231934,5763234.1384887695,-6498425.483703613,3900286.912918091,12168556.213378906,7301133.632659912
0.41,-4896021.842956543,-550706.148147583,-996358.2754135132,-14094660.758972168,-1656021.5950012207,-23166915.893554688,-24071962.356567383,-24792366.02783203,-8454405.784606934,-11578198.432922363,-13577779.769897461,-1654134.1543197632,-7659756.183624268,-975883.0666542053,-25102046.966552734,-22118976.593017578,-11861390.113830566,-15716187.477111816,-15287871.360778809,-9653653.144836426,-2456992.6261901855,-1365239.5009994507,-4685039.520263672,12266600.608825684,-14341271.40045166,-11854765.892028809,-6570522.785186768,-1908893.5852050781,-5509478.569030762,849426.8655776978,-1112102.2701263428,-10193283.081054688,874995.231628418,-8196580.88684082,-4538396.835327148,-1708996.1767196655,-570467.8297042847,1128014.6837234497,7117984.771728516,5241165.637969971,17625411.987304688,-4525194.6449279785,-349062.4129772186,3504664.421081543,-12341370.582580566,-3486072.540283203,1014832.9734802246,8231752.395629883,7837328.4339904785,8468930.2444458,-986255.1689147949,-342112.12396621704,-7321998.119354248,768267.6315307617,6536361.217498779,8507873.53515625,8556925.773620605,5352905.2734375,-7350828.647613525,4177270.4124450684,13754464.149475098,7160058.498382568
0.415,-3238945.722579956,4030312.5381469727,4238775.730133057,-13699254.035949707,2225995.3022003174,-28140483.856201172,-26225725.173950195,-27088619.232177734,-6934500.694274902,-8540272.71270752,-8446142.196655273,1002272.0098495483,-4777098.178863525,3468063.3544921875,-29982603.073120117,-23293466.567993164,-12821261.405944824,-14395131.11114502,-13003943.44329834,-6853283.882141113,-264084.48815345764,-199205.13033866882,-2066152.572631836,11588606.834411621,-15658004.760742188,-12013726.234436035,-6100828.170776367,-1233396.053314209,-4528022.289276123,1331255.4359436035,-1047158.7181091309,-8772029.876708984,-1837232.5897216797,-9473283.767700195,-4812957.763671875,-1658953.309059143,-537211.2393379211,1367581.2482833862,6257471.084594727,5666817.188262939,20195863.723754883,-6156708.240509033,-1873055.8156967163,2777896.1658477783,-12018615.72265625,-3688428.8787841797,732649.2667198181,8490183.83026123,8640006.065368652,10579933.166503906,-1740684.986114502,-1111188.6501312256,-9758119.583129883,516364.33601379395,6498543.262481689,9806263.92364502,9663630.485534668,5109235.2867126465,-9269404.411315918,3570930.7193756104,14874769.21081543,6921503.067016602
0.42,4334530.353546143,9806308.74633789,9787827.491760254,-8857936.85913086,5686368.465423584,-22463750.8392334,-21684249.877929688,-22593046.188354492,-4193609.7145080566,-5209707.260131836,-4600574.970245361,2195950.746536255,-4763314.247131348,2638593.912124634,-24662405.014038086,-18757036.209106445,-10915915.489196777,-12749142.64678955,-10900353.43170166,-5475350.379943848,-297871.4406490326,-2004441.499710083,-2535060.6441497803,15868392.944335938,-11671484.94720459,-9702964.782714844,-4837445.259094238,-602590.799331665,-4506328.582763672,-503388.6432647705,-3043488.5025024414,-8684765.815734863,1815188.5271072388,-5238015.651702881,-2438797.4739074707,-904453.0987739563,-756552.517414093,275830.2688598633,4807569.0269470215,4938408.851623535,20760311.126708984,-2073279.1423797607,1838797.688484192,4983444.2138671875,-10781655.311584473,-5140268.802642822,-1319789.4096374512,6836571.69342041,9008711.814880371,11501314.163208008,1061259.9849700928,1705141.305923462,-8428695.678710938,-942166.6860580444,4956567.287445068,9623191.833496094,9299732.208251953,6533277.988433838,-7833089.351654053,3878144.0258026123,14967812.538146973,7665564.060211182
0.425,13133572.578430176,14468826.293945312,13357230.186462402,-1410628.5572052002,8619097.709655762,-9672541.618347168,-13009367.942810059,-13894356.727600098,-6555.065046995878,-1539223.4325408936,-2610286.7126464844,3558347.463607788,-5645134.449005127,-871103.7039756775,-12989079.475402832,-11086316.108703613,-6614428.520202637,-10838665.008544922,-8915501.594543457,-5227146.148681641,-1002206.6831588745,-4201181.888580322,-4826342.582702637,22338659.286499023,-4518476.963043213,-5916307.9261779785,-3093065.2618408203,176879.8828125,-4743844.032287598,-2225859.4036102295,-4261227.607727051,-9441307.067871094,9823016.166687012,2001534.2235565186,1136640.5487060547,167205.97445964813,-881469.0113067627,-745816.9460296631,4434084.415435791,4229788.780212402,19344839.096069336,4866467.475891113,8156599.998474121,8493256.568908691,-9799880.027770996,-5837064.266204834,-3139046.1921691895,4640294.551849365,8131898.880004883,10418702.125549316,5663533.2107543945,6234015.464782715,-4475083.351135254,-1656207.3230743408,2784358.9782714844,8344471.9314575195,7988513.946533203,9370365.142822266,-3319542.407989502,5950354.099273682,15057647.705078125,9230614.66217041
0.43,15641179.084777832,15942074.7756958,13998634.338378906,2623554.7065734863,11127563.4765625,-3806767.463684082,-9172289.848327637,-10034767.150878906,3277850.1510620117,1344197.8693008423,-1003100.2759933472,6219511.032104492,-4121476.650238037,-1212783.2174301147,-8205666.542053223,-8113919.258117676,-4356242.656707764,-9758654.594421387,-7356063.8427734375,-4715267.658233643,353993.7138557434,-3678055.2864074707,-5407548.904418945,23834901.809692383,-1863487.0052337646,-4538105.9646606445,-2201931.7150115967,1052722.2156524658,-4240105.628967285,-1286444.067955017,-2620773.7922668457,-9284435.272216797,13151464.462280273,4704427.242279053,2019392.967224121,561980.9031486511,-742366.7907714844,-58459.66935157776,5681954.860687256,4680469.512939453,18271156.311035156,6914506.435394287,9988773.345947266,9264101.028442383,-10128960.609436035,-4774045.467376709,-2770836.83013916,4109341.1445617676,6701304.4357299805,8462501.525878906,7054122.9248046875,7519680.023193359,-2357546.806335449,-298817.9326057434,1847478.1513214111,7444589.138031006,7223574.161529541,11482603.073120117,-308146.1489200592,8446872.71118164,16251836.776733398,10065032.958984375
0.435,8714112.281799316,10134946.823120117,8421310.424804688,-1142256.9751739502,8711087.226867676,-8354364.395141602,-12434326.171875,-13332607.26928711,2001202.8217315674,-486946.10595703125,-2390524.14894104,5237681.3888549805,-3713495.7313537598,-1009441.1373138428,-12762828.826904297,-11110863.68560791,-5886300.563812256,-10504892.349243164,-8159634.590148926,-5599458.21762085,792034.8644256592,-3622653.4843444824,-5899413.585662842,19252040.86303711,-5209702.014923096,-6150299.549102783,-2542524.0993499756,1234415.4119491577,-4200914.8597717285,-314466.29762649536,-1759126.4247894287,-9540668.487548828,9098678.588867188,1411736.249923706,-86911.34303808212,356283.5454940796,-529344.1414833069,1516993.8802719116,6003046.989440918,4261349.201202393,17099342.346191406,2667227.268218994,6255323.41003418,7168651.580810547,-11099244.117736816,-3026354.7897338867,-856135.904788971,5012039.661407471,5606652.25982666,6726214.408874512,4405008.316040039,4857593.536376953,-2883169.8894500732,2374519.5865631104,2771749.0196228027,7582526.683807373,7526613.712310791,11009450.912475586,-718047.559261322,9685315.132141113,18142648.696899414,9022699.356079102
0.44,-2219989.29977417,-2776450.3955841064,-3747249.126434326,-9401300.430297852,-1404061.3174438477,-12730028.15246582,-15761101.722717285,-16762016.296386719,-3337422.1324920654,-8016975.402832031,-9840530.395507812,-3603195.6672668457,-9824351.31072998,-6924308.300018311,-16220127.10571289,-13313147.54486084,-7584729.6714782715,-12054340.362548828,-11954195.976257324,-10089015.007019043,-4707946.300506592,-8985532.760620117,-10448680.877685547,14779684.066772461,-7857631.206512451,-7043028.831481934,-2914421.319961548,302007.7049732208,-6320868.968963623,-3611091.375350952,-6051403.522491455,-12946737.289428711,4825909.614562988,-1465045.3329086304,-1143450.4985809326,698520.302772522,-447994.1427707672,1713921.4277267456,2975758.0757141113,578640.8185958862,13607844.352722168,-1226431.2505722046,3435088.3960723877,6171883.583068848,-11190501.21307373,-2212399.72114563,234086.93075180054,4906286.239624023,4698252.6779174805,5095378.875732422,2106465.5780792236,2614612.102508545,-2867156.0287475586,4171494.0071105957,3846045.2556610107,7671350.002288818,7628997.802734375,8445895.195007324,-1819368.600845337,9338492.393493652,18858526.2298584,6906886.100769043
0.445,-7300879.001617432,-12817954.063415527,-13367650.985717773,-13590430.25970459,-11493202.209472656,-9886670.112609863,-13966677.66571045,-15066729.545593262,-6793638.229370117,-14584006.309509277,-18301950.454711914,-13746996.879577637,-18196451.18713379,-15690430.641174316,-12700043.678283691,-10683024.406433105,-6096407.413482666,-12103024.48272705,-15305321.69342041,-15165749.549865723,-13042853.355407715,-16531429.290771484,-16728261.947631836,14721812.24822998,-5578402.996063232,-5127931.118011475,-2402137.279510498,-713885.9033584595,-9138635.635375977,-9242763.51928711,-12373517.036437988,-17838270.18737793,6164171.21887207,228139.89222049713,1027968.7643051147,1774950.623512268,-475625.3957748413,265772.9685306549,-1185611.605644226,-4059930.3245544434,9084009.170532227,-149814.27788734436,5724393.367767334,7919402.122497559,-10544157.028198242,-2838594.1982269287,-581152.4391174316,2893189.6686553955,3567738.0561828613,3429403.305053711,2991473.913192749,3510609.3883514404,-1309692.8596496582,3473458.2901000977,2930109.0240478516,6377946.853637695,6181529.0451049805,6243537.425994873,-1435761.9285583496,8127305.98449707,17236454.010009766,5706741.3330078125
0.45,-1933378.5772323608,-9465065.002441406,-9796344.757080078,-9430421.829223633,-9961981.773376465,-5586500.644683838,-10394033.432006836,-11487601.280212402,-3787292.718887329,-12517868.995666504,-18055757.522583008,-13473006.248474121,-17976596.83227539,-16071239.471435547,-8766548.156738281,-7388976.573944092,-3292365.550994873,-10138559.341430664,-14159218.788146973,-14697082.51953125,-14334822.654724121,-17093194.96154785,-17062063.217163086,16544256.210327148,-2669176.1016845703,-3146651.268005371,-1819645.5240249634,-462055.4447174072,-9033559.799194336,-10095768.928527832,-12813973.426818848,-18664457.321166992,9799818.03894043,2775280.237197876,3371088.0279541016,2093659.4009399414,-520962.7151489258,-505575.4780769348,-1420091.3906097412,-4329311.370849609,7894157.886505127,2583080.053329468,9246195.793151855,9233713.150024414,-11001996.040344238,-4217709.541320801,-1863140.4638290405,1369114.875793457,2998054.5043945312,2751250.982284546,4677121.639251709,5180385.589599609,-1098188.5194778442,906605.1840782166,417521.6555595398,4374895.095825195,4041050.434112549,6121899.604797363,-1038325.0713348389,6868863.105773926,14661934.852600098,6224356.174468994
0.455,7971826.076507568,4065282.3448181152,4217837.333679199,-2213975.191116333,2818475.9616851807,-7655398.845672607,-10719987.869262695,-11671195.983886719,2451885.938644409,-3821343.183517456,-8346193.313598633,-1989675.6410598755,-7220577.716827393,-5145570.755004883,-11738281.25,-8687785.148620605,-3300000.4291534424,-8551429.748535156,-9683292.388916016,-8184726.715087891,-5516622.543334961,-8467849.731445312,-9174521.446228027,16459829.330444336,-4547659.873962402,-4351023.197174072,-2522288.7992858887,778536.856174469,-5244580.268859863,-3709994.077682495,-5551764.011383057,-13211971.282958984,9714982.986450195,1485239.6249771118,2345430.850982666,568082.0345878601,-607870.5191612244,1071868.4196472168,3568329.334259033,1054764.5092010498,11440730.094909668,1930558.681488037,8492101.669311523,7330218.79196167,-13182003.97491455,-5386012.077331543,-1755810.6184005737,2937193.3937072754,4475092.887878418,4354440.212249756,3918677.33001709,4508773.326873779,-3881500.9593963623,-1305950.403213501,-963837.6235961914,4006026.7448425293,3695193.05229187,7176949.024200439,-2682288.408279419,6013084.888458252,13707091.331481934,7199965.953826904
0.46,11850364.685058594,13356834.411621094,14014708.518981934,-777432.2032928467,13572001.457214355,-15421234.130859375,-15606737.13684082,-16350193.02368164,4386851.787567139,1445497.5128173828,35474.81447458267,8435106.27746582,3530065.2980804443,7329548.8357543945,-19505170.822143555,-13790389.060974121,-6755831.718444824,-9697930.335998535,-7229863.64364624,-2461709.0225219727,4390734.1957092285,921666.6221618652,447332.0245742798,14979233.741760254,-9696992.874145508,-7818829.536437988,-4365221.977233887,1464029.9081802368,-1324848.8903045654,3804706.811904907,2504881.1435699463,-5697100.1625061035,6116872.787475586,-2020334.4821929932,-789314.9256706238,-1676220.7746505737,-780061.7218017578,3712233.066558838,9236737.251281738,7350548.267364502,16311288.833618164,-1564543.0088043213,4142970.561981201,4104614.2578125,-15100336.074829102,-5809750.556945801,-517379.0454864502,6713516.2353515625,7942161.560058594,7946664.333343506,1235152.9598236084,2019132.6141357422,-7307610.034942627,-1826064.8250579834,220590.5169248581,6238186.359405518,6025833.606719971,7187460.422515869,-5857274.532318115,5425076.007843018,14827190.399169922,7134832.859039307
0.465,5987319.9462890625,10679758.071899414,11467572.212219238,-7027573.108673096,13232528.686523438,-23447822.57080078,-21696784.97314453,-22286815.643310547,-247053.17616462708,-1612916.4695739746,-859620.3327178955,8810667.037963867,5751175.403594971,12548996.925354004,-25742757.79724121,-18415451.049804688,-10433454.513549805,-12571468.353271484,-8840064.04876709,-2472707.509994507,6371495.723724365,3341885.0898742676,5207983.016967773,14180208.206176758,-12823519.706726074,-10168759.3460083,-5686594.486236572,1123325.9439468384,-488392.74048805237,5850447.654724121,5013009.548187256,-1419567.4657821655,3476146.459579468,-3336979.866027832,-2231640.338897705,-2646891.5939331055,-954836.9646072388,4968916.416168213,10775911.331176758,9845197.677612305,19073301.315307617,-4012581.8252563477,820898.711681366,2901883.363723755,-14824851.989746094,-5506780.14755249,-1961.0251765698195,9239238.739013672,11090689.659118652,11425305.366516113,-790237.6055717468,117507.74085521698,-8850422.859191895,-1328585.8631134033,2210036.277770996,9167839.050292969,8963146.209716797,5607827.663421631,-8628057.479858398,4673485.75592041,15934507.369995117,6320432.186126709
0.47,-2211699.4857788086,3458009.719848633,4381250.381469727,-13933471.6796875,7401629.92477417,-28602067.947387695,-25841337.203979492,-26464666.36657715,-5665136.814117432,-6699694.633483887,-5881804.466247559,4077862.7395629883,2924930.8109283447,11923846.244812012,-28353120.803833008,-20488859.176635742,-11565922.737121582,-13803666.114807129,-10347070.693969727,-4766932.964324951,2873062.6106262207,592805.3855895996,5072838.78326416,13429100.036621094,-12644536.972045898,-10185997.96295166,-5192109.107971191,1034721.3745117188,-1645722.1508026123,3350249.0520477295,3175041.437149048,-1285425.4245758057,3028179.64553833,-2476658.1058502197,-1359272.7184295654,-2016675.4722595215,-975849.3304252625,4336456.775665283,8586875.915527344,8964450.83618164,19672876.358032227,-4434414.863586426,101002.998650074,3565103.530883789,-13220057.487487793,-4775705.814361572,-839335.2031707764,8711823.463439941,11777722.358703613,12767353.057861328,-1298574.9244689941,-448579.7882080078,-9070661.544799805,-845285.4752540588,2736932.9929351807,10502579.689025879,10228393.5546875,4354635.715484619,-9746123.313903809,4046062.469482422,15763583.183288574,6300690.650939941
0.475,-2738982.4390411377,2275847.4349975586,3736973.524093628,-14062206.268310547,5823340.892791748,-29161876.678466797,-25833200.454711914,-26772272.10998535,-5549319.744110107,-6031468.868255615,-5900996.208190918,3161620.616912842,2022150.993347168,10119377.136230469,-27986621.856689453,-20026287.078857422,-10138568.878173828,-11765426.635742188,-7793018.817901611,-3567057.8479766846,1960266.9477462769,-1529470.5629348755,3170802.8316497803,11708185.195922852,-11713218.688964844,-9141141.891479492,-3068851.7093658447,2170038.2232666016,-1706654.1910171509,1626215.5771255493,1511139.5120620728,-2827681.541442871,2608068.9430236816,-2534729.480743408,-695269.8230743408,-1051586.627960205,-770801.3653755188,3380613.5654449463,6661883.354187012,7885231.018066406,19352924.346923828,-4503437.042236328,202265.4265165329,3721513.271331787,-12549841.88079834,-3971271.9917297363,-1519829.273223877,6778120.994567871,10572623.252868652,11996284.484863281,-790522.8137969971,-69910.38471460342,-9264407.15789795,-259805.20248413086,2078881.7405700684,10451773.643493652,10185882.568359375,5498507.976531982,-8631436.347961426,4799073.696136475,15879135.131835938,7887970.924377441
0.48,5249516.010284424,6658126.8310546875,8277438.163757324,-7948328.971862793,8304572.105407715,-23052104.949951172,-20541877.74658203,-21991151.809692383,-461787.4026298523,-1060812.5925064087,-1541686.5348815918,5384215.831756592,2408878.0879974365,7269852.638244629,-23461261.749267578,-16409870.147705078,-7301037.311553955,-8285320.281982422,-3597483.6349487305,205397.63569831848,4650603.771209717,-2085233.6883544922,919547.438621521,11818376.541137695,-10416131.019592285,-7523475.646972656,-285587.9068374634,3573755.7411193848,-248292.43123531342,2348027.229309082,1138267.7555084229,-3987901.449203491,2618319.9882507324,-2989099.2641448975,-804965.7940864563,-318613.05236816406,-441319.5252418518,3276786.0889434814,7125099.658966064,7689013.481140137,18409553.52783203,-3737417.697906494,1121629.9533843994,3488406.6581726074,-13034257.888793945,-3342101.3355255127,-721932.4111938477,5951942.920684814,9843370.43762207,11036366.46270752,1354430.3178787231,2011181.8313598633,-8575394.630432129,871552.4673461914,2050087.9287719727,10824872.016906738,10683438.301086426,9130060.195922852,-5027717.113494873,7764000.415802002,18196043.014526367,10658185.005187988
0.485,12278726.577758789,7861503.124237061,8420641.899108887,-2671381.4735412598,7820194.244384766,-12487123.489379883,-12522285.461425781,-14333891.868591309,3930166.482925415,966914.4749641418,-686412.5728607178,3916216.6118621826,-89155.97945451736,3190483.0932617188,-14601843.83392334,-9822165.489196777,-3984218.3589935303,-6107235.908508301,-3095745.086669922,837059.6766471863,5200709.342956543,-3395806.7893981934,-588122.7254867554,17152687.072753906,-6446206.569671631,-4469961.643218994,2285791.8739318848,3600266.218185425,422594.72608566284,2827544.689178467,779859.3044281006,-3813120.8419799805,6317686.080932617,-48936.937004327774,812484.4431877136,948886.2156867981,-240677.80375480652,3596277.7137756348,8674058.91418457,7467535.495758057,17589664.459228516,124822.58677482605,4905654.9072265625,5287862.777709961,-12681443.214416504,-2861622.095108032,802667.1409606934,6897986.41204834,10800238.609313965,11716226.577758789,5869280.3382873535,6474999.904632568,-5997822.284698486,2155220.7469940186,3272359.1327667236,12199617.385864258,12167971.61102295,13631312.370300293,-164804.3394088745,11920602.798461914,21946714.401245117,13902585.983276367
0.49,9070037.841796875,1450951.6954421997,864600.658416748,-3687776.3271331787,2763176.441192627,-5826287.269592285,-7869776.725769043,-9574784.278869629,3825639.9631500244,-2313424.825668335,-5664014.81628418,-1945751.667022705,-3806312.084197998,1890096.664428711,-6447704.792022705,-3848424.196243286,-1477273.5834121704,-5987786.769866943,-6870059.013366699,-3125891.4470672607,1657503.4856796265,-4848918.914794922,848632.5144767761,25252048.49243164,-280324.45907592773,-570411.4437103271,3863076.4484405518,2064217.3290252686,-891779.1247367859,1712842.7028656006,1028625.1306533813,-1741931.3192367554,13494725.227355957,6213904.857635498,4955092.906951904,2992077.350616455,-396602.00476646423,3602837.8009796143,9599807.739257812,7400961.399078369,18696342.46826172,6120341.3009643555,10667694.091796875,9270626.068115234,-10477508.544921875,-2134809.0171813965,1680516.4813995361,8849333.763122559,12539076.805114746,13981819.152832031,10963545.799255371,11408588.409423828,-3166676.5213012695,3156311.03515625,5032053.470611572,13577027.320861816,13557449.340820312,17407871.24633789,3430722.236633301,15279411.315917969,24754835.12878418,16972463.607788086
0.495,-3482492.9237365723,-8246691.703796387,-7866185.188293457,-9914801.597595215,-1437916.0404205322,-9224174.499511719,-10356618.881225586,-11593121.528625488,234560.9813928604,-6478785.514831543,-10550572.395324707,-5959359.645843506,-3560048.818588257,5844266.414642334,-5080422.878265381,-2865114.212036133,-1413860.79788208,-6952925.682067871,-10287138.938903809,-6826243.877410889,-1147205.9488296509,-3845492.6013946533,5154601.097106934,29367151.260375977,3396651.029586792,1357744.3361282349,3767743.5874938965,324723.7205505371,-2632374.048233032,1085254.192352295,3477812.5286102295,1556984.782218933,18665512.084960938,10232740.40222168,8218460.0830078125,4432446.479797363,-841695.5471038818,3629701.1375427246,10133063.316345215,8850600.242614746,21970502.853393555,9762928.009033203,13865338.325500488,12184570.3125,-8050701.141357422,-843029.0818214417,2180116.1766052246,11339092.254638672,13946922.302246094,16293268.203735352,13545591.354370117,13777854.919433594,-2603585.720062256,4235996.246337891,6875298.976898193,14478075.02746582,14451238.632202148,19976718.90258789,4558084.964752197,16940485.00061035,25820131.301879883,18995496.74987793
0.5,-15688297.271728516,-14918713.569641113,-11654360.7711792,-15993824.005126953,-1703035.4738235474,-17859878.540039062,-16378391.26586914,-17277509.689331055,-3606153.964996338,-7732432.842254639,-10880108.833312988,-5236024.856567383,-58898.139744997025,9979683.876037598,-9260790.824890137,-6283819.198608398,-3671391.248703003,-8090109.825134277,-10225505.828857422,-6426657.676696777,155505.61249256134,-1383377.9096603394,7983999.729156494,27552196.502685547,2022003.6506652832,-132251.42657756805,2223789.2150878906,-433988.7797832489,-3075355.052947998,2337513.208389282,6738834.381103516,3652006.8645477295,18406171.798706055,8764024.73449707,7582248.687744141,4022329.330444336,-1172666.6688919067,4369520.18737793,11117465.019226074,11459746.360778809,24668489.456176758,9471614.837646484,12621131.896972656,11947325.706481934,-7341589.450836182,613399.9824523926,3481299.40032959,14057152.74810791,14980489.730834961,17435682.29675293,13522005.081176758,13667704.582214355,-3940859.317779541,5481020.927429199,8555869.102478027,15567366.600036621,15603348.731994629,21889867.782592773,4902287.483215332,17599740.982055664,26320503.23486328,19555362.701416016
