time,Fp1,Fpz,Fp2,AF3,AF4,F7,F5,F3,F1,Fz,F2,F4,F6,F8,FT7,FC5,FC3,FC1,FCz,FC2,FC4,FC6,FT8,T7,C5,C3,C1,Cz,C2,C4,C6,T8,TP7,CP5,CP3,CP1,CPz,CP2,CP4,CP6,TP8,P7,P5,P3,P1,Pz,P2,P4,P6,P8,PO7,PO5,PO3,POz,PO4,PO6,PO8,CB1,O1,Oz,O2,CB2
0.0,19692758.560180664,16477470.397949219,14932142.25769043,11339815.139770508,7474953.174591064,6671799.659729004,6900960.922241211,6819373.607635498,6276167.869567871,4210115.432739258,3004447.2217559814,1896313.0712509155,2010909.080505371,1361831.4266204834,2097080.4691314697,3971779.8233032227,3999882.698059082,3521186.351776123,1675789.2370224,1058378.81565094,837971.1508750916,543291.0323143005,-282901.793718338,1915120.6016540527,2715336.0843658447,3146502.97164917,2771699.1901397705,846434.3547821045,14357.84250497818,-268497.109413147,-859343.4691429138,-1500214.93434906,-761246.8600273132,1554294.5861816406,1234332.9191207886,1495922.8038787842,-253839.6418094635,-419934.80920791626,-1811106.9202423096,-1661328.3157348633,-1671410.083770752,-338136.5239620209,408775.35939216614,1027280.6882858276,-194287.21070289612,-466056.34689331055,-1131590.485572815,-1847016.0961151123,-2525239.7060394287,-2594941.6160583496,-514107.94258117676,-474865.6749725342,-1381018.5194015503,-187223.85168075562,-2154283.5235595703,-2456830.7399749756,-2539003.372192383,-1687510.8480453491,-877078.0563354492,-1759699.821472168,-1567104.1011810303,-2526494.026184082
0.005,6081107.616424561,1067996.5019226074,16102781.295776367,5537399.768829346,726913.1541252136,-3262117.624282837,3449464.797973633,2783594.3698883057,1880609.0354919434,-615288.1383895874,-1139450.6692886353,270455.18159866333,-4973341.464996338,-7223856.449127197,-4599661.827087402,1810215.2347564697,1905469.1791534424,1995344.2811965942,-2257260.322570801,-1644490.361213684,-396588.92154693604,-3142301.7978668213,-4028971.6720581055,-2606967.4491882324,3396800.2796173096,3786450.3860473633,5122728.8246154785,-509250.6408691406,-1446395.1587677002,-1484419.584274292,-4827085.494995117,-6412681.579589844,-4610914.707183838,1983069.896697998,2196131.467819214,4237226.963043213,-2214877.128601074,-575345.7546234131,-5768566.608428955,-5352427.005767822,-2704192.1615600586,1471423.0298995972,3900830.7456970215,3363340.139389038,499169.2304611206,933002.2931098938,-2709138.870239258,-5141784.191131592,-5712451.457977295,-5204313.278198242,2268282.413482666,2750692.129135132,1708987.4744415283,1652243.2565689087,-2747260.570526123,-4354189.395904541,-4974991.798400879,175071.68650627136,1272711.7538452148,-1962942.0042037964,-2251745.4624176025,-253220.88599205017
0.01,-9542303.085327148,-13849071.502685547,10383552.551269531,-2412912.607192993,-6670367.71774292,-10877159.118652344,-977490.1270866394,-1833369.8511123657,-2846722.8412628174,-6074925.899505615,-6770692.348480225,-4486581.802368164,-10645954.132080078,-11595519.065856934,-8297564.506530762,-655123.3530044556,-184010.5801820755,-253796.60725593567,-6232556.343078613,-5743153.095245361,-3465015.411376953,-6408716.678619385,-5696056.842803955,-4859166.622161865,3832656.145095825,3177562.2367858887,5111477.375030518,-1898149.013519287,-3023678.5411834717,-2592353.343963623,-7254406.929016113,-8375082.015991211,-6068053.245544434,2159683.4659576416,2612538.0992889404,5376861.572265625,-2781038.0458831787,-47253.5640001297,-7440423.488616943,-6710779.666900635,-2836051.7024993896,3012516.498565674,5781778.335571289,5132435.321807861,1537048.4590530396,2654000.2822875977,-1223427.2956848145,-4530559.062957764,-5925953.388214111,-5060037.136077881,4268923.282623291,4652234.077453613,3504105.806350708,3245595.2167510986,-843227.1480560303,-3721024.990081787,-4557736.873626709,2036255.8364868164,3097507.4768066406,391812.68215179443,-580763.8168334961,2229752.540588379
0.015,-21414672.8515625,-23190116.88232422,2144906.997680664,-9111708.641052246,-11004684.448242188,-15022558.212280273,-4735500.335693359,-5450297.832489014,-5527777.194976807,-9115612.030029297,-10260596.27532959,-8545204.162597656,-11658007.621765137,-10665942.192077637,-9115832.328796387,-2689407.8254699707,-1496909.499168396,-2097962.3794555664,-8245688.438415527,-8724901.19934082,-5620272.636413574,-6875330.924987793,-4584886.55090332,-5450902.938842773,3360038.0420684814,1576797.4853515625,3304996.0136413574,-2819455.38520813,-3678402.6622772217,-2558586.597442627,-6986693.382263184,-7225266.933441162,-5754638.671875,1381499.0520477295,1844533.5626602173,4723249.435424805,-2156158.208847046,847195.3272819519,-6490374.565124512,-5743983.268737793,-2540763.8549804688,3010076.9996643066,5017205.715179443,4837213.039398193,1480639.100074768,3492634.2964172363,1503781.5570831299,-1848390.4600143433,-4385920.524597168,-3860293.8652038574,4315435.886383057,4269279.956817627,2363556.6234588623,3343946.2184906006,1486080.527305603,-2325009.346008301,-3154533.3862304688,2358193.874359131,3487582.6835632324,2921283.006668091,1111753.9405822754,3136172.7714538574
0.02,-19118253.707885742,-19863456.72607422,2952213.764190674,-7997918.128967285,-7275460.720062256,-14205699.920654297,-4204764.366149902,-4834146.499633789,-3158092.975616455,-6311299.800872803,-6971367.835998535,-5960171.222686768,-6295208.930969238,-6199870.1095581055,-8286704.063415527,-2180889.368057251,-639538.7053489685,-1544690.2513504028,-6708048.343658447,-7403179.168701172,-3232910.8715057373,-3096658.46824646,-1645413.6371612549,-5415366.649627686,2684079.40864563,970666.5873527527,2562708.854675293,-2687943.22013855,-2718597.173690796,-809062.3021125793,-4412074.565887451,-5073440.074920654,-5192083.835601807,344251.7817020416,615170.5980300903,3868135.2138519287,-1660115.2420043945,1066002.8457641602,-4743771.076202393,-4362613.201141357,-2668972.2537994385,1671344.0418243408,2957871.913909912,2580126.0471343994,-378927.17123031616,2472194.9100494385,1606115.3411865234,-1719150.3047943115,-4161853.790283203,-4689406.871795654,2872950.315475464,2624763.011932373,-1140710.1154327393,1715862.8702163696,938717.3056602478,-3086128.7117004395,-4004789.8292541504,1071062.5648498535,2572677.6123046875,2349511.3849639893,-125537.63389587402,1590535.9983444214
0.025,336109.7276210785,-2656606.435775757,17535659.790039062,2936440.2294158936,4196323.871612549,-6945590.972900391,2154816.150665283,1343649.14894104,3731648.6835479736,690803.587436676,1478404.7603607178,2036344.5281982422,1518122.911453247,-798036.6945266724,-5631199.836730957,2273259.8781585693,2927219.867706299,1635556.936264038,-3426204.4429779053,-3237502.098083496,1944451.3320922852,1987156.867980957,1170758.7242126465,-3802034.378051758,4118877.410888672,3106719.970703125,4602573.394775391,-1638420.1049804688,-1496528.98311615,1128055.0956726074,-1870249.9866485596,-3919348.71673584,-4223444.938659668,1328581.0947418213,1083252.9067993164,4648720.741271973,-1995377.3021697998,103458.76216888428,-4485336.3037109375,-4161262.035369873,-3093248.6057281494,1686323.642730713,2786400.556564331,1425586.3428115845,-1671067.476272583,834192.3952102661,-979988.0385398865,-4783678.05480957,-5544336.318969727,-6920272.350311279,2573085.069656372,2411024.570465088,-3294244.2893981934,626285.2549552917,-1514024.6152877808,-5140510.082244873,-6287550.449371338,1291038.5131835938,2649821.996688843,344780.98154067993,-2311109.3044281006,178518.77212524414
0.03,25701427.459716797,19844999.313354492,37653686.5234375,17487874.98474121,16755310.05859375,3802036.2854003906,10554286.95678711,9463290.214538574,10688268.661499023,6320988.655090332,8217681.884765625,7875759.124755859,5683506.965637207,3237158.77532959,-1691661.8347167969,8248122.215270996,7326282.024383545,5103127.479553223,-1593590.7363891602,-854122.5790977478,4372055.530548096,3741852.045059204,2190010.0708007812,-688404.7389030457,7892986.297607422,6892923.355102539,7836130.142211914,-499757.67731666565,-1906493.5445785522,1000634.0742111206,-1587528.4671783447,-4280839.443206787,-2862117.052078247,4499260.425567627,3801467.6570892334,6842853.06930542,-2605065.8226013184,-1306022.7632522583,-6223637.104034424,-5118668.079376221,-3259382.963180542,4138040.065765381,5398312.091827393,3514662.027359009,100745.65559625626,425255.08999824524,-2747690.200805664,-7247176.170349121,-6398039.817810059,-7526185.512542725,4707211.971282959,4541807.651519775,-1402528.4051895142,2123195.6481933594,-2196075.201034546,-5500298.976898193,-6740378.379821777,4767547.130584717,4963211.536407471,824052.2742271423,-1570780.2772521973,1506737.9474639893
0.035,40777656.55517578,35689758.30078125,50874149.322509766,26602596.282958984,23545761.108398438,10298337.936401367,14603447.914123535,13407905.578613281,13517090.797424316,7535646.438598633,9169609.069824219,7386954.784393311,5015621.185302734,4693798.542022705,235900.32756328583,10579833.984375,9220008.850097656,6170007.705688477,-1609361.171722412,-1784280.6577682495,2164988.5177612305,1729044.0797805786,1461984.0383529663,187538.93673419952,10150793.075561523,8785782.814025879,9029731.750488281,-5220.349878072739,-3626554.7275543213,-1160697.102546692,-3100506.544113159,-5268931.3888549805,-3157018.8999176025,6195415.496826172,5912945.747375488,8029922.4853515625,-2660297.8706359863,-1929271.2211608887,-8043819.427490234,-6047801.971435547,-3195932.8651428223,5725498.676300049,7518365.383148193,6372563.362121582,3457503.7956237793,1002045.8698272705,-1813292.0265197754,-6507255.077362061,-5873156.547546387,-5954253.196716309,6828390.121459961,6473136.901855469,2509802.81829834,4868086.814880371,-442431.62870407104,-3968348.503112793,-5003242.492675781,7952692.031860352,7151000.499725342,3440708.1604003906,1345163.4645462036,3922277.4505615234
0.04,40193660.736083984,39800052.642822266,52237346.64916992,26421380.9967041,23084878.92150879,7837502.479553223,11768529.891967773,10713032.722473145,11610182.762145996,6224788.665771484,6631327.6290893555,4016707.8971862793,3712375.4024505615,4585007.667541504,-2343285.56060791,6957285.404205322,6968894.481658936,4259340.763092041,-1410675.287246704,-3046839.475631714,-797737.4196052551,12785.855680704117,945360.1241111755,-4389285.564422607,7184498.7869262695,6464634.418487549,6699777.603149414,-288244.0388202667,-4512030.601501465,-2915085.0772857666,-3833076.238632202,-5267978.668212891,-6160979.747772217,3401988.0294799805,4341358.661651611,6356994.152069092,-2054108.6196899414,-1317411.184310913,-7538523.197174072,-5757978.439331055,-2994137.2871398926,3108003.3779144287,5871921.062469482,5965719.223022461,4758938.312530518,1105526.9241333008,314785.33148765564,-3892368.0782318115,-4830552.101135254,-4103806.972503662,5933497.428894043,5512087.821960449,4564105.033874512,5916524.887084961,1214711.5468978882,-2620243.3109283447,-3324928.045272827,6409875.869750977,6249609.470367432,4478030.204772949,2405896.6636657715,3996352.6725769043
0.045,32750232.696533203,36674243.92700195,46143058.77685547,20535102.84423828,18862796.783447266,749579.668045044,5828447.8187561035,5039104.461669922,7281018.7339782715,5156094.551086426,4678030.490875244,2647480.4878234863,4861080.169677734,5387046.813964844,-7054274.082183838,911733.5081100464,2484715.700149536,994238.4362220764,-382178.4257888794,-2228953.5999298096,-751394.7486877441,1213876.9626617432,2294887.065887451,-11961830.139160156,557515.6211853027,1454051.0177612305,2424604.892730713,-1038172.8410720825,-3671265.3636932373,-2689018.726348877,-2566288.2328033447,-3417580.6045532227,-9131167.4118042,-1887467.7419662476,-89935.25058031082,2847758.7699890137,-1278242.2304153442,-137395.17331123352,-4640483.856201172,-4114393.2342529297,-2290773.391723633,-1936975.598335266,1581741.452217102,2333926.4392852783,3449921.131134033,799601.8528938293,1899547.4576950073,-1688523.292541504,-3359201.669692993,-2502492.4278259277,2582291.841506958,2367464.065551758,4222551.8226623535,4836750.9841918945,1810315.1321411133,-1594872.5938796997,-2089212.417602539,1439452.052116394,3013671.636581421,3159135.341644287,893150.0315666199,1979235.6491088867
0.05,28137863.159179688,32754928.588867188,38974357.60498047,14840980.529785156,15124262.809753418,-3565437.7937316895,1820690.7510757446,1308637.8574371338,3097787.857055664,4517518.043518066,4489827.632904053,3582375.7648468018,7055823.32611084,7986873.149871826,-9623319.625854492,-2678719.0437316895,-886445.0454711914,-1618186.354637146,-21118.154749274254,-577318.0723190308,1524392.1279907227,3410349.8458862305,4708654.403686523,-17090250.01525879,-4828852.653503418,-2812120.6760406494,-1096813.9171600342,-1769047.3794937134,-2396260.4999542236,-1593357.9206466675,-860392.4512863159,-824442.0886039734,-9085269.927978516,-5464598.655700684,-3826967.239379883,80727.28663682938,-758653.2831192017,716070.7712173462,-1790858.268737793,-2237598.8960266113,-1213038.5637283325,-5026701.927185059,-1770637.2737884521,-885592.2222137451,2326254.367828369,1188352.4656295776,2863767.385482788,-484638.0352973938,-903072.4763870239,-225899.74105358124,-436695.6949234009,-419325.1430988312,3788200.1399993896,3465293.6458587646,2733917.474746704,499723.8516807556,77795.8333492279,-1832351.0885238647,530067.4438476562,2202038.049697876,-293995.58901786804,1062471.7473983765
0.055,25129045.486450195,28511486.053466797,32422531.127929688,11378275.871276855,13372628.211975098,-4472192.764282227,161251.15752220154,-109526.51500701904,195032.10484981537,3374051.094055176,5088128.566741943,4333948.135375977,8026745.796203613,10268816.947937012,-9768554.6875,-3505961.4181518555,-2018459.7969055176,-2739642.858505249,-659427.4044036865,54816.849529743195,3407702.922821045,4051537.036895752,6067970.275878906,-17884405.1361084,-6944271.087646484,-4858223.915100098,-2751678.705215454,-2018196.5827941895,-1752675.7717132568,-1151687.2644424438,-283475.1605987549,593591.570854187,-7456897.735595703,-6473082.542419434,-5248803.615570068,-957867.9203987122,-575257.9569816589,1050421.118736267,-716543.3168411255,-1270309.0906143188,-725817.7995681763,-5217582.225799561,-2935502.052307129,-1892992.615699768,2631907.7014923096,1582978.8446426392,3192153.215408325,-159844.0557718277,1447070.1217651367,1845934.1526031494,-2166087.3889923096,-2115090.6085968018,3837330.5797576904,2080967.4263000488,3731173.9921569824,2546372.413635254,2194759.1304779053,-1865422.7256774902,-541187.7632141113,2271683.692932129,-447111.96422576904,1841786.503791809
0.06,16645423.889160156,20032846.450805664,23906129.837036133,7565463.066101074,11700192.45147705,-7240957.736968994,-2481215.238571167,-2588884.8304748535,-2053986.3109588623,1780012.845993042,5476559.162139893,3834237.3371124268,7980016.708374023,9865992.546081543,-10785840.98815918,-5024738.311767578,-2808296.2036132812,-3046578.1688690186,-638991.1770820618,218841.7613506317,4374156.951904297,3849790.334701538,5837063.312530518,-16723520.278930664,-8053327.560424805,-6073515.892028809,-3613600.730895996,-1733949.5420455933,-1030764.3413543701,-823589.8613929749,59048.96557331085,636136.8894577026,-7843712.329864502,-7289215.087890625,-5943603.515625,-1530086.5173339844,-589958.9657783508,1330594.6588516235,-123131.31988048553,-918933.3319664001,-1082536.5781784058,-5133166.313171387,-3408957.9582214355,-2453194.8566436768,2327297.6875305176,8288.812823593616,2384100.4371643066,-818992.2571182251,1805590.271949768,1493445.9924697876,-3739674.8065948486,-3765613.555908203,2616305.351257324,-914294.6600914001,2452829.360961914,1648448.3480453491,1409350.7528305054,-2032636.1656188965,-2333553.5526275635,688223.3619689941,-2149919.9867248535,1408312.0822906494
0.065,3873728.9905548096,7929538.726806641,12940646.171569824,1439900.6366729736,7803770.542144775,-13250501.63269043,-7251244.54498291,-7318663.597106934,-4809497.356414795,234706.62534236908,4811244.487762451,2717415.0943756104,7989511.966705322,7578713.893890381,-13848262.786865234,-8652147.29309082,-5131092.548370361,-3744335.412979126,595453.0239105225,1108759.5224380493,5310342.311859131,4752572.059631348,5520032.88269043,-15479709.62524414,-10129129.409790039,-8027091.979980469,-5049807.071685791,-1400588.3932113647,637559.0562820435,753375.3514289856,1749817.0137405396,917821.1092948914,-10336045.265197754,-9045877.456665039,-7504526.138305664,-2833021.879196167,-629693.329334259,1904935.8367919922,2023090.8393859863,31647.86472916603,-1126513.2427215576,-6228580.474853516,-4285556.793212891,-4216023.4451293945,-66840.5294418335,-3322531.223297119,1126624.4649887085,-1810020.923614502,658295.0949668884,-898386.7168426514,-5673738.0027771,-5749063.968658447,-356401.4732837677,-5334753.036499023,-1213080.644607544,-1887074.8281478882,-2059086.561203003,-4790423.393249512,-5711543.083190918,-3550455.331802368,-6095896.7208862305,-1767417.9077148438
0.07,-1234228.491783142,1343305.4685592651,6109782.2189331055,-3338324.546813965,3835405.111312866,-16776655.197143555,-10516131.401062012,-10648193.359375,-7195216.655731201,-646684.1101646423,3264338.0165100098,2128632.068634033,8440414.428710938,7057997.703552246,-16196983.337402344,-11531685.829162598,-7772396.087646484,-4752445.697784424,1570423.8414764404,2370816.469192505,6450967.311859131,6726704.120635986,6606274.604797363,-13652657.508850098,-11745754.24194336,-10027960.777282715,-6601703.16696167,-1318008.7804794312,2676691.0552978516,3282528.877258301,4297913.074493408,2412144.660949707,-11759994.506835938,-10385762.214660645,-9330101.96685791,-4365129.470825195,-641619.2054748535,2511307.954788208,4885838.985443115,1735088.586807251,-117064.28974866867,-7476388.454437256,-5336871.62399292,-6419770.71762085,-3100936.1743927,-5897696.971893311,905290.961265564,-2055981.8744659424,273276.2396335602,-2321150.064468384,-7413609.504699707,-7563832.759857178,-3423428.2970428467,-8547521.591186523,-4341676.235198975,-4452058.792114258,-4667439.937591553,-8436849.594116211,-8782051.086425781,-7617352.9624938965,-9377605.438232422,-5427464.485168457
0.075,9746888.160705566,9311610.221862793,12374564.170837402,-268085.42013168335,6208314.895629883,-13380269.050598145,-8416325.569152832,-8628987.312316895,-5823862.552642822,896509.4685554504,3640137.9108428955,3954211.950302124,10533164.978027344,11072753.90625,-15608187.675476074,-10718695.640563965,-7610861.778259277,-4161309.7190856934,2011268.8541412354,3641172.6474761963,8066322.326660156,9002145.767211914,9467746.73461914,-10847747.802734375,-10728293.418884277,-10017516.136169434,-6292823.791503906,-915844.4404602051,4154179.573059082,5381802.082061768,6188167.095184326,4499617.099761963,-10916646.003723145,-10336590.766906738,-10200572.967529297,-4990839.48135376,-758800.5065917969,2619751.214981079,5703725.814819336,3002437.8299713135,1093821.0487365723,-8250912.666320801,-6513271.808624268,-7916215.419769287,-5143659.1148376465,-6783076.763153076,1299064.6362304688,-2192163.7058258057,783347.8450775146,-1698799.2525100708,-8826184.272766113,-9125452.995300293,-5654059.410095215,-9319791.793823242,-5712038.516998291,-4740205.764770508,-5072413.921356201,-10242937.088012695,-9765434.265136719,-9032488.822937012,-10122402.19116211,-6934424.877166748
0.08,29517053.604125977,28643032.07397461,31503736.49597168,11297191.619873047,17561616.897583008,-6982340.335845947,-2437632.5607299805,-2689352.9891967773,1180466.890335083,6576317.78717041,9051570.892333984,9496242.52319336,15754466.05682373,18175153.732299805,-13923641.204833984,-7415336.132049561,-3874503.3740997314,-425862.9381656647,4094308.376312256,6131815.9103393555,11076803.207397461,12077785.49194336,13447780.60913086,-8337446.212768555,-7875746.250152588,-7442440.032958984,-3167715.7878875732,586454.0934562683,5233320.236206055,6733979.225158691,7362523.555755615,6263383.865356445,-10387676.239013672,-9872308.731079102,-10329287.5289917,-4579417.705535889,-1134070.7540512085,2024043.083190918,3845343.1129455566,2988332.2715759277,1430420.5179214478,-9551554.679870605,-8186778.0685424805,-9069519.996643066,-6949989.318847656,-7908605.575561523,76359.71903800964,-4464117.527008057,-462232.2916984558,-1741047.2631454468,-10343381.881713867,-10711958.885192871,-8041408.538818359,-9662096.02355957,-7889278.411865234,-5870014.190673828,-6323122.501373291,-10243021.965026855,-9454373.359680176,-9126140.594482422,-10370296.478271484,-6998458.385467529
0.085,42087955.474853516,44629062.65258789,50407260.89477539,22903444.290161133,30410209.65576172,-5223968.982696533,1640005.8269500732,1341655.7312011719,10159395.217895508,14375275.611877441,17457878.11279297,15969969.749450684,21748771.66748047,23034162.521362305,-14760547.637939453,-5608874.797821045,168799.68345165253,4968448.162078857,8598309.516906738,10288434.982299805,14737178.802490234,15532365.798950195,16328592.300415039,-7527033.805847168,-6298967.361450195,-4379569.530487061,1138180.8519363403,2844775.676727295,6293348.31237793,7698884.963989258,8219027.519226074,6804755.210876465,-12767258.644104004,-10243268.966674805,-10736412.048339844,-3785604.953765869,-1696619.3914413452,938805.9377670288,1274914.026260376,1837724.3280410767,734202.6233673096,-11951097.48840332,-9998030.662536621,-10398229.598999023,-9572591.781616211,-10364395.141601562,-3046515.941619873,-9324222.564697266,-4737231.254577637,-4955641.746520996,-11916651.725769043,-12119414.329528809,-11129311.561584473,-11274079.322814941,-12485786.437988281,-10176367.75970459,-10729006.76727295,-10534636.497497559,-9812438.011169434,-10460612.297058105,-12380550.384521484,-8353165.626525879
0.09,40028224.94506836,45743522.64404297,55338226.318359375,25288980.48400879,33598808.28857422,-10202769.27947998,325442.4035549164,-109237.29836940765,14690996.170043945,18701711.654663086,21817384.719848633,17217979.431152344,22424533.84399414,20866401.67236328,-19101022.720336914,-7262848.377227783,931990.2062416077,8451315.879821777,12344161.033630371,13474434.852600098,15585506.439208984,15908499.717712402,14714932.441711426,-8492474.555969238,-7376443.386077881,-3194399.59526062,4139181.613922119,4467671.3943481445,6525323.867797852,7290146.827697754,7086064.338684082,4441318.035125732,-17351081.84814453,-11337996.482849121,-11377504.348754883,-2736594.4385528564,-2202909.7080230713,-424036.08560562134,-1332050.9195327759,-623472.2137451172,-1307861.328125,-14319409.370422363,-10944958.686828613,-10914010.047912598,-11613087.65411377,-12073549.270629883,-5396257.400512695,-14135167.121887207,-9798394.203186035,-10155184.745788574,-12976936.340332031,-12884599.685668945,-13415780.067443848,-12453739.166259766,-16656661.987304688,-15215335.845947266,-15851338.386535645,-12083012.580871582,-11093840.599060059,-12827840.805053711,-14847178.45916748,-11726821.899414062
0.095,29498491.287231445,34327659.606933594,46005207.06176758,18337818.145751953,25214048.385620117,-16975786.209106445,-3850564.479827881,-4489301.681518555,12803126.335144043,16450666.427612305,18126466.751098633,10540646.55303955,15332237.243652344,12437850.952148438,-23911647.79663086,-10089415.550231934,-983455.3003311157,8388583.183288574,12022657.39440918,12714174.270629883,11422721.862792969,10618473.052978516,7807991.504669189,-9647412.300109863,-8655688.285827637,-3467510.461807251,5375634.670257568,4676498.4130859375,4978178.50112915,4043780.3268432617,2034197.5688934326,-1550445.0798034668,-20687391.28112793,-11606804.847717285,-10898652.076721191,-944245.457649231,-2523423.433303833,-1979928.8511276245,-5634887.6953125,-4936815.7386779785,-5320249.557495117,-14693478.58428955,-10234144.21081543,-9136918.067932129,-10946634.292602539,-11079450.607299805,-5402380.94329834,-16609136.581420898,-13137950.897216797,-14280164.71862793,-12664629.936218262,-12403769.493103027,-12982633.590698242,-10726058.006286621,-17192533.493041992,-17338462.829589844,-18035028.4576416,-13003021.240234375,-11112284.660339355,-13590886.116027832,-14868876.457214355,-14395025.253295898
0.1,17594333.64868164,19418296.813964844,32280101.776123047,8942384.719848633,13931791.305541992,-20738542.556762695,-6510322.093963623,-7288209.915161133,8349853.515625,10664604.187011719,10410638.809204102,490679.8303127289,5806626.319885254,3674080.3718566895,-24994441.986083984,-10596568.10760498,-2107018.232345581,6472568.511962891,8682490.348815918,8778231.620788574,4967033.386230469,2786107.5401306152,128069.62430477142,-8339890.480041504,-6600160.121917725,-2672012.5675201416,6220022.678375244,4129187.1070861816,2516807.3177337646,-888341.0096168518,-4829215.049743652,-8059735.298156738,-19360961.9140625,-9156678.199768066,-8408581.733703613,1368687.5104904175,-2692173.719406128,-3233026.5045166016,-11343778.610229492,-9863189.697265625,-10044459.342956543,-11656682.968139648,-7504226.6845703125,-5288755.893707275,-8234957.695007324,-8815501.21307373,-4806650.161743164,-17480283.737182617,-14917489.051818848,-15878226.280212402,-9851996.421813965,-9638213.157653809,-9769070.625305176,-6931156.635284424,-15404483.795166016,-16661695.48034668,-17385463.71459961,-10312875.747680664,-7675065.040588379,-11152483.940124512,-11976820.945739746,-13020396.23260498
0.105,2709931.3735961914,4133143.424987793,19725830.078125,669635.8323097229,6838211.0595703125,-22374876.022338867,-7696930.408477783,-8459624.290466309,4593689.441680908,5961713.790893555,5017683.029174805,-6725515.365600586,226447.89516925812,-813858.8666915894,-21502967.834472656,-8700582.504272461,-1574751.9731521606,4542291.641235352,5715032.10067749,5009419.918060303,779793.918132782,-1785875.0820159912,-2818876.9817352295,-3363091.468811035,-1269206.2854766846,-166221.06730937958,7080580.234527588,3711381.673812866,1112521.767616272,-3978462.6960754395,-8434542.655944824,-10364608.764648438,-13230701.446533203,-3858094.9306488037,-5032801.151275635,2802124.9771118164,-2706824.30267334,-3168740.98777771,-14252080.917358398,-12224613.189697266,-12203519.821166992,-5911315.441131592,-3302573.9192962646,-1591019.2728042603,-6382778.644561768,-7671828.269958496,-5048503.398895264,-18168998.71826172,-16154443.740844727,-15497947.692871094,-4693079.948425293,-4590006.8283081055,-5825418.949127197,-4199551.105499268,-14632889.747619629,-15825672.149658203,-16558794.021606445,-4057844.638824463,-1899062.6335144043,-6912761.211395264,-8434323.31085205,-7849283.218383789
0.11,-17352123.260498047,-12693581.581115723,6956530.0941467285,-8379700.660705566,2321880.102157593,-25949903.48815918,-11163469.314575195,-11815284.729003906,463593.0359363556,2835352.897644043,2850643.8732147217,-10126266.479492188,-1705706.9540023804,-2343027.5917053223,-17783630.37109375,-8065548.896789551,-2304476.9763946533,2258318.4242248535,3910459.9952697754,2824278.5930633545,-382569.3130493164,-1987247.7054595947,-1475381.61277771,2025766.134262085,2906153.2020568848,1426954.1501998901,6821649.074554443,3329112.768173218,1233851.3135910034,-3604684.591293335,-7139280.796051025,-8334875.106811523,-7205352.306365967,1062654.4952392578,-3113177.77633667,2387470.483779907,-2541894.9127197266,-1445906.2814712524,-11512415.885925293,-10642823.219299316,-10644454.956054688,-1410370.111465454,-54990.44433236122,-314232.4984073639,-6697549.343109131,-7195982.933044434,-4434623.718261719,-17982696.533203125,-16338302.612304688,-14190712.928771973,-674072.9808807373,-572455.7638168335,-3989904.6421051025,-3751244.54498291,-14913563.72833252,-15706971.168518066,-16469877.243041992,687840.461730957,1523812.8900527954,-4199473.3810424805,-6618229.389190674,-3546045.3033447266
0.115,-35122173.30932617,-26699651.71813965,-4112126.8272399902,-17929649.353027344,-2848964.214324951,-32944190.979003906,-17982461.92932129,-18547595.977783203,-5125905.0369262695,-798241.6749000549,630997.0617294312,-12380251.88446045,-3906137.704849243,-4455095.7679748535,-19545980.45349121,-11492767.333984375,-5954726.219177246,-842957.7946662903,1473753.3330917358,908035.5167388916,-1315877.6760101318,-1805945.2772140503,-1077951.7889022827,1941071.9871520996,2045291.1853790283,-24031.024426221848,5318516.731262207,2470710.039138794,1383345.7231521606,-2081078.5293579102,-4805409.908294678,-6850098.609924316,-7737473.964691162,1408937.931060791,-3603072.8816986084,1198245.1677322388,-2384269.7143554688,585182.6667785645,-6482177.257537842,-7800557.1365356445,-8434830.665588379,-2600618.1240081787,-515968.08433532715,-1490065.8130645752,-7365307.331085205,-5310399.055480957,-1424694.0612792969,-15831345.558166504,-14723439.21661377,-12751125.33569336,-1994256.1388015747,-1791231.393814087,-5511864.185333252,-3714393.8541412354,-13494007.110595703,-14936810.493469238,-15758873.93951416,-1298458.6954116821,-731718.8382148743,-5052576.065063477,-7015310.764312744,-4367919.445037842
0.12,-41104301.45263672,-30742494.583129883,-6890256.881713867,-23051939.010620117,-6539279.460906982,-40658012.39013672,-24184770.584106445,-24725723.266601562,-9364673.614501953,-4684526.9203186035,-2639229.0592193604,-14179563.522338867,-6427373.40927124,-6979495.525360107,-27156696.319580078,-17126424.78942871,-9758100.509643555,-3234792.709350586,-1919009.0894699097,-1559672.236442566,-3385932.445526123,-3607307.195663452,-3548346.2810516357,-4881470.203399658,-2350597.143173218,-2845091.3429260254,4350459.098815918,1295351.6244888306,449595.8983898163,-2215715.4083251953,-5038514.137268066,-8443576.81274414,-15149673.461914062,-2659923.315048218,-4826527.5955200195,1283428.1921386719,-2537024.736404419,1143927.5741577148,-4645985.6033325195,-6916657.9246521,-8360321.044921875,-8471720.695495605,-3758276.7009735107,-2567552.328109741,-6014543.533325195,-1982827.5442123413,1984966.1588668823,-12830965.995788574,-12041703.224182129,-11216947.555541992,-7195186.138153076,-6943102.3597717285,-7915954.58984375,-1742354.8698425293,-9322888.374328613,-12396315.574645996,-13258735.656738281,-7710157.39440918,-5350455.760955811,-7369041.919708252,-7761226.177215576,-8387214.660644531
0.125,-39173015.59448242,-28321302.41394043,-2741315.8416748047,-22679773.330688477,-6748025.894165039,-45777786.25488281,-26348533.630371094,-26894838.333129883,-9924668.312072754,-6986405.372619629,-5145390.510559082,-14635325.43182373,-6801651.954650879,-7499153.614044189,-34431144.71435547,-20727073.669433594,-10766860.961914062,-3808490.753173828,-4487260.341644287,-3753880.9776306152,-5270282.26852417,-5509849.548339844,-5153304.100036621,-12072005.271911621,-5300594.329833984,-4172767.6391601562,4607565.402984619,320824.14627075195,-884236.5741729736,-3723507.4043273926,-6503809.928894043,-9509587.287902832,-21483066.55883789,-5817432.403564453,-4634762.763977051,2906165.599822998,-2942799.0913391113,489580.2438259125,-6098464.012145996,-7265229.70199585,-8401324.272155762,-11803548.812866211,-4841501.712799072,-896633.9230537415,-2419346.570968628,1116420.2690124512,3472009.6588134766,-10422133.445739746,-8837079.048156738,-8278530.120849609,-8806313.514709473,-8648893.356323242,-6429584.02633667,2805735.5880737305,-3683318.3765411377,-7829934.120178223,-8659475.326538086,-9643151.28326416,-4849888.801574707,-6211617.946624756,-5807527.542114258,-8903703.689575195
0.13,-42450210.57128906,-32011791.229248047,-3164195.0607299805,-23522043.228149414,-7725586.414337158,-47743679.04663086,-26393928.52783203,-26981475.830078125,-9872456.550598145,-8440171.241760254,-6726397.0375061035,-15256777.7633667,-6446508.407592773,-6797204.494476318,-35814388.275146484,-20989913.940429688,-10502301.216125488,-4442266.464233398,-5610780.239105225,-5345423.698425293,-6393617.630004883,-6000709.533691406,-3364060.878753662,-13055133.819580078,-4722963.333129883,-4235364.4371032715,4152217.388153076,-456403.0170440674,-1569800.853729248,-4632437.705993652,-6169569.01550293,-6533458.709716797,-19496522.903442383,-4098618.507385254,-3257793.664932251,4061344.1467285156,-3107117.176055908,797614.3956184387,-6221242.904663086,-5766438.961029053,-5057365.417480469,-7606693.744659424,-822229.6237945557,3087499.8569488525,1587019.443511963,3456445.6939697266,4478150.367736816,-7569469.928741455,-4065013.4086608887,-2671072.244644165,-2664293.050765991,-2632302.761077881,293265.700340271,8546335.220336914,2318582.057952881,-1349299.430847168,-2093388.0805969238,-2925528.7647247314,2975172.519683838,135774.35910701752,-256857.7229976654,-3128529.5486450195
0.135,-53920833.587646484,-44798061.37084961,-12901771.545410156,-30657333.374023438,-13456768.035888672,-48910160.064697266,-28586688.995361328,-29274253.845214844,-13580537.796020508,-11417916.297912598,-9055600.1663208,-18276451.110839844,-8778964.99633789,-7520553.112030029,-33448844.90966797,-20855752.94494629,-12254897.117614746,-7242314.338684082,-6547542.095184326,-7001361.846923828,-7866722.106933594,-6374144.077301025,-724473.8340377808,-9711082.458496094,-3576551.1989593506,-5260385.036468506,1826675.7726669312,-1237539.1721725464,-1691847.9204177856,-4543054.580688477,-4243433.952331543,-1995979.3090820312,-12150679.588317871,-210031.33058547974,-2709202.527999878,3337922.0962524414,-2713439.2261505127,2942499.876022339,-3270775.079727173,-2100752.115249634,516416.0132408142,-224966.27271175385,4696958.065032959,5982354.164123535,3972393.035888672,5307700.634002686,7142547.130584717,-3048430.919647217,2273520.2312469482,4116884.231567383,5490301.609039307,5540055.274963379,7123187.54196167,12495988.845825195,7478498.935699463,5338268.756866455,4643286.228179932,5394917.4880981445,11081393.241882324,6681705.474853516,5344934.463500977,3426933.2885742188
0.14,-61148197.174072266,-52470062.255859375,-19386142.73071289,-38393070.220947266,-18340080.26123047,-52032344.818115234,-33246498.107910156,-34008094.787597656,-18908781.051635742,-14589814.186096191,-11013897.895812988,-21129451.751708984,-11199405.670166016,-7429887.771606445,-34290470.123291016,-23176759.719848633,-15234857.559204102,-10105457.305908203,-7160311.698913574,-7951414.108276367,-9118392.944335938,-6648323.535919189,865685.3437423706,-9668850.898742676,-5031260.4904174805,-7022872.447967529,246091.1124944687,-1467679.6197891235,-1644912.4813079834,-4375816.822052002,-2776599.645614624,84406.25667572021,-9058838.844299316,361017.1377658844,-3633831.024169922,2056489.9444580078,-2107161.7603302,4723277.0919799805,-872778.594493866,717180.0136566162,3814507.9612731934,1888986.587524414,5812641.143798828,5284297.466278076,3901304.7218322754,5367112.636566162,9049036.979675293,517953.097820282,6699047.088623047,8157515.525817871,6940666.675567627,7115444.183349609,7815765.857696533,11710013.389587402,8728458.404541016,8342351.913452148,7610898.494720459,6113903.522491455,11515965.461730957,7054728.5079956055,6200727.939605713,3969807.8632354736
0.145,-54574073.791503906,-42412540.435791016,-8942007.064819336,-37329982.75756836,-13107841.491699219,-57900012.9699707,-36749149.322509766,-37409679.4128418,-19124603.271484375,-13352949.142456055,-8800077.438354492,-18122238.159179688,-6503071.7849731445,-396267.98033714294,-41012771.60644531,-27256103.515625,-15722155.570983887,-8951014.518737793,-5283790.588378906,-5923750.400543213,-7309703.826904297,-3643033.266067505,4619693.279266357,-15894037.246704102,-8222765.922546387,-7225077.152252197,2214090.8241271973,-369765.9373283386,-939429.5811653137,-3944181.442260742,-1460573.5540390015,1173845.0527191162,-14101553.916931152,-3181832.3135375977,-4622539.520263672,2263272.285461426,-1879481.1964035034,3776935.10055542,-1847827.434539795,993038.7139320374,3900974.2736816406,-2708509.922027588,1956701.636314392,2317161.3216400146,2224205.493927002,2347196.578979492,6325922.966003418,-799731.433391571,5927774.429321289,7625296.592712402,1621323.823928833,1808193.6836242676,3078327.6557922363,6816679.000854492,4365699.768066406,5635278.701782227,4830078.601837158,538777.1129608154,5664031.028747559,2058650.255203247,2671159.7442626953,-146961.7336988449
0.15,-41309925.0793457,-22096570.96862793,12718852.996826172,-28099924.087524414,712468.5049057007,-64808662.41455078,-37306598.66333008,-37698913.57421875,-13049807.54852295,-7212210.178375244,-2354377.031326294,-9112666.130065918,5674240.589141846,13482931.137084961,-49253818.51196289,-30817922.592163086,-13685113.906860352,-4435018.062591553,-952297.568321228,-1071139.2164230347,-2059602.2605895996,3611816.883087158,12907193.183898926,-23619686.126708984,-10642683.982849121,-6228161.334991455,5581704.139709473,1492174.506187439,898363.5306358337,-2180165.2908325195,1464052.0811080933,5261771.202087402,-21523321.1517334,-6796614.646911621,-4946274.280548096,3556026.4587402344,-2109844.68460083,1285507.9174041748,-3588665.9622192383,687594.9501991272,4543237.686157227,-7384699.34463501,-1957726.240158081,367201.14946365356,948208.749294281,-1230253.9348602295,1333717.8230285645,-5485973.358154297,2328494.5487976074,5544316.76864624,-2394940.137863159,-2363249.7787475586,-63994.646072387695,3211807.0125579834,-963896.2745666504,1230397.5820541382,388116.8067455292,-1894538.164138794,2101780.1761627197,-749544.084072113,831539.5712852478,-1295344.2335128784
0.155,-35167102.8137207,-10338736.534118652,26416007.99560547,-21701482.77282715,10258626.937866211,-70544067.3828125,-37834945.67871094,-38000637.05444336,-8325266.8380737305,-2731054.7828674316,2285195.5890655518,-1833928.942680359,15501647.94921875,24506441.116333008,-54390804.290771484,-33712856.29272461,-13865295.41015625,-2543462.2764587402,1568852.0669937134,2413884.6397399902,2257595.5390930176,10129240.989685059,20827526.092529297,-28068637.84790039,-12484911.918640137,-7422179.222106934,5443122.863769531,2243249.4163513184,2897068.2621002197,555489.1228675842,5225234.9853515625,10994051.933288574,-24932905.197143555,-8000826.835632324,-5811295.986175537,3776276.111602783,-2329992.0558929443,784535.1696014404,-1919962.5253677368,2265232.563018799,7961913.108825684,-7319614.410400391,-2449066.162109375,818278.1934738159,1661335.5875015259,-599610.0902557373,1409630.537033081,-6683548.927307129,2206795.4540252686,6366096.019744873,-319532.573223114,-366921.42486572266,2789482.831954956,6117940.902709961,539672.315120697,1904536.1280441284,1073303.5802841187,2693075.41847229,5267313.9572143555,3315167.6654815674,5075612.545013428,3831781.6257476807
0.16,-40986480.712890625,-15512722.01538086,22475269.317626953,-26297624.588012695,6914337.635040283,-75294639.58740234,-42189765.93017578,-42313690.185546875,-12105643.272399902,-5869446.277618408,35762.52609491348,-2699163.9137268066,14915699.005126953,24515342.712402344,-57356224.060058594,-37763679.50439453,-18980304.718017578,-6895863.056182861,-1188029.2892456055,1069442.2721862793,1727280.4975509644,10677433.967590332,21814697.265625,-30513980.865478516,-15795336.723327637,-11790465.354919434,1171929.0018081665,847855.5679321289,3567863.702774048,2536509.9906921387,7125729.560852051,13034819.602966309,-24996973.037719727,-8598958.015441895,-7949231.6246032715,2458356.6188812256,-2193328.619003296,3409785.032272339,3103262.424468994,5483578.681945801,11736639.976501465,-5201555.252075195,-1169365.0484085083,2294148.6835479736,3979362.726211548,4817697.048187256,8631423.950195312,-848876.5358924866,8063432.693481445,10788413.047790527,4019351.005554199,4125444.8890686035,8513319.01550293,14240134.239196777,9994236.946105957,9120263.09967041,8326673.50769043,8427319.526672363,10919539.451599121,10602037.42980957,12589822.769165039,10394641.876220703
0.165,-54075557.708740234,-30103244.78149414,8857733.726501465,-38280582.427978516,-3558320.0454711914,-81095962.52441406,-49864826.20239258,-50013172.1496582,-21535446.166992188,-13468398.094177246,-6027233.600616455,-8455760.00213623,8125726.699829102,17647153.854370117,-61123607.63549805,-43075176.23901367,-25217262.268066406,-13403883.934020996,-6259110.450744629,-2686258.07762146,-1405714.6310806274,7167428.016662598,17783443.450927734,-34089752.197265625,-20079387.664794922,-15615532.875061035,-2558509.8266601562,-1355606.9135665894,3176742.5537109375,3323564.291000366,7069419.384002686,11099679.946899414,-25528562.545776367,-10483995.43762207,-9877950.668334961,1412599.0867614746,-1883263.7071609497,6422673.225402832,7945979.118347168,8606989.860534668,13560914.039611816,-5253814.220428467,-1107438.325881958,3005037.307739258,5780036.449432373,9716889.381408691,16013065.338134766,7124854.564666748,15492710.11352539,15667307.85369873,5394473.552703857,5640682.220458984,11712332.725524902,20641084.671020508,19237089.157104492,17049270.629882812,16324659.34753418,9955411.911010742,13438848.495483398,14927769.660949707,17332386.016845703,13031781.196594238
0.17,-66671875.0,-41620792.388916016,-849960.3271484375,-46566967.01049805,-8798302.65045166,-86681312.56103516,-55095859.52758789,-55156497.955322266,-26406457.901000977,-15986667.63305664,-7728868.48449707,-10443552.97088623,5489068.984985352,14732357.9788208,-63940399.169921875,-46060626.98364258,-26455904.006958008,-14829792.022705078,-6780504.22668457,-2931140.899658203,-1411160.1114273071,6058780.670166016,17017860.412597656,-36889785.76660156,-21587085.723876953,-15230936.050415039,-2198888.3018493652,-1835895.4191207886,3552673.578262329,4328182.220458984,7834370.6130981445,10986892.700195312,-26169197.08251953,-11957424.16381836,-9858779.907226562,1724130.5112838745,-1781245.5892562866,6893528.938293457,10168395.99609375,10701641.082763672,14829636.573791504,-6280027.866363525,-2092245.34034729,2617313.6234283447,5283162.1170043945,9146589.279174805,16296289.443969727,9745201.110839844,18526111.602783203,17962257.385253906,4449873.924255371,4529242.038726807,11425487.518310547,20240346.908569336,20174669.26574707,19388074.87487793,18757434.844970703,9650199.890136719,12841809.272766113,15077599.52545166,17220439.910888672,12399232.864379883
0.175,-69562599.1821289,-41716991.42456055,367313.951253891,-43292552.94799805,-3801370.620727539,-85564109.8022461,-51832248.68774414,-51750877.380371094,-20742984.771728516,-8934481.620788574,-1830128.4313201904,-5674645.42388916,9984758.377075195,19143154.14428711,-60409332.275390625,-42476593.017578125,-21069023.13232422,-9103240.966796875,-475828.3495903015,2082418.68019104,3055602.550506592,9278742.790222168,21959083.557128906,-33616443.6340332,-17581420.8984375,-11150007.247924805,891857.7432632446,491221.27890586853,5148110.389709473,6031769.752502441,10128716.468811035,14996545.791625977,-23344478.607177734,-9842528.343200684,-7936143.398284912,2469064.235687256,-1950258.8510513306,4992679.595947266,9658101.081848145,11211941.719055176,16866205.2154541,-4119741.439819336,-1531083.2262039185,2217743.8735961914,2995898.0083465576,4066181.182861328,10406830.787658691,5397234.916687012,15617578.506469727,16941816.329956055,5011237.144470215,4808096.408843994,10466280.937194824,14451876.640319824,13512750.625610352,15656273.84185791,15076094.627380371,11404220.581054688,12386851.31072998,13768977.165222168,14647349.35760498,11690737.7243042
0.18,-56378574.37133789,-29174825.66833496,10807323.455810547,-30541885.375976562,5578658.103942871,-73429199.21875,-40339611.0534668,-40266643.52416992,-9398172.378540039,1484769.9403762817,5882241.249084473,-22056.00216984749,14960158.348083496,23848470.68786621,-49588001.2512207,-32580375.67138672,-12848487.854003906,-954436.1233711243,7054396.629333496,7227858.543395996,6943027.496337891,11984191.89453125,25512577.056884766,-23734428.40576172,-9718531.608581543,-5892993.927001953,4047188.2820129395,4097304.344177246,5793429.851531982,6505235.195159912,10721670.150756836,17407930.374145508,-16733404.159545898,-3770208.5971832275,-4908856.391906738,3025974.0352630615,-2101925.3730773926,2720334.529876709,6694720.74508667,9038484.573364258,17064092.6361084,1463815.689086914,1776132.2259902954,3274190.1874542236,1338830.7094573975,-929926.9914627075,4226761.341094971,-1577910.7809066772,9294938.087463379,13234710.693359375,7620723.724365234,7496561.050415039,10479736.328125,8018490.791320801,5752185.821533203,9623994.827270508,8999427.795410156,13256722.450256348,12768413.543701172,12092271.80480957,11599869.728088379,10740709.30480957
0.185,-33525672.912597656,-11573380.470275879,22749719.619750977,-18064682.006835938,10872448.921203613,-56221912.3840332,-28251220.703125,-28343238.830566406,-2244246.006011963,5886453.151702881,7864455.223083496,17221.219837665558,14373342.514038086,22359294.891357422,-38157318.115234375,-22309032.440185547,-6697261.333465576,3816459.6557617188,8947350.50201416,6889989.376068115,5588253.498077393,9955953.598022461,21691431.045532227,-14119478.225708008,-2605468.988418579,-857576.1318206787,6833157.539367676,6321671.009063721,3637388.7062072754,4181536.6744995117,7316363.334655762,13156596.183776855,-10624767.303466797,2895152.5688171387,-1212445.1398849487,4271311.283111572,-1987053.0366897583,1082696.4378356934,1880020.7376480103,4267366.409301758,12710164.070129395,6065454.483032227,5854435.920715332,6103813.648223877,2115602.970123291,-3181257.2479248047,706452.6677131653,-7041795.73059082,2571550.6076812744,8149565.696716309,9298905.372619629,9641447.067260742,10529790.878295898,3866727.113723755,883129.4775009155,4348930.835723877,3659755.229949951,11319270.133972168,12099925.994873047,9020411.491394043,8016974.449157715,7623459.339141846
0.19,-18687515.258789062,-1459934.4730377197,27501382.82775879,-13990746.49810791,9693686.485290527,-45893371.58203125,-23503614.42565918,-23675584.79309082,-3393973.1121063232,2569619.1787719727,3904412.9848480225,-4514894.485473633,10121503.829956055,17023893.356323242,-33454170.22705078,-18284729.00390625,-5143966.6748046875,3490885.019302368,4955136.299133301,2011156.0821533203,788925.051689148,5348081.588745117,14454255.104064941,-11829782.485961914,52379.22817468643,2445002.317428589,8979440.689086914,5818918.704986572,231153.83088588715,787789.523601532,2667968.988418579,6314682.483673096,-8695715.90423584,5818061.828613281,1648435.5926513672,6161977.291107178,-1694970.965385437,57088.080793619156,-2266705.5130004883,-81708.36418867111,6765707.969665527,6222481.250762939,7326974.868774414,8736216.54510498,4504339.694976807,-3057446.241378784,-725636.6014480591,-9742918.014526367,-2067891.8361663818,4364605.42678833,8253529.5486450195,8902850.151062012,9687654.495239258,2531551.3610839844,-1045798.3016967773,1282174.2296218872,629566.3714408875,7254307.270050049,10028342.247009277,5381847.858428955,4839158.058166504,3848336.935043335
0.195,-22033748.626708984,-4533944.129943848,23059757.232666016,-17488258.361816406,6324495.315551758,-47580333.7097168,-26650297.164916992,-26665107.72705078,-8262850.761413574,-2105627.5367736816,334502.84600257874,-7143847.942352295,8004702.568054199,14331915.855407715,-35817253.11279297,-21841045.379638672,-7997038.841247559,48485.04438996315,514876.72328948975,-1594656.3482284546,-1887179.6131134033,3258717.2985076904,12012913.703918457,-16456703.186035156,-2427390.8138275146,1154990.1962280273,8220877.647399902,3481183.7673187256,-1070430.2787780762,-207555.8453798294,1490984.0822219849,4955076.217651367,-10527888.298034668,3039304.9716949463,721048.0570793152,6348893.642425537,-1530916.2139892578,205610.69250106812,-2416579.246520996,-264028.25117111206,5538935.18447876,2855312.8242492676,4649194.240570068,8316136.360168457,6093173.503875732,-1254670.262336731,364775.3894329071,-8931525.230407715,-2066288.2328033447,5113258.361816406,5810966.014862061,6242368.698120117,8612236.022949219,4311430.45425415,502232.73038864136,2234202.6233673096,1693589.9257659912,6056923.866271973,8549607.276916504,4287781.238555908,4891013.622283936,3382822.275161743
0.2,-34427684.78393555,-13544310.569763184,16342142.105102539,-21841547.0123291,5313548.0880737305,-55236667.63305664,-31921451.568603516,-31694526.67236328,-10972045.8984375,-3203992.3667907715,980383.3365440369,-4676120.758056641,9959745.407104492,16025003.433227539,-40147441.86401367,-28566522.5982666,-13212884.902954102,-4037666.7976379395,-864321.1126327515,-1066965.2223587036,-392859.8165512085,5108481.884002686,15865079.879760742,-21835817.337036133,-7960996.627807617,-5334074.020385742,3463559.865951538,1133031.2490463257,501087.90397644043,2239567.279815674,4614663.124084473,10148364.067077637,-13737677.574157715,-3326371.908187866,-4666935.920715332,3385186.195373535,-1657166.1233901978,2268115.758895874,1928769.3500518799,4057919.502258301,10712213.516235352,-855744.5406913757,9944.428689777851,4839993.953704834,6041594.505310059,2147897.720336914,5297574.520111084,-3621498.3463287354,3527809.3814849854,11085479.736328125,4210309.028625488,4237631.797790527,8673968.315124512,9256827.354431152,7034523.010253906,8456881.523132324,7934584.617614746,8187373.161315918,9049915.313720703,7035423.278808594,9168393.1350708,6843819.618225098
0.205,-40610881.80541992,-18071874.618530273,14595433.235168457,-23510154.724121094,6302674.293518066,-60478199.00512695,-34818264.00756836,-34513126.373291016,-11249456.405639648,-2664699.077606201,2711050.9872436523,-818677.1869659424,12806931.495666504,18348342.895507812,-42791446.685791016,-33166919.708251953,-17865612.030029297,-7332584.857940674,-1046657.0854187012,472957.43227005005,1842550.6353378296,7822761.535644531,20109924.31640625,-23926723.48022461,-12953786.849975586,-12285212.516784668,-1965450.406074524,-248763.21852207184,2213465.929031372,5571115.970611572,8430777.549743652,15201220.512390137,-16763294.219970703,-8356147.766113281,-10167670.249938965,-186231.3151359558,-1914197.4449157715,5263039.112091064,7284344.673156738,9192952.156066895,17045003.89099121,-2784523.7255096436,-2278496.503829956,2321661.7107391357,6260936.737060547,6152557.849884033,11988217.3538208,4335206.985473633,11483746.528625488,18646820.068359375,4495064.258575439,4475999.355316162,10707140.922546387,15430329.322814941,16441282.272338867,17331487.65563965,16656372.0703125,9334534.645080566,10786916.732788086,11164592.742919922,14476677.894592285,10306215.286254883
0.21,-36307407.37915039,-15448781.01348877,18159172.05810547,-23411167.14477539,6629532.814025879,-60188056.94580078,-34742267.60864258,-34571659.088134766,-11385818.481445312,-3513389.5874023438,1693038.3443832397,-440145.7905769348,13314362.525939941,18240943.908691406,-43265285.49194336,-33064334.869384766,-19213811.87438965,-8592757.225036621,-2511299.3717193604,-539291.0838127136,1244180.2024841309,8390226.364135742,20025680.541992188,-23975280.76171875,-13891083.717346191,-13548074.722290039,-3351881.742477417,-713361.382484436,1710697.2932815552,6690702.91519165,9416543.006896973,14882234.573364258,-18455398.559570312,-8162404.0603637695,-10394992.82836914,-441806.25677108765,-2047041.893005371,6644824.504852295,9397322.654724121,11011549.949645996,18526430.130004883,-2604639.2917633057,-56238.97537589073,4392725.944519043,8478485.107421875,8405639.6484375,15081178.665161133,9213766.098022461,15602967.262268066,22157815.93322754,6289065.361022949,6591169.357299805,14105636.596679688,19133384.704589844,21965934.75341797,22585935.592651367,21716808.319091797,7464026.45111084,12281544.68536377,13184898.376464844,16370178.22265625,10254384.994506836
0.215,-26547981.26220703,-8541337.013244629,24464685.440063477,-20615774.154663086,7011299.610137939,-54758728.02734375,-31224098.205566406,-31261634.826660156,-9876312.255859375,-3326402.6641845703,197141.3493156433,-2911481.6188812256,12051411.628723145,16922189.712524414,-40963592.529296875,-28160436.630249023,-15980841.636657715,-6400965.690612793,-3557688.9514923096,-2606710.67237854,-1134075.0455856323,7124900.341033936,17145263.671875,-24327688.217163086,-9520788.192749023,-8231554.03137207,-1594.3028265610337,-283112.7941608429,60425.51249265671,5184769.630432129,7503287.792205811,10968230.247497559,-17393970.489501953,-3255730.628967285,-5402787.208557129,2819220.781326294,-2033022.403717041,4996199.131011963,7118617.057800293,8524279.594421387,14557203.29284668,-1108647.7041244507,4185095.3102111816,9320276.260375977,10923666.954040527,7025675.7736206055,11800414.085388184,6314123.630523682,12131511.688232422,18756092.071533203,8030959.129333496,8579868.31665039,16300739.288330078,17585754.39453125,18441852.569580078,19781379.69970703,18828117.37060547,5205431.938171387,12518933.296203613,11643743.515014648,13469093.322753906,7074714.660644531
0.22,-16032590.866088867,260661.45300865173,33183685.302734375,-12581268.310546875,10514341.354370117,-45676712.03613281,-23519546.508789062,-23714439.392089844,-3683931.1122894287,1757439.374923706,3018306.7321777344,-3534672.260284424,11926248.550415039,17365198.135375977,-35157264.709472656,-20300762.176513672,-9484425.54473877,-868553.8172721863,-966731.9655418396,-1651746.392250061,-1508952.4984359741,6503399.37210083,15815573.692321777,-24861579.89501953,-2383486.9861602783,-1121978.8789749146,4673894.882202148,1255173.8023757935,-126891.1212682724,3224840.4026031494,5259014.60647583,8302446.365356445,-13614504.81414795,2171533.3461761475,-560883.2240104675,5925051.212310791,-2053667.0684814453,1805425.0478744507,2998264.789581299,4197137.832641602,9305783.27178955,266588.2706642151,6017152.786254883,11666957.85522461,10005404.472351074,2490585.5655670166,5333059.787750244,-2450553.8940429688,3735989.3321990967,11176352.500915527,7783867.835998535,8278121.9482421875,14509957.313537598,11360727.310180664,8424371.719360352,11216485.977172852,10267503.73840332,4893942.356109619,10992827.415466309,7619161.605834961,8223233.222961426,3387605.4286956787
0.225,-9181222.915649414,7282733.44039917,42489406.58569336,-2986157.178878784,16234571.45690918,-37729591.369628906,-15246059.41772461,-15518370.628356934,4337645.530700684,9142639.16015625,9317133.903503418,-149984.98558998108,14434803.96270752,20387550.354003906,-28608921.05102539,-13765045.166015625,-3497529.0298461914,5026955.127716064,4438946.24710083,2820757.1506500244,1530529.3798446655,8148221.015930176,17791431.427001953,-24868553.161621094,2641869.54498291,3011952.1617889404,7600348.472595215,3406296.2532043457,1681737.8997802734,2990336.4181518555,5055887.699127197,8860671.997070312,-9800421.714782715,4434504.985809326,130233.034491539,6195588.5887146,-2176965.9519195557,-79061.95521354675,503914.2966270447,1439820.5280303955,6684610.366821289,183661.98241710663,4003368.377685547,9005969.047546387,5504897.117614746,-2371755.1231384277,1105927.586555481,-9933315.27709961,-2961136.817932129,5433830.738067627,5149930.953979492,5495028.972625732,9365295.41015625,4330013.275146484,40289.67022895813,3945069.5514678955,2983411.0736846924,5453823.089599609,8102361.679077148,3736752.510070801,4257545.948028564,1184977.8890609741
0.23,-10875204.086303711,7106708.526611328,46416572.57080078,-796914.9351119995,18973892.211914062,-36982383.728027344,-13184774.398803711,-13471806.526184082,6755164.623260498,11810028.076171875,13105543.13659668,4495623.588562012,18163272.857666016,23940534.591674805,-26284013.748168945,-12884367.942810059,-1791240.4537200928,7358843.3265686035,8140298.843383789,7005197.525024414,5603822.231292725,11288486.48071289,21142280.57861328,-25269376.754760742,2668134.4509124756,3279938.220977783,8275834.083557129,4753960.132598877,3657052.993774414,4676997.661590576,7093093.8720703125,10993627.548217773,-8721666.33605957,3516736.9842529297,-1936639.3089294434,4758115.291595459,-2262788.5341644287,616270.6613540649,774275.3028869629,1724926.471710205,7120022.296905518,-1217190.5040740967,900731.8615913391,4814769.744873047,1945391.1781311035,-4207636.35635376,1344640.612602234,-11078432.083129883,-3898599.624633789,5147625.923156738,2352481.3652038574,2675995.111465454,5628158.092498779,1109529.1376113892,-1063072.5622177124,2798510.3130340576,1814772.9635238647,5463636.875152588,5675848.484039307,2698370.6951141357,3611416.5782928467,1201717.734336853
0.235,-17488418.579101562,1623096.7044830322,43510051.72729492,-6938301.086425781,17200450.897216797,-42079319.00024414,-17934972.763061523,-18214857.10144043,2011177.5398254395,8256312.370300293,11820614.8147583,6946681.499481201,20503284.454345703,25244466.78161621,-28575162.887573242,-16957111.358642578,-4570459.365844727,5134274.482727051,7615564.346313477,7816024.7802734375,7681141.8533325195,13630710.60180664,22720170.974731445,-26412754.05883789,-329595.98302841187,1489142.1794891357,7384610.176086426,4366490.840911865,4281270.0271606445,6761764.049530029,9433725.357055664,12260554.313659668,-10007818.222045898,2196121.6926574707,-3216905.5938720703,4062165.7371520996,-2231542.3488616943,2632085.8001708984,1959388.7329101562,3700746.0594177246,8366641.044616699,-2139585.494995117,78871.37681245804,3873750.4482269287,3350297.9278564453,-1758529.6630859375,4265603.065490723,-7455298.42376709,-935670.4950332642,8284376.14440918,2170200.824737549,2536914.825439453,7310579.776763916,3436910.629272461,3518562.5553131104,6224838.2568359375,5305630.207061768,5702074.5277404785,5633441.44821167,5018981.93359375,5675128.45993042,2951241.970062256
0.24,-16447893.142700195,1673736.572265625,41822525.02441406,-10830121.040344238,15791090.01159668,-43993976.59301758,-21720388.412475586,-22022768.020629883,-2806778.907775879,4400658.60748291,9091994.285583496,6509034.633636475,19845775.604248047,23201236.724853516,-30288824.0814209,-20320043.563842773,-8221657.752990723,1151787.6386642456,4800114.631652832,5809140.682220459,6809740.06652832,13435317.039489746,21094511.032104492,-26523715.97290039,-2073125.1239776611,-444867.70033836365,5634589.672088623,2894616.6038513184,3747144.2222595215,7672554.969787598,9963176.727294922,11685388.565063477,-11085506.439208984,2556592.9412841797,-2862650.8712768555,4520789.623260498,-2210175.037384033,3933884.620666504,1796339.1542434692,5116460.32333374,8587739.944458008,-1111098.6471176147,1936645.269393921,6594215.393066406,8190237.998962402,2813747.6444244385,7146246.433258057,-3899277.925491333,1548727.3931503296,10371261.596679688,4799304.962158203,5132670.879364014,12867931.365966797,8505737.3046875,8142701.148986816,9465151.7868042,8702585.220336914,6987913.131713867,7842041.015625,8161866.188049316,8166740.417480469,4758505.344390869
0.245,-3858953.9527893066,12053359.031677246,47846656.799316406,-5594145.774841309,18291723.251342773,-38921604.15649414,-19319734.573364258,-19662918.090820312,-2079012.8707885742,4738772.869110107,8340916.633605957,4378273.963928223,16816825.86669922,19780384.063720703,-28592578.887939453,-19440219.87915039,-9283983.23059082,-1135994.791984558,2864962.8162384033,3267495.3937530518,4126317.5010681152,11276373.863220215,18200361.251831055,-24904380.798339844,-1204459.309577942,-1330377.8171539307,4219087.12387085,1836519.3605422974,2999218.225479126,7197761.058807373,8736972.80883789,10456077.575683594,-10844964.981079102,3981066.2269592285,-2664950.370788574,4775027.751922607,-2300713.7775421143,3821855.306625366,493082.4041366577,5438490.390777588,8433134.078979492,1142301.082611084,4212680.816650391,9384801.864624023,11387005.805969238,5618143.558502197,8527766.227722168,-2528807.6400756836,2018350.8396148682,10239180.564880371,7771192.55065918,8015957.832336426,17124078.75061035,11430531.50177002,9391321.182250977,10445954.322814941,9820886.611938477,8383641.242980957,10354684.829711914,9324466.705322266,9438317.29888916,5407256.126403809
0.25,5894661.903381348,21839653.01513672,55466636.657714844,928362.7271652222,21374580.38330078,-35386451.721191406,-16019134.521484375,-16328081.130981445,869963.1690979004,6995604.038238525,8651346.206665039,2286192.4171447754,14492351.531982422,19306346.893310547,-27746660.232543945,-17506959.915161133,-8036379.814147949,-766016.7217254639,3093295.8126068115,2082673.3112335205,2034146.5473175049,10007936.477661133,18285045.623779297,-24538711.547851562,-396099.716424942,-983015.6564712524,4262746.810913086,2063265.085220337,2889011.1446380615,6616088.8671875,8180341.720581055,11185928.344726562,-10562219.619750977,4422243.595123291,-3722592.59223938,4016361.2365722656,-2380951.8814086914,3184798.9559173584,319305.80735206604,6024050.235748291,10026424.407958984,2544720.6497192383,4749495.983123779,9508951.187133789,10465952.87322998,4578637.599945068,8149946.212768555,-1882121.9205856323,2342360.9733581543,10720757.484436035,9004056.930541992,9183662.414550781,17431303.024291992,9869506.8359375,8174475.66986084,10925091.743469238,10349364.280700684,9352099.418640137,11900225.639343262,8932251.930236816,9922451.01928711,6061870.098114014
0.255,401523.6496925354,20130292.892456055,55646625.51879883,-1359015.1071548462,21384109.497070312,-42074665.06958008,-19155000.686645508,-19307317.73376465,441819.36979293823,7777423.38180542,8861208.91571045,2792413.9499664307,16712223.052978516,24938970.5657959,-32579315.185546875,-19346536.63635254,-7203829.765319824,927206.3970565796,5284808.63571167,3716168.165206909,3167307.3768615723,12299468.040466309,23635858.5357666,-28286943.435668945,-2178969.8600769043,-575967.6694869995,5239281.177520752,3372577.905654907,4184121.1318969727,7410242.557525635,10278881.072998047,15183499.336242676,-11523391.723632812,2975354.4330596924,-5224150.657653809,2751175.1651763916,-2309468.7461853027,3087173.2234954834,2233175.754547119,7629659.652709961,13689172.744750977,2007275.5813598633,3144223.213195801,7705432.891845703,7580487.7281188965,1064378.6191940308,6476663.589477539,-951468.6465263367,3625991.5828704834,13361651.420593262,8680708.885192871,8785727.500915527,15598012.924194336,5711423.397064209,6583574.7718811035,12204210.28137207,11618375.778198242,10880588.53149414,12760457.992553711,9436398.50616455,10670013.427734375,8393784.523010254
0.26,-11672506.332397461,12779885.292053223,50960536.95678711,-9463727.951049805,20650730.13305664,-55009307.861328125,-27192241.668701172,-27158954.620361328,-2827464.3421173096,7703716.75491333,10232326.50756836,7159225.4638671875,23778232.57446289,34482910.15625,-41262268.06640625,-24807039.260864258,-8530001.640319824,1935181.3793182373,8366326.332092285,8066224.098205566,7731428.146362305,17414455.41381836,31083713.53149414,-34442081.451416016,-5919411.659240723,-1835235.7149124146,5248434.543609619,4851560.592651367,6812809.467315674,9561163.902282715,13865822.792053223,20043811.798095703,-13767580.98602295,506313.7412071228,-6255542.755126953,1738247.1561431885,-2163509.1304779053,3643897.533416748,4289786.338806152,8979457.85522461,16603193.283081055,80836.39293909073,340084.4931602478,6197167.39654541,5867283.821105957,-1848693.4900283813,4856613.636016846,-958139.6579742432,4195177.5550842285,15355510.711669922,7932594.299316406,7902472.972869873,14194425.582885742,2413705.1105499268,5139440.059661865,12600122.451782227,11958008.766174316,12715877.532958984,13108282.089233398,11109458.923339844,11166336.059570312,10941747.665405273
0.265,-16841506.958007812,10384557.723999023,48848709.10644531,-14864924.430847168,21441558.837890625,-64949943.54248047,-34152187.34741211,-34020202.63671875,-6001931.190490723,7304355.621337891,11873242.378234863,11408778.190612793,29845336.9140625,40661708.83178711,-48905387.87841797,-30747043.60961914,-12185267.448425293,253258.55612754822,9639902.114868164,11429451.942443848,11475400.924682617,20876129.150390625,34394294.73876953,-39593357.08618164,-10019680.02319336,-5420719.146728516,3228194.7135925293,5199094.772338867,8861651.420593262,11167041.778564453,15575186.729431152,21494831.085205078,-17232435.22644043,-2148340.2252197266,-7258977.41317749,1123625.636100769,-2068253.0403137207,4355731.964111328,4291800.022125244,8620118.141174316,15890819.549560547,-2385852.098464966,-2463813.543319702,5750039.577484131,6114335.536956787,-1979390.1443481445,5202598.094940186,-2262640.7146453857,2828533.64944458,13805334.091186523,6973686.218261719,6838175.7736206055,13693348.88458252,1852567.195892334,4042048.931121826,10714453.69720459,9938781.73828125,12282036.781311035,12196212.768554688,11659678.45916748,10182845.115661621,10337677.955627441
0.27,-20234901.428222656,8749943.733215332,46569572.44873047,-18822654.724121094,19421510.696411133,-71093078.61328125,-39589969.635009766,-39435298.919677734,-10423754.692077637,3556921.95892334,8997419.357299805,8807209.014892578,27979799.270629883,38006267.54760742,-54396884.91821289,-36256065.368652344,-17606327.056884766,-4806059.837341309,6460698.127746582,9022533.416748047,9186123.847961426,18736059.188842773,31067289.352416992,-43552623.7487793,-14379402.160644531,-10077529.907226562,228077.09872722626,3522800.6839752197,7986175.060272217,10215313.911437988,13527280.807495117,18342094.42138672,-21751184.463500977,-5066925.525665283,-8987970.352172852,640252.7093887329,-1966622.4718093872,4897050.380706787,2741423.8452911377,7076395.034790039,12405370.712280273,-4894654.273986816,-4332804.6798706055,5525246.620178223,7367660.999298096,709724.6646881104,8171318.054199219,-2559379.5776367188,1415228.7244796753,10629961.967468262,5473541.736602783,5398278.713226318,13718513.488769531,3709187.9844665527,4646059.989929199,8680368.423461914,7750842.094421387,8677282.333374023,10013218.879699707,10189021.110534668,8389197.34954834,6688477.993011475
0.275,-33053405.76171875,-1734330.177307129,37290496.826171875,-27172889.709472656,11094903.945922852,-77456314.08691406,-45755619.049072266,-45592765.80810547,-17790866.85180664,-4454164.028167725,321521.93784713745,-871599.1973876953,19071458.81652832,29574703.216552734,-58684844.970703125,-41270236.96899414,-22722829.818725586,-10652332.305908203,136975.09467601776,1298591.136932373,1429870.1286315918,12369525.909423828,25250865.936279297,-47372390.74707031,-18477083.206176758,-13300189.971923828,-1697159.4095230103,543329.0004730225,4448967.933654785,6869527.339935303,9336496.353149414,14104875.564575195,-25428314.208984375,-7705890.17868042,-10771277.42767334,215009.1975927353,-1801816.9403076172,5095614.910125732,1738827.9438018799,5945309.638977051,9775727.272033691,-6597075.939178467,-4748969.554901123,5020541.191101074,8870589.256286621,4295412.540435791,11689193.725585938,-320680.05204200745,2142382.6217651367,9993466.3772583,3943680.0479888916,4057748.317718506,14580498.695373535,6448333.263397217,7391818.523406982,9315201.759338379,8374402.99987793,5269762.992858887,8296969.413757324,8732169.151306152,7968087.196350098,4321467.876434326
0.28,-45890232.08618164,-13705943.10760498,27197811.126708984,-34993507.385253906,3312239.646911621,-80814086.9140625,-48866397.857666016,-48741542.81616211,-23542608.2611084,-10868974.685668945,-7237405.300140381,-8617061.614990234,12371608.73413086,24489824.295043945,-59575790.40527344,-42685157.775878906,-23961917.877197266,-12764700.889587402,-4330274.1050720215,-5127389.430999756,-4804397.5830078125,7702887.535095215,22943613.052368164,-48573863.9831543,-19496084.213256836,-13005892.753601074,-1322042.2267913818,-1622064.232826233,1418435.6927871704,3672800.7793426514,6446229.457855225,12981962.203979492,-25402759.552001953,-8064848.899841309,-10894241.333007812,170595.97373008728,-1774193.286895752,4662180.423736572,1904000.163078308,5785204.4105529785,10109951.01928711,-6386445.52230835,-3877385.8547210693,4872835.159301758,10205701.82800293,6078555.107116699,12549956.321716309,2168513.059616089,3910343.4085845947,12342046.737670898,3536206.7222595215,3764878.511428833,16082983.016967773,8128956.7947387695,9709733.009338379,11590634.3460083,10822404.861450195,5569093.227386475,8589211.463928223,8916550.636291504,9374681.47277832,5789097.309112549
0.285,-39732143.40209961,-10609435.081481934,29545253.75366211,-31695348.739624023,5550912.380218506,-74742958.06884766,-43477691.650390625,-43479263.30566406,-22110368.728637695,-9949904.441833496,-6745025.634765625,-6867079.257965088,14644867.897033691,27710914.611816406,-54673820.49560547,-37863758.0871582,-20039587.020874023,-9836713.790893555,-3996614.2177581787,-5038625.240325928,-4055304.527282715,8849107.74230957,25509119.033813477,-44166164.39819336,-15695970.53527832,-9453676.223754883,858334.3625068665,-1642270.9226608276,1456342.9355621338,3147689.3424987793,6981981.27746582,15403217.315673828,-21705024.71923828,-5337071.895599365,-9038597.106933594,705382.3471069336,-2084106.683731079,3644077.0626068115,2106461.763381958,6111625.671386719,12061813.354492188,-4611360.0730896,-2857925.8918762207,5360692.501068115,10485734.939575195,4530987.739562988,9921039.581298828,1698654.055595398,3946311.4738464355,14131838.79852295,4236669.063568115,4360240.936279297,16271041.870117188,7173395.156860352,8401741.981506348,11782701.49230957,11161941.528320312,8024342.5369262695,9792719.841003418,9276000.022888184,10207078.93371582,7988744.258880615
0.29,-20434947.967529297,4435795.307159424,41475761.41357422,-20231033.325195312,14760872.840881348,-63619407.653808594,-33968753.814697266,-34068618.77441406,-16589059.829711914,-4590047.836303711,-860695.9581375122,482865.3931617737,21889825.82092285,34604656.21948242,-47652465.8203125,-30812271.118164062,-14764936.447143555,-5751572.132110596,-1135100.4838943481,-591468.9302444458,1356135.1299285889,13775903.701782227,29498218.536376953,-37313766.47949219,-10312149.047851562,-5627810.478210449,3081262.8269195557,-425891.04175567627,3813562.3931884766,5379726.409912109,10345882.415771484,18705274.58190918,-18089382.17163086,-2188527.1072387695,-7336020.469665527,1286007.6427459717,-2484112.9779815674,2904095.8881378174,1908234.0002059937,6944047.451019287,13463299.751281738,-3253077.507019043,-3018190.860748291,5336575.508117676,8944380.760192871,766516.3278579712,6426028.728485107,-1064001.0833740234,2185060.739517212,13437628.746032715,4606324.672698975,4458003.997802734,13579341.888427734,3747384.548187256,4027479.648590088,9022128.105163574,8306857.109069824,8428449.630737305,9457137.107849121,7837417.6025390625,8519628.524780273,6990172.863006592
0.295,-15560693.740844727,9206995.964050293,44414260.86425781,-15929740.905761719,18479612.350463867,-59700557.708740234,-31152507.781982422,-31157920.837402344,-15146056.175231934,-1939375.2813339233,2593853.235244751,4031787.395477295,25529949.188232422,37633815.76538086,-44967708.587646484,-28653287.887573242,-12993069.648742676,-4488186.359405518,878451.5261650085,2719892.978668213,5408303.260803223,17571458.81652832,31876844.40612793,-34798995.97167969,-8378743.1716918945,-4579018.592834473,3841688.871383667,297412.2762680054,6025683.879852295,8311742.782592773,14330278.396606445,21033720.016479492,-17333694.458007812,-1882057.4283599854,-7925849.914550781,1046884.1791152954,-2457870.0065612793,3353612.8997802734,2466723.4420776367,8887220.38269043,14192632.675170898,-3246555.0899505615,-4259599.208831787,3779083.013534546,6337167.263031006,-2274273.39553833,5207252.979278564,-2291625.0228881836,1441218.0185317993,12559865.951538086,3958869.9340820312,3551289.7968292236,9756802.558898926,296275.91371536255,840688.1093978882,6806714.5347595215,5844222.068786621,6548006.534576416,7516553.87878418,5757076.740264893,5904970.645904541,4316292.285919189
0.3,-31452854.15649414,-2549303.5316467285,33386135.10131836,-22865196.228027344,14124475.479125977,-64616966.247558594,-36127521.51489258,-35918365.478515625,-18052921.295166016,-2366490.602493286,2616766.6912078857,2595043.659210205,24584346.771240234,36543014.52636719,-46609390.25878906,-31494863.510131836,-14148827.55279541,-4767191.8869018555,2289057.970046997,3720258.951187134,6651237.964630127,18955480.575561523,33377452.850341797,-37329669.95239258,-10005024.909973145,-5844571.590423584,3485084.056854248,283534.61623191833,7112743.854522705,10297121.047973633,17282690.048217773,22969844.818115234,-17766996.383666992,-3566728.8303375244,-9909640.312194824,65974.80177879333,-1923620.4624176025,4718123.435974121,4596628.189086914,11714202.880859375,15470222.473144531,-2957569.360733032,-4822702.407836914,1847011.8045806885,4673121.929168701,-2638174.533843994,6526798.725128174,-280680.5670261383,3126085.042953491,13956125.259399414,3649149.8947143555,3141670.7038879395,8539459.228515625,-481348.51455688477,1665328.9794921875,7974669.933319092,6905542.850494385,6299974.44152832,6807103.157043457,5860072.612762451,5494418.144226074,4591261.863708496
0.305,-40521549.224853516,-8370751.38092041,28260969.161987305,-26310997.009277344,14014014.24407959,-66630355.83496094,-38096717.834472656,-37819103.2409668,-16936731.338500977,355793.89333724976,5629673.957824707,4075848.10256958,26299676.8951416,38302639.00756836,-46762123.107910156,-32310588.836669922,-13544178.009033203,-2796899.7955322266,5033560.276031494,5587860.107421875,8754490.852355957,21210992.81311035,36504364.013671875,-38685226.44042969,-10745635.986328125,-6122591.018676758,3668557.643890381,615770.0419425964,8011633.87298584,11709706.30645752,19322868.34716797,25756677.627563477,-16594169.616699219,-3348196.7449188232,-10339938.163757324,-414823.62151145935,-1417644.8583602905,5849406.719207764,7342928.409576416,14252991.676330566,17663516.998291016,-725705.623626709,-3363805.7708740234,1907414.7939682007,5257471.561431885,-956406.29529953,8215993.881225586,2711019.0391540527,5490353.107452393,16640985.488891602,5238548.278808594,4810589.790344238,11251276.016235352,1694690.465927124,4871569.1566467285,10989809.036254883,10058700.561523438,9431773.18572998,9286924.362182617,8514151.573181152,7894852.161407471,8450038.90991211
0.31,-23688800.811767578,8945799.827575684,44783473.96850586,-15657948.49395752,26606466.29333496,-60414398.193359375,-31689754.486083984,-31561162.9486084,-8610781.6696167,8164501.190185547,14307758.331298828,12509004.592895508,34891403.19824219,47304065.7043457,-44161384.58251953,-28462400.436401367,-10282176.01776123,1009302.9737472534,8369152.069091797,9628462.791442871,13643546.104431152,26672859.19189453,42164901.73339844,-36230617.52319336,-8940422.058105469,-4344810.009002686,4697609.901428223,1649497.628211975,9582651.138305664,13703669.548034668,21591302.8717041,29681457.51953125,-14760507.583618164,-441297.11389541626,-8523062.705993652,240474.79033470154,-1422792.3154830933,6331854.343414307,9210357.666015625,15946465.492248535,20248170.852661133,2190320.7302093506,-923356.1158180237,4250505.9242248535,7347783.56552124,799663.782119751,8841482.162475586,4267007.350921631,6887624.740600586,18652769.088745117,8060759.544372559,7794142.723083496,15258852.9586792,4589954.853057861,7359584.808349609,12988792.419433594,12246915.817260742,13063499.450683594,13306052.207946777,11405824.661254883,10995090.48461914,12073965.072631836
0.315,-1582944.393157959,32933948.516845703,68685211.18164062,-1987661.0040664673,42325477.600097656,-57369628.90625,-26433961.868286133,-26418216.705322266,-1330386.6386413574,14881751.06048584,22629392.623901367,21296136.8560791,45078514.099121094,59227943.420410156,-45045604.70581055,-26787834.16748047,-9339654.922485352,2179010.3912353516,9798510.551452637,13113752.365112305,18158432.006835938,32736053.466796875,48821369.17114258,-35795436.85913086,-8685473.442077637,-3887089.729309082,4657751.560211182,2457825.6607055664,11425426.483154297,15885896.682739258,24215845.108032227,34043506.62231445,-15811225.891113281,861557.66248703,-7514618.396759033,770899.4150161743,-1805219.054222107,6799716.472625732,9719933.50982666,17157491.68395996,22813974.380493164,2685662.5080108643,-142104.98332977295,6055324.077606201,8852540.969848633,1345463.0374908447,8932104.110717773,4616535.186767578,7986999.034881592,20280942.916870117,9448119.163513184,9314414.978027344,16977140.426635742,5770680.904388428,8289087.295532227,13777116.775512695,13092924.118041992,14176504.135131836,15354299.545288086,12693432.807922363,12861553.192138672,13052100.18157959
0.32,-4960512.161254883,35453746.7956543,73338851.92871094,-2933547.4967956543,45314563.7512207,-69029663.0859375,-33089420.318603516,-32945743.560791016,-3616669.4164276123,14590250.015258789,23728078.842163086,22044456.481933594,48700988.76953125,65878532.40966797,-53765090.94238281,-33775611.877441406,-14240908.6227417,-1117864.3703460693,8955821.990966797,13398528.099060059,18419723.510742188,34672969.818115234,53536869.049072266,-42822940.826416016,-13795241.355895996,-7851025.581359863,2291405.439376831,2311130.2852630615,12422230.72052002,16195024.490356445,25427808.76159668,37211334.228515625,-20977273.94104004,-3174266.576766968,-10156372.0703125,-337721.0795879364,-2118098.735809326,7516561.031341553,9145906.448364258,17647256.85119629,24521539.68811035,-724267.1847343445,-2573658.7047576904,4568666.458129883,8400055.885314941,825584.4712257385,9360366.821289062,4795188.903808594,9443232.536315918,22178380.966186523,7411355.972290039,7377943.515777588,15412585.258483887,4773644.44732666,8567629.81414795,14470818.519592285,13764986.991882324,13022762.298583984,13703546.524047852,12319888.1149292,13020455.360412598,12582999.229431152
0.325,-31318975.4486084,15008997.917175293,54742046.35620117,-18852945.32775879,33412479.400634766,-89600006.10351562,-48308856.96411133,-47954441.07055664,-13240058.898925781,8458297.729492188,17743091.583251953,15036371.231079102,44010478.97338867,63586563.11035156,-66266494.75097656,-46002723.693847656,-21736265.182495117,-5587169.170379639,7435543.060302734,11019347.190856934,14647643.089294434,31094203.94897461,53351325.98876953,-54034553.52783203,-22243848.80065918,-14152733.80279541,-672877.3713111877,1545125.126838684,11701672.554016113,13489500.999450684,23392608.642578125,36756301.87988281,-28043210.983276367,-10749755.859375,-15203947.067260742,-2430394.8879241943,-2200632.8105926514,7818546.295166016,7785467.624664307,16204511.642456055,23337686.53869629,-6855670.928955078,-7370369.434356689,383890.0923728943,6681262.016296387,400449.15676116943,10149298.667907715,4535585.880279541,9723522.186279297,22189647.674560547,2439851.999282837,2549666.404724121,12306457.51953125,3186017.5132751465,8484206.199645996,14146180.152893066,13468712.80670166,10667129.516601562,9414145.469665527,10447816.848754883,11344582.557678223,11386460.304260254
0.33,-52222869.873046875,-4682157.99331665,33823829.650878906,-34684177.39868164,18888151.168823242,-103796180.72509766,-60102809.90600586,-59739036.560058594,-21839189.529418945,1364043.116569519,9791552.543640137,7170633.792877197,35928497.314453125,55369995.1171875,-75736457.82470703,-54870864.86816406,-26474960.327148438,-8017819.404602051,5623531.341552734,7992432.594299316,10144239.42565918,25101732.25402832,47336273.193359375,-62216808.3190918,-28918823.2421875,-18043878.55529785,-1863170.5045700073,715254.1279792786,9371706.96258545,9539985.656738281,18806871.41418457,31375879.287719727,-34472347.259521484,-17053434.371948242,-19036066.05529785,-3357534.646987915,-2200294.4946289062,7493521.213531494,6279005.05065918,12649353.981018066,17975482.940673828,-13491068.840026855,-12325106.620788574,-3421459.197998047,5621448.993682861,1336116.5523529053,11148735.046386719,3468312.7403259277,7320606.231689453,17589258.193969727,-3116550.4455566406,-2829273.462295532,9810489.654541016,2919719.696044922,7766294.002532959,11035701.751708984,10431218.147277832,6546458.721160889,4641994.953155518,6968777.179718018,7835453.033447266,7721290.111541748
0.335,-53470108.03222656,-8022842.4072265625,27701000.213623047,-40300796.50878906,12590060.234069824,-105827346.80175781,-63243221.282958984,-63070083.61816406,-25644893.646240234,-3748834.6099853516,4038414.478302002,2950371.742248535,29814743.041992188,46970024.10888672,-79844917.29736328,-56999305.725097656,-27691091.537475586,-9230047.225952148,2832973.7186431885,5461842.5369262695,7378287.792205811,20674644.470214844,38607791.900634766,-65048515.31982422,-31260953.903198242,-18139884.94873047,-1736175.0602722168,-95289.76678848267,6826155.662536621,7444435.596466064,14777034.759521484,23478992.462158203,-38870250.7019043,-19569595.336914062,-19961540.22216797,-2384433.0310821533,-2173825.740814209,7478947.162628174,5736275.672912598,9067249.298095703,10798623.085021973,-18356185.913085938,-15331590.65246582,-4664621.829986572,6252103.805541992,3645278.9306640625,12308142.66204834,2452135.5628967285,3637923.4790802,10065586.09008789,-6670593.738555908,-6305179.595947266,8901384.353637695,4213103.294372559,6790109.157562256,6299662.113189697,5740034.580230713,967193.7227249146,1202742.576599121,2997864.246368408,3821064.233779907,1448493.0038452148
0.34,-45832317.35229492,-1327314.3768310547,33511859.893798828,-38360229.4921875,14731576.919555664,-101672653.19824219,-61655696.868896484,-61622165.67993164,-26506120.681762695,-5910453.319549561,2045667.1714782715,1690375.0896453857,27782592.7734375,42956062.31689453,-79391670.22705078,-55171585.08300781,-27890630.7220459,-10915142.059326172,59901.21141076088,3824807.643890381,6574769.973754883,19410886.764526367,33187416.076660156,-64358627.31933594,-29827806.47277832,-16719945.907592773,-2242143.8694000244,-765774.0116119385,5716875.5531311035,8134944.915771484,13825373.649597168,18487047.19543457,-39687477.111816406,-18627260.208129883,-18801931.381225586,-784806.1323165894,-2001757.6217651367,8272233.963012695,6498293.399810791,7910593.032836914,6889822.483062744,-19214942.932128906,-15085373.878479004,-3412483.6921691895,7800539.493560791,5529025.554656982,12814732.551574707,2077404.0222167969,1571342.3490524292,5253860.4736328125,-6663573.265075684,-6379818.916320801,9465946.197509766,5330731.8687438965,5969025.611877441,3572132.110595703,3035428.047180176,-2588265.6574249268,328983.0982685089,837026.7152786255,1642565.8464431763,-3271637.201309204
0.345,-40619724.27368164,4744833.469390869,40622291.564941406,-34502887.72583008,20034154.891967773,-96809379.57763672,-59010223.388671875,-58940105.43823242,-25776685.71472168,-4462777.614593506,3869945.0492858887,1810176.2533187866,29486589.431762695,45026882.17163086,-74495315.55175781,-51878730.77392578,-27520008.087158203,-11838348.388671875,-531261.5036964417,3404084.2056274414,7056689.262390137,20707988.739013672,35043228.14941406,-60361434.93652344,-25636585.235595703,-15010953.903198242,-2924138.307571411,-791182.8756332397,6139479.160308838,9611945.152282715,15799695.014953613,20176643.37158203,-35614784.240722656,-14869750.022888184,-16318391.799926758,480575.0250816345,-1668415.904045105,8772719.383239746,7374984.264373779,9476200.103759766,9137960.433959961,-15252737.045288086,-11700735.092163086,-692556.619644165,8996656.41784668,5125310.897827148,11478348.731994629,1413206.4580917358,2006697.177886963,6546246.05178833,-3321980.2379608154,-3127636.671066284,10894901.275634766,4618210.792541504,4737288.475036621,4486687.183380127,3978650.0930786133,-817769.2294120789,2314531.8031311035,1485278.2487869263,2354656.69631958,-2277920.961380005
0.35,-35938385.009765625,9392811.77520752,45120056.15234375,-29903030.395507812,24866283.416748047,-91153579.71191406,-54916046.142578125,-54752071.380615234,-22809448.2421875,-307594.6271419525,8005192.756652832,3379070.520401001,33188041.68701172,50933578.49121094,-66419082.64160156,-47416900.634765625,-25127288.818359375,-10089594.841003418,1059662.4612808228,4057574.74899292,8297931.671142578,23274215.698242188,41907394.40917969,-52652553.55834961,-20178911.209106445,-12111042.022705078,-1479687.4523162842,17702.093347907066,6505399.703979492,9866687.774658203,18750703.811645508,26668087.005615234,-28399602.89001465,-9511201.858520508,-12843739.50958252,1801885.6048583984,-1373984.0984344482,7916903.018951416,6982856.273651123,11947397.232055664,14949458.122253418,-8977036.476135254,-7299318.313598633,2368752.0027160645,9528675.079345703,2926423.7880706787,8683937.072753906,-242126.40523910522,3306175.2319335938,11302843.09387207,1082135.3197097778,1344352.0069122314,12239982.604980469,2611690.7596588135,2627464.0560150146,6773822.30758667,6248965.740203857,4476769.924163818,5673890.113830566,3286604.404449463,4533358.573913574,2920685.291290283
0.355,-28865144.729614258,14825984.954833984,48004352.56958008,-24395732.879638672,27963544.845581055,-84963729.85839844,-49599552.154541016,-49415203.09448242,-18170013.427734375,3698230.266571045,11866036.415100098,6172374.725341797,36053295.13549805,55178077.697753906,-60000862.12158203,-43231033.32519531,-21498168.9453125,-6871178.150177002,2713128.8051605225,5208023.548126221,9804067.611694336,25491512.298583984,47050502.77709961,-45306987.76245117,-16682441.711425781,-8745751.38092041,1775664.5679473877,1038967.6094055176,5770833.492279053,9247920.989990234,20768016.815185547,31812583.923339844,-23162315.368652344,-6086588.8595581055,-10253621.101379395,3086623.9070892334,-1328174.4718551636,6600807.189941406,5445337.295532227,13334663.391113281,18664886.474609375,-5173763.275146484,-5129155.158996582,4091710.090637207,9549495.697021484,1230045.3186035156,6609233.856201172,-1770685.4343414307,3680263.2808685303,14040978.43170166,3197811.6035461426,3604144.57321167,12239851.951599121,1183658.8382720947,546937.7040863037,7217945.575714111,6599665.16494751,7457221.984863281,7362051.486968994,3693862.9150390625,5667673.110961914,6299708.843231201
0.36,-24143236.16027832,18273490.90576172,48847457.88574219,-19747415.54260254,28938270.568847656,-81499382.01904297,-45794136.04736328,-45653297.424316406,-14042199.13482666,5775302.886962891,14102646.827697754,8474210.739135742,35925086.975097656,53720336.9140625,-59490520.47729492,-41948795.318603516,-19486629.486083984,-5015314.57901001,3665756.4640045166,6619028.568267822,10977299.690246582,25693004.608154297,46010322.57080078,-44556694.03076172,-17777013.778686523,-7929077.625274658,3326838.970184326,1476005.3157806396,4892698.287963867,9154114.723205566,20804050.44555664,31126262.664794922,-23972059.24987793,-7990706.920623779,-11089656.829833984,2929411.6497039795,-1555411.458015442,6500767.230987549,4086907.8636169434,12899786.949157715,17177736.282348633,-6746386.0511779785,-6918518.543243408,2921309.70954895,8637727.737426758,1023314.7144317627,6617811.20300293,-1958895.3256607056,2764228.105545044,12165357.58972168,980501.5921592712,1394698.143005371,9952465.057373047,777076.6615867615,-441297.6801395416,4993778.228759766,4304383.754730225,4605922.222137451,5022119.522094727,1719431.5195083618,4296823.501586914,4016633.987426758
0.365,-24470504.760742188,17789609.909057617,47965824.127197266,-17224868.774414062,28669775.009155273,-81943298.33984375,-44679981.23168945,-44606254.57763672,-11542858.123779297,6725262.641906738,15242638.58795166,9041197.776794434,33708526.611328125,48898204.8034668,-63057765.96069336,-43300769.8059082,-19573650.360107422,-4921094.89440918,5032681.941986084,8110275.2685546875,11403182.029724121,23830785.751342773,41208652.49633789,-50388381.95800781,-21667375.564575195,-10161464.69116211,1549488.0676269531,1135631.3228607178,5218249.797821045,9687694.549560547,19182107.92541504,26362415.313720703,-29534276.962280273,-13543177.604675293,-14624479.293823242,961965.5609130859,-1904369.3542480469,7521396.160125732,3920746.8032836914,11476866.722106934,12818805.694580078,-11936855.31616211,-10999685.287475586,-451660.51387786865,6503033.16116333,875506.4010620117,7600475.311279297,-1514595.9854125977,1395123.9585876465,7853507.041931152,-4273730.754852295,-3986669.3019866943,5791891.098022461,-109634.30255651474,-878961.3842964172,1709687.1137619019,1064212.7990722656,-1597691.0591125488,-506924.569606781,-1597999.8111724854,913986.2060546875,-1710584.4020843506
0.37,-25521892.547607422,16516057.968139648,48019668.57910156,-16807250.9765625,28246294.021606445,-83416839.59960938,-44732505.798339844,-44750835.41870117,-10920385.360717773,6724444.389343262,15063713.073730469,8310253.143310547,32459400.177001953,47263362.884521484,-65051597.595214844,-44012142.181396484,-19469768.524169922,-5098866.939544678,6388749.599456787,8548128.128051758,11052152.633666992,22439662.93334961,39229454.040527344,-55417407.98950195,-23485681.533813477,-11694605.827331543,-760606.4081192017,301209.032535553,6402100.086212158,10101820.945739746,18129648.208618164,23855726.24206543,-34147857.666015625,-16692718.505859375,-16548530.578613281,-657431.4832687378,-2122045.5169677734,8153322.219848633,5267156.12411499,11196285.247802734,10957872.39074707,-15977637.29095459,-13582663.536071777,-2926456.2129974365,4409513.473510742,-348479.86698150635,8072263.717651367,-1369405.98487854,1345216.5126800537,5619530.200958252,-8415643.692016602,-8173745.155334473,1952654.242515564,-2016910.7913970947,-1419958.5914611816,-16513.78907263279,-583201.8256187439,-5461828.231811523,-5142096.042633057,-3966637.61138916,-2038972.3777770996,-5154637.336730957
0.375,-24950307.846069336,16313875.198364258,49127140.045166016,-19188554.763793945,26839412.689208984,-83494308.47167969,-45174606.32324219,-45263805.3894043,-13132842.063903809,3916499.137878418,11930456.161499023,7028452.8732299805,33544071.197509766,51497520.446777344,-63130699.157714844,-42717308.044433594,-18577993.392944336,-5670461.654663086,5321940.898895264,6850505.828857422,10335622.787475586,24125360.4888916,43379493.713378906,-54086605.072021484,-21295707.70263672,-10086182.594299316,-791374.921798706,-645796.1201667786,7174196.720123291,10681552.88696289,20157318.115234375,27614088.05847168,-33346599.578857422,-14261766.43371582,-14463278.770446777,9119.341149926186,-1997010.350227356,8116287.2314453125,8003326.416015625,13751680.374145508,14566185.95123291,-15608929.634094238,-12461305.618286133,-2376840.353012085,4228661.060333252,-1418457.8657150269,8577955.24597168,-383849.561214447,4298514.366149902,8227296.829223633,-8029466.62902832,-7679379.940032959,891200.9000778198,-2837231.6360473633,-606202.6023864746,1906795.620918274,1335057.020187378,-3874835.49118042,-5098856.449127197,-3266140.4609680176,-1669995.3079223633,-2831366.0621643066
0.38,-26535444.259643555,14192108.154296875,47502109.52758789,-24590250.01525879,23361885.07080078,-83332595.82519531,-47065151.21459961,-47095863.342285156,-17978109.35974121,-1258268.3563232422,6628529.071807861,5560807.704925537,35318103.7902832,57189846.03881836,-60528972.62573242,-42101615.90576172,-19404617.309570312,-8028459.548950195,1870284.5573425293,4398856.163024902,10168660.163879395,28070005.416870117,50077140.80810547,-49785526.275634766,-18691255.569458008,-8546529.769897461,-45286.04820370674,-1170796.0367202759,7520675.182342529,12346207.618713379,24686571.12121582,34629829.40673828,-28726688.385009766,-10274453.163146973,-11652897.834777832,1534884.0951919556,-1580643.653869629,8790600.776672363,11107550.621032715,17982633.590698242,20987571.716308594,-12312588.691711426,-9525463.104248047,-538777.4109840393,5791217.803955078,-740834.2361450195,10448910.7131958,2838876.485824585,9476396.560668945,13991834.64050293,-4155832.7674865723,-3731876.6117095947,2703943.7294006348,-600546.4792251587,3297909.4982147217,7028839.111328125,6425590.515136719,824438.214302063,-1005674.6006011963,335155.33804893494,2317578.077316284,3216312.885284424
0.385,-30411828.994750977,10208409.309387207,43205242.15698242,-29068527.221679688,20680892.944335938,-84644912.71972656,-49919658.66088867,-49755374.908447266,-21416305.541992188,-3398229.5989990234,4302286.624908447,5310542.106628418,36350212.09716797,59297149.658203125,-61196155.5480957,-44536258.697509766,-22902034.759521484,-10987189.292907715,292652.8751850128,4549616.813659668,11592679.023742676,30768417.358398438,53395389.556884766,-49772838.5925293,-20043649.673461914,-11167153.358459473,-1445942.4018859863,-690879.6429634094,8525856.018066406,14616697.311401367,27717540.740966797,38218917.84667969,-26511980.056762695,-10775032.997131348,-12810608.863830566,979396.2240219116,-1220351.6960144043,10636477.47039795,12621630.668640137,20243009.567260742,24491373.06213379,-10880111.694335938,-8924293.518066406,-922862.2913360596,6737135.410308838,869844.1982269287,13009928.703308105,6649781.227111816,13082869.529724121,17950262.06970215,-1584676.8617630005,-1232696.294784546,4629596.710205078,3161675.214767456,8486657.14263916,11562252.044677734,11026391.983032227,3583719.253540039,2384890.31791687,3543510.913848877,6327566.623687744,7586537.837982178
0.39,-29417573.928833008,11078633.308410645,43047733.306884766,-27069042.205810547,23922445.29724121,-86155471.80175781,-50578842.16308594,-50242549.896240234,-18890306.47277832,1925133.1090927124,9109166.145324707,8576086.99798584,37975402.83203125,58872875.21362305,-64554656.982421875,-47813179.01611328,-25471982.955932617,-10794730.186462402,3832618.7133789062,8551102.638244629,14757097.244262695,30640741.3482666,52157855.98754883,-54973201.751708984,-24480670.928955078,-15840297.69897461,-4011362.5526428223,750409.4839096069,10223600.387573242,15789961.814880371,26526931.762695312,36004611.96899414,-30199541.091918945,-15630125.045776367,-17227067.947387695,-1566951.1556625366,-1198008.1796646118,11948851.585388184,11548274.993896484,18555448.532104492,22449739.456176758,-13863246.91772461,-12101297.378540039,-3939078.5694122314,5770152.568817139,1221251.6069412231,13904962.539672852,7633876.800537109,12156444.549560547,16898704.528808594,-3318399.667739868,-3017658.9488983154,4220422.744750977,4824177.265167236,10490366.93572998,11637745.85723877,11201489.448547363,2263852.119445801,1580873.966217041,2980787.2772216797,6425237.17880249,7202089.309692383
0.395,-21320196.1517334,19131605.14831543,49885227.20336914,-19446594.23828125,32300209.045410156,-84918220.52001953,-47226184.8449707,-46880382.5378418,-11948462.48626709,10778511.047363281,17599891.662597656,14869561.195373535,41533786.77368164,60073791.50390625,-65854438.78173828,-47520401.00097656,-23370210.647583008,-6451148.986816406,9576498.985290527,13140927.3147583,18069993.97277832,29791852.951049805,50448036.193847656,-58404125.21362305,-26564813.6138916,-16386211.395263672,-4023149.4903564453,2146115.54145813,11085124.969482422,15293515.2053833,23365264.892578125,32467773.4375,-35330844.87915039,-18398305.892944336,-19351583.48083496,-2768042.0875549316,-1392249.584197998,11170511.245727539,9543028.831481934,15414721.488952637,18193620.681762695,-17730560.302734375,-15347233.772277832,-5848837.852478027,4716546.535491943,28487.38431930542,12250102.996826172,5266248.2261657715,8545413.01727295,13177471.160888672,-6479771.137237549,-6063634.395599365,2710383.415222168,3335890.293121338,7804131.984710693,8019286.155700684,7542159.080505371,-45602.839440107346,-1311156.8689346313,-406811.8631839752,3288231.611251831,4453941.822052002
0.4,-16045549.392700195,24250177.38342285,54585201.263427734,-14782252.311706543,36797580.71899414,-80596481.32324219,-42717849.73144531,-42472911.8347168,-8090390.205383301,13874403.953552246,21018995.28503418,19088815.689086914,44642395.01953125,62754417.419433594,-61861385.345458984,-43087024.6887207,-18525960.92224121,-2428559.3032836914,11407171.249389648,13773706.436157227,19002017.974853516,30299024.58190918,51371452.33154297,-54675060.2722168,-23202041.625976562,-11559194.564819336,-1053477.168083191,2326309.2041015625,10072107.315063477,14365181.922912598,22457162.857055664,32687763.214111328,-34422622.68066406,-14740380.28717041,-16302505.493164062,-831814.4083023071,-1478760.6000900269,9268193.244934082,9314624.786376953,14792903.900146484,16844528.198242188,-16641384.12475586,-13884548.18725586,-3490803.2417297363,6037130.832672119,-655927.7772903442,9946770.668029785,2840630.531311035,6979048.728942871,11952903.747558594,-5749316.215515137,-5205140.590667725,3590814.1136169434,1493763.9236450195,4268592.834472656,5630107.879638672,5016799.9267578125,794455.1110267639,-1383931.8752288818,-2022561.78855896,1454044.3420410156,3817939.043045044
0.405,-23112152.099609375,15815916.061401367,46922435.76049805,-19753103.256225586,30513341.903686523,-77431015.01464844,-42149215.69824219,-41951095.58105469,-12245445.251464844,7608192.920684814,15374487.87689209,16683633.804321289,43698505.40161133,63044952.392578125,-56016834.2590332,-39438541.412353516,-16885149.002075195,-3702835.0830078125,7460679.531097412,9927364.349365234,16671266.555786133,31235124.588012695,53347846.98486328,-48005447.38769531,-18109315.872192383,-7485940.933227539,836011.1713409424,1142867.5651550293,8216000.556945801,14216106.414794922,24550588.607788086,36065414.42871094,-27315906.524658203,-8352153.778076172,-11844292.640686035,1793467.0448303223,-1372420.1917648315,8601933.479309082,11416605.949401855,17227426.528930664,19347810.745239258,-10411539.077758789,-8249776.840209961,1285833.8356018066,9191421.508789062,550364.4943237305,9388023.376464844,3203589.677810669,9355299.949645996,14870687.484741211,-654448.0919837952,-176807.26945400238,7608199.119567871,1979764.9383544922,4247040.748596191,7480437.755584717,6868008.613586426,4363933.563232422,2367330.312728882,342410.71343421936,3184212.2077941895,6065164.566040039
0.41,-36888599.39575195,-399525.0463485718,31904838.56201172,-30434200.286865234,19084949.493408203,-80310943.60351562,-47106948.85253906,-46833084.10644531,-20534217.834472656,-1354722.6190567017,6689962.863922119,10331942.558288574,39862869.26269531,60586807.25097656,-55822868.34716797,-41376632.69042969,-20834312.438964844,-9225252.151489258,2163936.3765716553,5833586.2159729,13512141.227722168,31092514.038085938,53676685.33325195,-47394939.42260742,-17684032.440185547,-9429237.365722656,-1071691.5130615234,-352421.8499660492,7539405.822753906,14857455.253601074,26828020.095825195,38358791.35131836,-22634180.068969727,-6474043.846130371,-11392260.551452637,1843322.6346969604,-1254821.4197158813,10011673.927307129,13883945.46508789,19806901.931762695,22192310.333251953,-5834698.677062988,-4395760.059356689,3503306.3888549805,11036868.09539795,2412293.1957244873,10811717.03338623,5575395.584106445,12987370.491027832,18383611.67907715,3239534.854888916,3556428.1940460205,10953519.821166992,3783792.495727539,7185450.077056885,11012457.847595215,10563014.98413086,6264661.78894043,5523579.120635986,3255448.579788208,5487674.713134766,7679865.837097168
0.415,-42699058.532714844,-7673048.973083496,25076951.98059082,-36374691.009521484,14670263.290405273,-87392494.20166016,-52866756.439208984,-52488758.0871582,-24610235.2142334,-4198934.555053711,3911134.958267212,7442656.517028809,38112583.16040039,59152523.040771484,-62820987.701416016,-46939212.799072266,-25750793.45703125,-12800810.813903809,661583.662033081,5567732.810974121,12968890.190124512,30597700.119018555,52518917.083740234,-54182750.7019043,-22746728.897094727,-14575296.401977539,-4149622.4403381348,-940543.2343482971,8846318.244934082,15851427.07824707,27308187.48474121,37782569.885253906,-26402465.8203125,-10662386.894226074,-15105237.96081543,-365241.76597595215,-1231959.2237472534,12141054.153442383,15069725.036621094,20470041.275024414,22347726.821899414,-8075451.850891113,-6324613.571166992,1070163.1307601929,9735549.926757812,2850447.416305542,12554180.145263672,7514090.538024902,14757271.766662598,18923139.572143555,1611922.6217269897,1923736.0954284668,9847661.972045898,3986217.260360718,9161667.823791504,12112575.53100586,11719489.097595215,4321764.945983887,4289236.068725586,2457006.2160491943,4789825.439453125,6188327.789306641
0.42,-35303558.349609375,-1262594.6998596191,30305002.212524414,-32494495.391845703,19304056.16760254,-88094581.6040039,-51754322.05200195,-51392528.53393555,-21065771.102905273,-147537.41025924683,7898346.424102783,9712781.90612793,38693679.80957031,58448913.57421875,-67046165.466308594,-48006042.48046875,-25172201.15661621,-10408531.188964844,3185479.4025421143,8333962.440490723,14849599.838256836,30150594.71130371,50504405.9753418,-58489151.00097656,-26377708.435058594,-15790939.331054688,-4201060.2951049805,-397305.33957481384,10875362.396240234,16567977.905273438,26244779.586791992,35631515.50292969,-32700386.04736328,-14581871.98638916,-18048671.72241211,-1736028.9096832275,-1230600.118637085,13340023.040771484,15283544.540405273,19786634.44519043,20091234.20715332,-13200810.432434082,-10539440.155029297,-2597054.2430877686,7075023.651123047,1834841.012954712,13302652.359008789,8130947.113037109,14691040.0390625,17348472.595214844,-2479029.417037964,-2029589.4145965576,5884228.229522705,2281132.459640503,8770336.151123047,10926198.00567627,10341607.093811035,1809163.4511947632,925057.1131706238,-663043.3201789856,2372806.3106536865,3819929.1229248047
0.425,-23591238.021850586,4701057.910919189,32857940.673828125,-23468282.69958496,21403497.69592285,-72189132.69042969,-39826591.49169922,-39661956.787109375,-13981137.2756958,4182675.361633301,10845751.762390137,9686014.175415039,34496704.1015625,51386131.286621094,-55933803.55834961,-38380889.892578125,-17621749.877929688,-4257274.627685547,5886302.947998047,9617186.546325684,14677276.611328125,26731899.26147461,45088302.61230469,-49970520.01953125,-21153297.424316406,-10268213.272094727,-903986.4540100098,435791.16463661194,11441739.082336426,15526681.900024414,23464237.213134766,32022090.911865234,-29961296.08154297,-11245615.95916748,-16160190.58227539,-469623.3570575714,-1204893.1121826172,13150297.164916992,15181424.140930176,18338001.251220703,16799734.115600586,-12403317.45147705,-9872164.726257324,-2364943.9811706543,6526476.3832092285,1495187.759399414,13206473.350524902,7883699.893951416,14297634.12475586,16575063.705444336,-2029504.5375823975,-1547274.4703292847,4770044.803619385,1769058.7043762207,8527922.630310059,10945802.688598633,10169083.595275879,3480410.33744812,1237086.6537094116,-377618.7002658844,2525949.001312256,4586603.164672852
0.43,-18206567.764282227,-3282456.636428833,19355184.55505371,-16589189.529418945,11766435.623168945,-42088893.89038086,-20809432.983398438,-20943733.21533203,-8788763.999938965,3848625.898361206,6694363.117218018,937687.2181892395,20903413.772583008,33936737.060546875,-29039926.528930664,-20389940.26184082,-6980790.615081787,1012185.2159500122,5740298.271179199,6517834.663391113,9105805.397033691,17560182.571411133,33821510.314941406,-29473741.53137207,-7083253.383636475,-1168825.2687454224,3026993.2746887207,628516.1972045898,9321820.259094238,11350407.600402832,17911005.0201416,25536405.563354492,-14738789.558410645,-338208.01973342896,-9781426.429748535,2691776.752471924,-1153683.1855773926,11930728.912353516,14150184.631347656,15228935.241699219,12801755.905151367,-2238230.2284240723,-1727330.8038711548,3316831.111907959,9731744.766235352,3480464.9353027344,12965654.373168945,6734499.454498291,13627360.343933105,16978433.60900879,5676088.333129883,6004361.152648926,9717946.05255127,4859542.8466796875,10401565.551757812,13367630.004882812,12690424.919128418,10361192.70324707,7778735.160827637,5919699.668884277,6548874.855041504,9444274.90234375
0.435,-21307844.161987305,-20560876.846313477,-3747999.429702759,-13849515.914916992,-3353738.0695343018,-12764284.133911133,-3172091.484069824,-3567961.6928100586,-6601692.199707031,293387.9792690277,-1636684.0600967407,-12034094.81048584,4487285.614013672,13378503.799438477,208957.88073539734,-2471354.0077209473,2374647.617340088,3786090.135574341,3044087.6483917236,577585.9355926514,546474.3375778198,5944304.943084717,20325242.99621582,-7186433.792114258,9027564.04876709,7803518.295288086,6442080.020904541,12786.191888153553,5259537.220001221,5105681.896209717,10767955.780029297,17638902.66418457,5213721.752166748,12618387.222290039,-1736727.1184921265,6696167.469024658,-950976.6697883606,10075725.555419922,11386697.769165039,10511068.344116211,8744631.76727295,12506720.542907715,9713430.404663086,11532449.722290039,15239288.330078125,6998455.52444458,12717469.215393066,4483021.259307861,11976450.92010498,16742057.800292969,16697128.295898438,16847417.8314209,17903732.299804688,9961249.351501465,12807580.947875977,15550330.16204834,15167860.984802246,19634630.20324707,17490253.448486328,14443183.898925781,11428897.857666016,15874233.24584961
0.44,-28447626.1138916,-32544906.616210938,-19206830.978393555,-12723488.807678223,-11205589.294433594,2549102.0679473877,6805146.69418335,6239691.734313965,-5760668.2777404785,-3227607.7270507812,-7690600.872039795,-19463102.340698242,-4033108.2344055176,945284.0089797974,18328588.485717773,8677797.317504883,8470090.866088867,5208621.501922607,-514434.0395927429,-5012842.178344727,-5895464.4203186035,-1229511.8570327759,12024114.608764648,8436861.038208008,20583625.79345703,15316767.692565918,10178581.237792969,-1044908.2851409912,1202510.118484497,-18275.363370776176,5703357.696533203,13001028.060913086,20398469.924926758,22357408.52355957,5444799.423217773,11192724.227905273,-514129.638671875,8071323.394775391,7624830.722808838,6727401.256561279,6710462.0933532715,25090732.57446289,18831218.719482422,18342508.31604004,20193161.010742188,9860128.402709961,12331971.168518066,2338991.403579712,10277695.655822754,15677143.096923828,25587224.96032715,25616615.295410156,24132717.13256836,13529962.539672852,13539040.565490723,15518266.677856445,15274921.417236328,27803304.67224121,25477069.854736328,19870035.17150879,14268646.240234375,21068283.081054688
0.445,-36237659.4543457,-35686901.0925293,-22370870.59020996,-13245274.543762207,-10889718.055725098,2922792.1962738037,7867670.53604126,7165409.088134766,-7090923.309326172,-7452431.678771973,-11136104.583740234,-20020246.505737305,-3878349.542617798,-1614035.0103378296,22682012.5579834,11488973.617553711,9941518.783569336,4804139.614105225,-4528724.193572998,-9408085.823059082,-9042251.586914062,-2315150.499343872,11108675.003051758,15540502.548217773,25118547.439575195,19566154.47998047,13084836.00616455,-2443234.920501709,-1434959.1732025146,-2230487.108230591,4374225.13961792,13483827.590942383,27145381.927490234,27009346.00830078,9650585.174560547,14895533.561706543,-153640.68746566772,6781151.294708252,4845027.923583984,6143651.962280273,7818750.381469727,32217643.73779297,23572967.529296875,21987901.68762207,22992807.388305664,11212316.513061523,12468940.734863281,2431328.773498535,10703557.968139648,15913864.135742188,30308277.130126953,30183084.48791504,26701471.32873535,14738716.125488281,13745102.882385254,15282716.751098633,14901632.308959961,32480602.264404297,29354928.970336914,21232763.290405273,15478566.16973877,23961868.286132812
0.45,-45683685.302734375,-41153423.30932617,-25912555.694580078,-20225578.30810547,-14212353.706359863,-5037462.7113342285,1120160.2220535278,272625.207901001,-14099851.608276367,-15294169.425964355,-17197467.803955078,-22050197.60131836,-4569012.16506958,-2375484.4665527344,17924766.540527344,6849026.679992676,4926092.147827148,-34209.89587903023,-9404457.092285156,-13633308.410644531,-12009743.690490723,-2733203.172683716,11968835.830688477,14835108.757019043,22746902.465820312,17268547.05810547,11578183.1741333,-4309759.616851807,-2556930.7804107666,-2823550.224304199,4212497.711181641,15096623.420715332,26151933.670043945,26720628.73840332,9142113.68560791,15369534.492492676,-325054.8839569092,6903337.001800537,4518810.272216797,7657275.199890137,9894860.26763916,33402038.57421875,24916299.81994629,22984146.118164062,24248249.053955078,12305365.562438965,14179873.4664917,5245089.530944824,13702877.044677734,18391702.65197754,31686733.24584961,31416887.283325195,27955574.03564453,16062610.626220703,16243385.314941406,17703680.03845215,17148393.630981445,32676452.63671875,29700288.772583008,21295446.395874023,16690031.051635742,24669416.427612305
0.455,-58733871.45996094,-57373588.56201172,-40762218.4753418,-35865432.73925781,-27730335.235595703,-16046680.450439453,-11074895.858764648,-12015069.007873535,-26666690.826416016,-25316156.3873291,-26807064.056396484,-30222387.313842773,-11896256.446838379,-7190809.726715088,8576045.036315918,-3034284.3532562256,-5436333.179473877,-8863987.922668457,-13806829.452514648,-16984949.111938477,-16018085.479736328,-6642114.639282227,9099510.192871094,7503935.813903809,15224911.6897583,8639855.38482666,5095783.710479736,-6067859.172821045,-2552756.0710906982,-3506657.838821411,2450871.229171753,13299644.470214844,19463674.545288086,22606266.021728516,4592160.224914551,12042715.072631836,-927511.990070343,8058401.107788086,6438594.818115234,8207004.547119141,9505210.876464844,29245084.762573242,23949914.932250977,22372007.369995117,25138362.884521484,14092236.518859863,16891916.275024414,8422562.599182129,16701107.025146484,20682222.366333008,30477367.401123047,30329164.505004883,29503957.748413086,18759330.74951172,20256729.125976562,21436458.587646484,20930673.599243164,29312925.338745117,27881504.05883789,21535873.413085938,17410707.473754883,23455219.268798828
0.46,-71852996.82617188,-76269325.25634766,-60359340.66772461,-52048496.24633789,-42040443.420410156,-25168304.443359375,-21962862.014770508,-22900129.318237305,-36982925.41503906,-30628433.227539062,-32737548.828125,-37777423.85864258,-20298461.9140625,-13385275.840759277,-284426.0632991791,-11951363.563537598,-13953590.393066406,-15199378.01361084,-14428285.598754883,-16619394.302368164,-17747385.025024414,-11223909.378051758,3710340.2614593506,-1497245.7885742188,7631803.512573242,706345.7369804382,-764019.9661254883,-6319469.928741455,-1500650.2866744995,-3971976.7570495605,-34727.18596458435,8789877.891540527,11201503.75366211,17620653.15246582,25521.790608763695,8012893.6767578125,-1304120.659828186,8866289.138793945,8669606.20880127,6459707.260131836,5894028.663635254,22195728.302001953,21096450.805664062,20619115.829467773,25256496.42944336,15045699.119567871,17804065.704345703,8725192.070007324,16362537.384033203,19502426.147460938,26650968.551635742,26946296.69189453,29091932.29675293,19947044.372558594,20831773.75793457,21597063.064575195,21329555.51147461,24898937.225341797,24507860.18371582,20192937.85095215,15463129.043579102,20553722.381591797
0.465,-76564788.81835938,-82671798.70605469,-69346389.77050781,-55942745.208740234,-43882457.7331543,-25125455.856323242,-22329586.029052734,-23246297.83630371,-36157920.837402344,-26466232.299804688,-28680568.69506836,-36104118.34716797,-21793769.83642578,-16182746.887207031,-1590929.388999939,-11888529.777526855,-12644917.488098145,-12542034.149169922,-9775539.39819336,-11761132.24029541,-14594309.80682373,-11731784.82055664,391440.2425289154,-4369184.0171813965,6285509.10949707,997769.832611084,1219.9291959404945,-4484774.589538574,331993.9374923706,-3356457.233428955,-798078.6561965942,5622014.045715332,6877726.078033447,15523088.455200195,-675053.2388687134,6928636.074066162,-1130794.0483093262,8400741.577148438,8872766.494750977,3841377.4967193604,1613906.741142273,16416891.098022461,17151185.989379883,18023834.228515625,23212766.647338867,13055096.626281738,14944326.400756836,5433922.290802002,12220645.904541016,14822107.315063477,21054985.04638672,21732456.20727539,23970340.728759766,16478078.842163086,15306380.271911621,16144126.892089844,16035160.064697266,21653818.130493164,20024211.883544922,15890013.694763184,10526671.409606934,16762855.529785156
0.47,-69418052.67333984,-73620216.3696289,-63076633.45336914,-45057277.67944336,-33436141.967773438,-13776548.385620117,-10787245.750427246,-11723990.440368652,-25177268.981933594,-16891756.057739258,-18512470.245361328,-26984457.01599121,-16506258.010864258,-15281519.889831543,6637064.456939697,-2238025.903701782,-2308736.801147461,-2997862.8158569336,-3274166.8224334717,-6154657.84072876,-9224677.085876465,-8245347.023010254,848034.5010757446,1036201.3578414917,11824638.366699219,8305787.086486816,6038315.296173096,-2127985.4774475098,1967073.0829238892,-2203497.4098205566,542572.9155540466,5851257.801055908,8246392.250061035,17064397.81188965,1858135.8194351196,8736148.834228516,-874043.5838699341,7419579.029083252,6714432.716369629,2628012.6571655273,-282608.4494590759,14421748.161315918,13393866.539001465,15405669.212341309,19404218.673706055,9122741.69921875,10425339.698791504,1535809.2784881592,7757682.323455811,10433843.612670898,16140352.249145508,16758739.471435547,16008502.960205078,10313687.324523926,8040857.315063477,9442219.734191895,9215344.429016113,20072002.410888672,15871812.82043457,10969663.619995117,5601458.549499512,13714420.318603516
0.475,-58422969.818115234,-61183116.9128418,-51453952.78930664,-31673028.94592285,-22804561.614990234,-1081111.3119125366,1678370.5949783325,781250.0,-15128902.435302734,-10797775.268554688,-11903757.095336914,-19617950.439453125,-10123913.764953613,-12557269.096374512,16007854.461669922,7136170.864105225,6927192.687988281,3917262.554168701,-389609.60507392883,-4176726.818084717,-6010456.085205078,-4007688.522338867,3851589.4412994385,7848949.432373047,17426937.103271484,13837809.562683105,10091852.188110352,-1549268.364906311,2635891.6759490967,-1156129.8370361328,2995099.5445251465,8674596.786499023,11271056.175231934,18991807.93762207,3564167.9763793945,10358689.308166504,-1051213.9797210693,7566415.786743164,4876767.158508301,4096728.3248901367,1308322.3104476929,15074657.440185547,10863893.508911133,13966171.264648438,16649271.011352539,6969944.000244141,8566631.317138672,887394.7262763977,7179297.924041748,10149604.797363281,14361359.596252441,14635739.32647705,10797940.254211426,6885020.2560424805,5700239.658355713,7536727.428436279,7010787.9638671875,19630855.560302734,14090527.534484863,9249204.635620117,4071593.761444092,12927075.386047363
0.48,-53234298.70605469,-55720607.75756836,-44646011.35253906,-27903587.341308594,-19921989.44091797,1560166.4781570435,4211577.892303467,3477585.554122925,-14157454.490661621,-11571658.13446045,-12499771.118164062,-18565437.31689453,-5896553.993225098,-8540282.249450684,17532629.013061523,7584743.499755859,7402861.11831665,2511086.7023468018,-2356006.860733032,-5690590.858459473,-5441958.427429199,-599728.7631034851,7998766.899108887,9627011.2991333,17517963.409423828,12525693.893432617,8364722.25189209,-2981405.019760132,2711479.663848877,332793.14637184143,6056088.447570801,12519643.783569336,12103499.412536621,18752288.818359375,2579479.932785034,10245876.31225586,-1458954.3342590332,9115664.4821167,6034140.586853027,7488603.115081787,4900706.2911987305,16356227.87475586,10323521.614074707,14444082.260131836,16964179.99267578,8229319.5724487305,10329101.5625,3745300.769805908,10533957.481384277,13521600.723266602,16093954.086303711,16236116.409301758,11236797.332763672,8031012.535095215,8661772.727966309,10696066.856384277,9999061.584472656,20107694.625854492,15438836.097717285,11170991.897583008,5875542.640686035,14208738.327026367
0.485,-51399623.87084961,-53953319.54956055,-42406013.48876953,-30866621.017456055,-21428384.78088379,-2283672.80960083,477218.359708786,-186288.520693779,-18053789.138793945,-14192704.200744629,-15497250.5569458,-20811748.504638672,-4352082.252502441,-4954634.189605713,14711866.37878418,3437436.34223938,3047415.256500244,-2484719.0380096436,-4905893.802642822,-7097639.560699463,-5391412.734985352,1220785.37940979,10884805.679321289,9505074.501037598,15479593.276977539,9047199.249267578,4838383.674621582,-4276170.253753662,2790728.0921936035,1925526.3805389404,8257655.143737793,14903453.826904297,12694200.51574707,18505384.44519043,1574979.4244766235,10096862.79296875,-1557167.2916412354,10300312.042236328,8831746.101379395,9761713.027954102,7053081.98928833,18597938.537597656,12522612.571716309,16599121.09375,19006065.368652344,10270154.95300293,12017528.533935547,6140752.792358398,13099228.858947754,16039937.973022461,19628654.47998047,20013519.287109375,14483551.979064941,10071844.100952148,10920154.571533203,13286959.648132324,12733981.132507324,21650188.446044922,18628513.33618164,13519480.70526123,7890276.908874512,15688293.45703125
0.49,-44759841.91894531,-48955547.33276367,-40681972.50366211,-30014669.41833496,-22078353.881835938,121200.93405246735,1888496.75655365,944602.4298667908,-18207565.307617188,-13771473.88458252,-16736612.319946289,-23481685.638427734,-7180778.503417969,-6433664.798736572,17699798.583984375,4901853.561401367,2473650.9323120117,-3418117.2847747803,-4353826.522827148,-6946071.624755859,-6080400.9437561035,-1145772.3379135132,8481311.798095703,13917791.366577148,17822097.778320312,9970039.367675781,4727504.730224609,-3850656.270980835,2289250.373840332,929948.8663673401,6295516.490936279,12423224.449157715,16823801.040649414,21611299.514770508,3417285.203933716,11592330.932617188,-1279668.4503555298,9577989.57824707,9098770.141601562,7752516.269683838,4783940.315246582,22940307.6171875,17249683.380126953,19437091.827392578,20325355.529785156,10404972.076416016,10868506.43157959,4884063.720703125,11069535.255432129,14287859.916687012,23139501.571655273,23785720.825195312,16565189.361572266,10111898.422241211,9189494.132995605,11604143.142700195,11336974.143981934,24275539.39819336,21945259.09423828,14343922.61505127,8291105.270385742,16311561.584472656
0.495,-36932094.57397461,-43900924.68261719,-40660442.35229492,-24958108.90197754,-22827301.025390625,8252441.40625,8215908.050537109,6820420.742034912,-14967385.292053223,-12613437.65258789,-18070692.06237793,-27249168.395996094,-14484797.477722168,-14305242.538452148,25029016.494750977,11131896.018981934,5792814.7315979,-526141.1666870117,-2568004.369735718,-7471453.1898498535,-9360163.688659668,-8516187.66784668,191013.50009441376,19993482.58972168,22665613.174438477,13642433.166503906,7078473.5679626465,-2820912.5995635986,296773.3144760132,-3999282.5984954834,-583855.6289672852,4820101.737976074,22244192.123413086,26072099.685668945,6463564.395904541,13482382.774353027,-987054.5268058777,7919613.361358643,5668975.353240967,2110584.259033203,-1117363.691329956,27409885.40649414,21868045.806884766,21597320.556640625,20921155.92956543,9987236.022949219,9290702.819824219,1921322.4649429321,6655283.9279174805,10049576.759338379,25736183.166503906,26316463.470458984,17330936.431884766,10339802.742004395,7517388.820648193,8608405.113220215,8428621.292114258,27260341.64428711,24601711.27319336,15293287.27722168,8531076.431274414,17049722.67150879
0.5,-39971900.939941406,-45460086.822509766,-43621425.62866211,-24968355.178833008,-25057157.516479492,5561750.888824463,6463859.081268311,4985074.996948242,-15759102.821350098,-15027008.056640625,-21223203.659057617,-30724838.256835938,-19647754.669189453,-21013708.114624023,22404781.341552734,9944491.386413574,4888017.654418945,-327842.44418144226,-3462386.3697052,-9889552.116394043,-13416458.129882812,-15058139.80102539,-7036419.868469238,17210311.889648438,20858633.041381836,12699481.964111328,7076826.572418213,-3210255.1460266113,-2271534.204483032,-8989499.09210205,-6909452.91519165,-2145042.1810150146,21628702.16369629,25271837.23449707,6224207.878112793,13254526.138305664,-865095.853805542,7608378.4103393555,2311267.852783203,-2273753.1661987305,-6083967.685699463,27152856.826782227,22040683.74633789,21474092.483520508,22120943.069458008,11506957.054138184,10721556.663513184,1401629.2095184326,4966497.421264648,7693792.343139648,26137947.08251953,26442695.61767578,18103010.177612305,13000637.05444336,9922301.292419434,8566449.165344238,8193519.592285156,28299375.534057617,25389024.73449707,17270298.00415039,9686162.948608398,18156116.485595703
0.505,-51476547.24121094,-47825077.056884766,-41887786.865234375,-31248231.887817383,-23305152.893066406,-15479238.510131836,-8345746.994018555,-9311137.199401855,-21441761.016845703,-18508737.564086914,-21907459.259033203,-28178092.95654297,-13967408.180236816,-16441204.071044922,3684658.2889556885,-3696651.6971588135,-3416636.4669799805,-4833884.239196777,-6401527.881622314,-11236672.401428223,-12850343.704223633,-12741661.071777344,-4575193.881988525,2608825.445175171,9443599.700927734,5125169.277191162,3572926.5213012695,-4880064.010620117,-2935747.8618621826,-8456459.045410156,-5906592.845916748,-1788385.510444641,12237850.189208984,16581636.428833008,1107726.0971069336,10528112.411499023,-852241.6949272156,9023838.996887207,2525209.426879883,-1455347.5379943848,-6316783.905029297,19889768.600463867,15735534.66796875,18038608.55102539,22882297.51586914,13372150.421142578,13395202.63671875,3350537.5385284424,6738329.887390137,8354585.647583008,22370740.89050293,22538658.142089844,17104335.78491211,14716077.80456543,12794839.859008789,10048418.998718262,9456002.235412598,24561573.028564453,22013397.216796875,16942176.818847656,9351574.897766113,17191102.981567383
