time,Fp1,Fpz,Fp2,AF3,AF4,F7,F5,F3,F1,Fz,F2,F4,F6,F8,FT7,FC5,FC3,FC1,FCz,FC2,FC4,FC6,FT8,T7,C5,C3,C1,Cz,C2,C4,C6,T8,TP7,CP5,CP3,CP1,CPz,CP2,CP4,CP6,TP8,P7,P5,P3,P1,Pz,P2,P4,P6,P8,PO7,PO5,PO3,POz,PO4,PO6,PO8,CB1,O1,Oz,O2,CB2
0.0,3591251.3732910156,6167140.960693359,6975101.947784424,2709257.8411102295,4601160.526275635,-1275161.9815826416,1346398.7112045288,1139439.1059875488,1706095.814704895,2145132.303237915,2546098.232269287,3445737.600326538,3470875.9784698486,3415244.5793151855,-1453163.1469726562,-1868345.1414108276,-779703.8555145264,679760.992527008,1577045.3214645386,1873501.7776489258,2938773.8704681396,3296292.543411255,2531774.0440368652,-1434193.9687728882,-765448.3914375305,-559329.1521072388,142500.95188617706,-67318.08930635452,378908.6937904358,1841350.4362106323,2401988.744735718,2529631.8531036377,-1487099.6475219727,-1549455.7619094849,-1737425.3273010254,-275583.2076072693,-49294.3599820137,-664449.3937492371,366979.0327548981,191941.67852401733,161715.74592590332,-1496944.4274902344,-1771941.1849975586,-1864315.5097961426,-1385993.3614730835,-33096.19054198265,-201200.14250278473,53648.06205034256,125625.17821788788,115087.18878030777,-3099498.510360718,-3161952.9724121094,-1511553.406715393,-1545015.3350830078,127462.01455593109,64225.64387321472,90799.33166503906,-2707819.700241089,-2733517.646789551,-1554254.651069641,40844.94337439537,40374.789386987686
0.005,16403953.552246094,19080419.540405273,22212947.845458984,13469022.750854492,22932626.724243164,-17089511.87133789,10444831.848144531,6807947.635650635,9957860.946655273,13607146.263122559,16634281.158447266,17073831.55822754,17168348.31237793,17643125.534057617,-4685351.371765137,-20361104.96520996,-3532635.6887817383,5537895.202636719,9355906.48651123,11484118.461608887,16040874.481201172,19770181.65588379,392432.9876899719,-3728844.165802002,-263991.3856983185,-1602441.5493011475,3907989.978790283,-436236.53054237366,5630131.721496582,12180562.019348145,16275257.110595703,604661.226272583,-3937454.4620513916,-7519128.322601318,-8741915.702819824,-700243.890285492,159959.5993757248,2536892.6525115967,4818372.72644043,6789527.416229248,6664981.365203857,-4188684.4635009766,-9440105.438232422,-10667758.94165039,-6406508.445739746,567197.3824501038,1474758.267402649,6161213.8748168945,7398376.941680908,7554586.887359619,-21699733.73413086,-22045410.15625,-11600691.795349121,-7772321.701049805,8768018.72253418,7737513.542175293,7513997.554779053,-23681037.90283203,-23704061.50817871,-7308553.695678711,8033082.962036133,7721701.145172119
0.01,21542955.39855957,23916610.717773438,27986024.856567383,18489179.611206055,29574434.280395508,-21731489.181518555,16289102.554321289,11005086.898803711,14864514.350891113,18795022.96447754,22110389.709472656,21332361.221313477,21438669.204711914,22120883.94165039,-4916681.76651001,-24540956.497192383,-1912682.7716827393,9230020.523071289,13328396.797180176,15013319.969177246,19757797.241210938,24209138.870239258,-1775918.72215271,-3658179.998397827,2497162.342071533,824392.4975395203,6961903.5720825195,-515923.79808425903,7028839.111328125,14982123.374938965,20194734.573364258,-1504307.9853057861,-3886331.796646118,-7571025.848388672,-9291346.549987793,-687106.2517166138,417662.8291606903,2963037.2524261475,6352111.81640625,8766906.73828125,8645234.107971191,-4348062.992095947,-10206966.400146484,-11860126.495361328,-7706305.503845215,630512.2375488281,1154176.2351989746,8176266.670227051,9742697.715759277,9956898.68927002,-29006845.474243164,-29614057.540893555,-15665199.279785156,-10743155.479431152,11809580.80291748,10335480.690002441,9869755.744934082,-32313880.920410156,-32291145.32470703,-9990787.506103516,10680434.226989746,10246114.730834961
0.015,20924930.572509766,23997488.021850586,27823289.87121582,19293355.94177246,27901908.87451172,-17419116.973876953,18458358.764648438,13359698.295593262,17014287.9486084,19407243.728637695,21145652.770996094,18770587.921142578,18772876.739501953,19386796.951293945,-2942014.9326324463,-17831592.559814453,2000057.9357147217,11434313.774108887,13866767.883300781,13643925.666809082,16339828.491210938,19371994.018554688,-2798807.8594207764,-1920191.764831543,5532315.254211426,4762825.012207031,8281320.571899414,-484451.17473602295,5346329.689025879,11852534.294128418,16353332.51953125,-2639706.1347961426,-2054296.2551116943,-3733769.178390503,-5031888.961791992,-462786.5254878998,487628.0128955841,704719.9010848999,5341062.545776367,6897204.399108887,6765817.165374756,-2596685.6479644775,-5800534.248352051,-7261973.857879639,-5930806.1599731445,209551.3939857483,-743196.7258453369,6711499.214172363,7771080.493927002,8056615.829467773,-24929006.576538086,-25773933.41064453,-13236078.262329102,-10008831.024169922,9960835.456848145,8493549.346923828,7907207.489013672,-28461597.442626953,-28312507.62939453,-9134123.802185059,8734257.698059082,8353070.259094238
0.02,20889991.760253906,26768745.42236328,30342296.600341797,20629905.700683594,28730880.737304688,-15292749.404907227,18371385.57434082,13961388.58795166,18830234.52758789,21113712.310791016,21642061.233520508,18174070.358276367,18036659.240722656,18543441.772460938,-2356037.378311157,-14447722.434997559,2839698.553085327,12414118.766784668,14071420.669555664,12962194.442749023,14640268.325805664,16609102.249145508,-1851541.0423278809,-1506283.6408615112,4925305.366516113,5506838.798522949,7465760.707855225,-633377.0751953125,4311356.544494629,9906714.43939209,14236197.471618652,-1855139.4939422607,-1568235.2781295776,-2909223.794937134,-2909891.128540039,-485898.4351158142,208547.53255844116,-1601724.8630523682,4400836.944580078,5460723.400115967,5196743.011474609,-2024218.7976837158,-3532705.068588257,-4820999.1455078125,-4916437.62588501,-142992.0345544815,-2041520.357131958,5494307.041168213,5935139.179229736,6412908.554077148,-19087097.16796875,-20111612.31994629,-9554886.817932129,-8243438.720703125,8162028.3126831055,6760808.46786499,6263357.639312744,-22513921.7376709,-22203945.15991211,-7279273.986816406,7022130.012512207,6684460.639953613
0.025,22132532.119750977,31111085.891723633,35011455.53588867,22805313.110351562,33710895.53833008,-20379207.611083984,16976770.401000977,12762014.389038086,20512453.079223633,24798305.51147461,25372060.775756836,21448137.283325195,21344583.51135254,21790374.755859375,-5120685.10055542,-19511621.475219727,-254622.48921394348,12428401.947021484,15307702.06451416,14935194.969177246,17209348.678588867,19596717.834472656,-208448.96137714386,-4063117.9809570312,506527.4238586426,2342973.470687866,5664252.758026123,-824031.4722061157,5371758.937835693,11566966.05682373,17123025.89416504,-293693.4232711792,-4157805.919647217,-7224392.890930176,-5801804.542541504,-678394.2580223083,-110797.78522253036,-1856181.7407608032,4749129.772186279,6212995.529174805,5814107.894897461,-4504062.652587891,-6415145.397186279,-7834448.81439209,-6642807.483673096,-19078.707322478294,-1513360.1427078247,6072164.058685303,6387580.394744873,7003743.1716918945,-19578762.05444336,-20635854.721069336,-9708581.924438477,-8184475.898742676,8672599.792480469,7277970.314025879,6969699.859619141,-22633161.544799805,-22260236.740112305,-7140712.738037109,7694946.765899658,7264706.134796143
0.03,21408027.64892578,31051799.774169922,35714893.34106445,23131265.64025879,35990257.263183594,-26871088.0279541,14979187.965393066,10567744.255065918,20718706.130981445,26750139.236450195,27566743.850708008,23393480.30090332,23533967.971801758,23955905.91430664,-9279130.935668945,-25008466.720581055,-2919200.1819610596,11782949.447631836,16155454.635620117,16506118.774414062,18943231.5826416,22331710.815429688,446074.9924182892,-7888432.97958374,-3392544.2695617676,-604226.7084121704,4618499.755859375,-727457.4637413025,6327138.900756836,12861948.013305664,19829200.744628906,392735.8090877533,-8087776.184082031,-11351071.35772705,-9569417.953491211,-628425.5385398865,-58748.070150613785,-665975.1534461975,5301758.289337158,7073808.193206787,6692543.029785156,-8478810.31036377,-10234100.341796875,-11760518.074035645,-8910702.7053833,419540.9119129181,153278.48494052887,6617581.844329834,7233263.969421387,7730250.835418701,-25561662.673950195,-26485177.993774414,-12795730.590820312,-9218796.730041504,9416529.655456543,8073499.67956543,7839654.922485352,-26631145.477294922,-26356887.817382812,-8204803.466796875,8578137.397766113,8004559.516906738
0.035,19540464.401245117,27727792.739868164,33461853.02734375,21971834.182739258,33611015.31982422,-28518552.780151367,13545781.135559082,8994509.69696045,19539434.4329834,25437698.364257812,25965478.897094727,21808120.727539062,22123218.536376953,22642284.393310547,-11670934.677124023,-24515840.530395508,-2630863.904953003,10719244.003295898,15181277.27508545,15310512.54272461,16830387.115478516,20939765.93017578,470835.95395088196,-10190236.09161377,-3604302.167892456,-541116.2972450256,4569562.4351501465,-428305.65571784973,5151134.014129639,11113202.095031738,18600782.39440918,518024.38497543335,-10485607.147216797,-10413617.134094238,-9766456.604003906,-357947.37935066223,273404.8068523407,-2094.5221185684204,5380559.44442749,6567625.999450684,6282969.951629639,-11051222.801208496,-10553692.817687988,-11863873.481750488,-8536748.886108398,715002.5963783264,2126640.796661377,5939950.942993164,6812150.955200195,7058334.3505859375,-30542755.126953125,-31315578.46069336,-13406717.300415039,-8413424.491882324,8856851.577758789,7526695.728302002,7178917.407989502,-27542037.963867188,-27435470.581054688,-7552880.764007568,8005987.167358398,7410168.170928955
0.04,19622474.670410156,27333839.416503906,34405467.98706055,21230852.127075195,31641483.306884766,-28062078.47595215,12400157.928466797,7801396.84677124,17640975.952148438,22685096.740722656,23314235.68725586,20054220.19958496,20245759.963989258,21023824.69177246,-12215980.529785156,-22795902.252197266,-2715700.86479187,8668037.414550781,12633016.586303711,12793787.002563477,14053391.456604004,18825838.088989258,1198540.8067703247,-10911695.48034668,-2572704.792022705,-39251.748472452164,3867670.5360412598,-331946.55179977417,2992064.4760131836,9111784.934997559,16447360.99243164,1365058.8989257812,-11237530.708312988,-7279374.122619629,-7879027.366638184,-308813.98916244507,442673.56395721436,-279239.0286922455,6321486.949920654,6476995.468139648,6224782.943725586,-11913800.239562988,-8871168.13659668,-9889544.486999512,-5610459.327697754,685211.4200592041,4782114.9826049805,5939045.429229736,6750577.926635742,6888490.200042725,-30253953.93371582,-31019798.278808594,-9137005.805969238,-5179360.866546631,8956553.45916748,7422408.580780029,6893995.28503418,-23991296.768188477,-24003004.07409668,-4443989.7537231445,7896497.2496032715,7438270.568847656
0.045,18947511.672973633,28603919.982910156,36995918.27392578,18530048.370361328,31366186.141967773,-32943954.467773438,8586520.195007324,3888778.2096862793,13651450.157165527,18917383.193969727,21008005.142211914,19703624.725341797,19667470.932006836,20684078.216552734,-14079911.231994629,-27534475.326538086,-7473689.079284668,4480509.7579956055,9286333.084106445,10959342.956542969,13471416.473388672,19080631.256103516,2234970.808029175,-12956856.727600098,-5295048.713684082,-3190990.209579468,1149713.2778167725,-525488.6746406555,2296849.7276306152,10036263.465881348,17011934.280395508,2497334.0034484863,-13236244.201660156,-8904134.750366211,-8628864.288330078,-591566.2050247192,320312.6788139343,47473.11398386955,9182691.57409668,8734227.180480957,8501095.77178955,-13851676.940917969,-9699814.796447754,-10774029.731750488,-3224978.20854187,562099.3375778198,8366724.014282227,8577049.255371094,9134759.902954102,9311859.130859375,-25901203.155517578,-26729450.225830078,-4191730.499267578,-2696818.8285827637,11742149.353027344,9931641.578674316,9303156.852722168,-21133754.73022461,-21198482.513427734,-1942390.3226852417,10433999.061584473,10168447.494506836
0.05,12033038.139343262,23870111.4654541,33174732.208251953,10328536.033630371,27974662.78076172,-43831741.33300781,666017.8303718567,-4055227.756500244,6478481.769561768,13079452.514648438,17184911.727905273,18163177.490234375,18160915.37475586,19219280.242919922,-18878351.21154785,-37346191.40625,-15399530.410766602,-1308406.114578247,5767643.928527832,9579203.605651855,13285707.473754883,19562274.932861328,2216181.993484497,-17751691.818237305,-12340764.999389648,-9361088.752746582,-2476990.222930908,-662337.6607894897,3435579.0615081787,12410817.14630127,18842260.360717773,2484377.145767212,-17941778.1829834,-16589735.03112793,-12879859.924316406,-783289.6709442139,200519.74058151245,1838448.405265808,12257082.93914795,11956504.821777344,11842144.966125488,-18404745.10192871,-13731122.970581055,-15149078.369140625,-3397600.6507873535,593975.9612083435,11233850.479125977,12337097.16796875,12703016.28112793,12872964.859008789,-21154491.424560547,-21877391.815185547,-3839067.9359436035,-3416425.4665374756,15512507.438659668,13697587.966918945,13099983.215332031,-22212860.107421875,-22283695.220947266,-2587745.428085327,14129863.739013672,14034491.539001465
0.055,2664946.5560913086,14040262.222290039,23291477.20336914,1265034.1987609863,21261596.6796875,-50990268.70727539,-6116408.348083496,-10600113.868713379,191674.1281747818,7949826.717376709,12788313.865661621,15145751.953125,15435071.94519043,16441106.796264648,-22563022.61352539,-42547302.24609375,-19610374.450683594,-4994523.525238037,3723212.0037078857,8351814.270019531,11779597.282409668,18429929.733276367,1740982.2940826416,-21328273.77319336,-17659893.035888672,-12936290.740966797,-3997200.2506256104,-520560.8010292053,4716619.01473999,12990163.803100586,18897314.071655273,1891426.5632629395,-21442035.675048828,-23161415.100097656,-16086338.04321289,-574990.98777771,269582.3609828949,3536422.4910736084,12724361.419677734,13226813.316345215,13233478.546142578,-21783035.278320312,-16671022.415161133,-18235309.600830078,-4815966.606140137,722635.3287696838,10921422.004699707,13921480.178833008,14255334.854125977,14388989.448547363,-17848793.029785156,-18269863.12866211,-7376852.035522461,-5331528.663635254,16917764.66369629,15366545.677185059,14916019.439697266,-23889867.782592773,-23886535.64453125,-4517282.962799072,15642120.361328125,15697725.296020508
0.06,3365626.096725464,11482889.175415039,18844310.760498047,2357099.771499634,19258531.57043457,-43913082.122802734,-3408697.6051330566,-7577047.348022461,1753929.2573928833,9536652.565002441,13210786.819458008,14971654.891967773,15447018.62335205,16463876.724243164,-18473257.064819336,-36226844.787597656,-15151546.478271484,-2630284.547805786,5502887.725830078,8989505.767822266,11529947.280883789,18545164.108276367,2892663.4788513184,-17249336.24267578,-14557711.601257324,-9448993.682861328,-1463057.279586792,-287543.6544418335,5017210.483551025,12022334.098815918,17915950.775146484,2899541.3780212402,-17336458.206176758,-21067403.79333496,-14138628.959655762,-200467.51201152802,366456.0616016388,2948938.6081695557,10293719.291687012,12008995.056152344,11959664.344787598,-17614397.048950195,-14818072.319030762,-16107582.092285156,-5217915.5349731445,750967.9198265076,7090253.3531188965,12485218.048095703,12877621.6506958,13163885.116577148,-15212347.984313965,-15436589.241027832,-9577155.113220215,-5077894.687652588,15369003.295898438,13971976.280212402,13733844.757080078,-21872898.10180664,-21742355.346679688,-4320748.329162598,14200833.320617676,14353745.460510254
0.065,18043922.424316406,22408344.268798828,25962148.666381836,15913249.015808105,26027351.37939453,-24163110.733032227,9284984.588623047,5138932.704925537,11544162.75024414,18184719.08569336,20048570.63293457,19111808.77685547,19488601.684570312,20436893.463134766,-5996150.970458984,-21894464.49279785,-4860558.032989502,4728512.763977051,10877901.077270508,12435463.905334473,14900702.476501465,21979780.197143555,5076687.812805176,-4972700.595855713,-3740128.0403137207,-849259.1977119446,3652344.226837158,-201558.2025051117,4713777.0652771,12078664.779663086,18203035.354614258,5087762.832641602,-5091922.283172607,-11541719.436645508,-8762806.89239502,-64700.23840665817,331830.9485912323,25574.16446506977,7271058.082580566,9903196.334838867,9666968.34564209,-5330715.179443359,-9831223.487854004,-10762434.005737305,-4658275.127410889,659590.8999443054,2240642.786026001,9816936.492919922,10272169.11315918,10880000.114440918,-12485797.882080078,-12851007.461547852,-8142326.354980469,-3237565.9942626953,12791249.27520752,11275697.708129883,11202466.96472168,-17702354.431152344,-17559841.15600586,-2412820.339202881,11630609.512329102,11738221.168518066
0.07,32834964.752197266,34972499.84741211,34942874.908447266,28637142.181396484,32848003.387451172,-6562406.539916992,20821243.286132812,16373008.728027344,19879108.428955078,24896898.26965332,25785362.243652344,21449913.024902344,21654329.299926758,22208961.486816406,5925199.98550415,-10577500.343322754,2549832.1056365967,10340563.774108887,15307972.90802002,15592995.643615723,18415655.1361084,24290515.899658203,4028799.057006836,6784988.880157471,5993959.903717041,5883255.958557129,7263378.620147705,-247711.76278591156,4024463.176727295,12923769.9508667,18380874.633789062,4234961.032867432,6569893.836975098,-3529904.60395813,-5505551.338195801,-276997.1191883087,239102.5424003601,-3179102.1823883057,5248424.053192139,7695921.897888184,7342728.137969971,6383437.156677246,-6732410.430908203,-7641263.961791992,-4744440.078735352,579992.3539161682,-589498.0430603027,7285449.028015137,7777025.22277832,8519373.893737793,-10583160.400390625,-11222138.404846191,-5716529.369354248,-3109878.5400390625,10337121.00982666,8710725.784301758,8634584.426879883,-16111791.610717773,-16177955.627441406,-2105423.927307129,9179083.824157715,9118574.142456055
0.075,31885986.328125,33328689.575195312,32700309.75341797,26339317.321777344,28697919.845581055,-5027045.249938965,19835758.209228516,15108825.68359375,17198537.826538086,21269035.33935547,22062236.785888672,15644371.98638916,15791519.165039062,15742786.407470703,7193914.890289307,-10766794.204711914,693256.0801506042,8350414.276123047,14015487.670898438,14096543.312072754,16319339.752197266,19555238.723754883,-3269356.9660186768,8198072.43347168,6387727.2605896,5367850.780487061,6270469.188690186,-341986.11974716187,2168008.56590271,11303164.4821167,14712591.171264648,-2853252.410888672,7841476.917266846,-3781865.5967712402,-7099140.644073486,-692794.144153595,170728.77287864685,-4935777.66418457,3640058.0406188965,5140392.780303955,4799031.734466553,7743702.411651611,-7984848.0224609375,-9182522.773742676,-5325304.03137207,541427.731513977,-248317.71850585938,5051770.6871032715,5558656.215667725,6015674.114227295,-10598720.55053711,-11257995.60546875,-4453677.177429199,-4976770.877838135,8009766.578674316,6506938.934326172,6269967.555999756,-17715559.005737305,-18040561.67602539,-3916815.996170044,6957589.626312256,6763649.463653564
0.08,17509273.529052734,18197771.072387695,19420537.9486084,11883241.653442383,15372309.684753418,-17391550.064086914,8341703.414916992,3621190.309524536,6009189.128875732,10518616.676330566,10986687.660217285,4215994.358062744,4285404.682159424,3815557.4798583984,-1451205.9688568115,-20126182.556152344,-7987710.475921631,541575.8490562439,7743363.380432129,8152377.128601074,8643474.578857422,9140344.619750977,-14063963.890075684,-83963.5506272316,-1249832.272529602,-947980.7019233704,1597808.0034255981,-504125.8931159973,-975874.9604225159,6170190.811157227,7255486.965179443,-13628863.334655762,-536901.1759757996,-9741557.121276855,-10434124.946594238,-1083762.4073028564,87289.82508182526,-5089330.673217773,1872155.785560608,3221504.9266815186,2943393.9456939697,-544357.2998046875,-10825157.165527344,-12271211.624145508,-4140148.162841797,475595.1464176178,2238770.008087158,3961618.661880493,4477442.264556885,4452304.840087891,-11495214.462280273,-11896743.774414062,-2782505.512237549,-5261568.069458008,6866568.088531494,5519419.6701049805,5113110.065460205,-18451658.248901367,-18819227.21862793,-4406368.255615234,5969123.840332031,5758963.584899902
0.085,6609017.372131348,5360077.381134033,6806978.702545166,1628131.5088272095,5494676.113128662,-27679193.4967041,-446129.4114589691,-4965478.420257568,-1570345.0441360474,3950863.3613586426,3269550.561904907,-3841719.86579895,-4031862.258911133,-4578862.66708374,-8672778.129577637,-27489542.00744629,-14545098.304748535,-5263160.228729248,2493279.9339294434,3040228.1284332275,1896021.008491516,1100260.615348816,-21715572.357177734,-7131409.168243408,-7485089.302062988,-6356534.481048584,-2561835.527420044,-671731.71043396,-3516457.3192596436,1147473.4544754028,1123812.9138946533,-21452764.5111084,-7539841.651916504,-13323908.805847168,-10768204.689025879,-1140896.0819244385,57547.04028367996,-4149200.439453125,983978.6887168884,3695455.551147461,3527327.537536621,-7571151.256561279,-10988324.165344238,-12434133.529663086,-536073.0290412903,452421.78440093994,4732757.568359375,5200896.263122559,5728089.332580566,5436899.185180664,-11150301.933288574,-11369425.773620605,367044.1210269928,-2316528.081893921,8294905.662536621,6857142.448425293,6395247.459411621,-16265184.40246582,-16463695.526123047,-1742323.398590088,7464814.186096191,7249578.475952148
0.09,9005397.79663086,5665781.021118164,3379091.501235962,5060485.83984375,6852565.288543701,-24633413.314819336,2084352.2548675537,-2270582.675933838,1805513.5011672974,7274463.653564453,5378223.419189453,-3330725.908279419,-3797809.12399292,-4245782.375335693,-6099794.864654541,-24777357.10144043,-12969079.971313477,-3822342.872619629,2885449.171066284,3072984.457015991,1344622.254371643,1035416.0070419312,-21661182.403564453,-4745537.757873535,-5592420.1011657715,-5898269.6533203125,-2894350.528717041,-613021.3737487793,-3277383.0890655518,346706.24136924744,763582.706451416,-21579761.505126953,-5027776.718139648,-10481315.612792969,-7639116.287231445,-656715.0354385376,301637.8879547119,-2516578.9127349854,1898651.7190933228,5992538.4521484375,5987012.3863220215,-5262745.8572387695,-8061104.774475098,-9343962.669372559,2419286.7279052734,662217.5574302673,5391275.405883789,7630289.077758789,8146178.245544434,7957982.540130615,-9538932.800292969,-9856938.362121582,1960679.7695159912,555274.4269371033,10928246.49810791,9263529.777526855,8842943.19152832,-14019986.152648926,-14101511.95526123,1047534.704208374,10039121.627807617,9739331.245422363
0.095,17785585.403442383,14682973.861694336,7706283.092498779,15070863.723754883,14909719.467163086,-14250371.932983398,10782172.203063965,6426752.56729126,10861134.52911377,15126781.463623047,13047331.809997559,2720557.928085327,2246999.979019165,1932580.590248108,1695084.571838379,-16267950.057983398,-6511940.956115723,2143952.8465270996,7472981.929779053,7072667.121887207,5618741.512298584,6871844.291687012,-14981366.157531738,2845190.0482177734,1003702.2829055786,-1448369.026184082,-194848.9397764206,-267486.42325401306,-667680.2635192871,3524766.206741333,5200536.727905273,-14956516.26586914,2568924.1886138916,-5354401.111602783,-5322888.8511657715,40136.69490814209,782356.4410209656,-1117973.0892181396,3446818.1133270264,7013801.097869873,7056693.077087402,2092702.6271820068,-6020888.328552246,-7140702.724456787,1187779.426574707,1067338.7050628662,3999484.3006134033,8066945.0759887695,8495999.336242676,8599084.854125977,-9481333.73260498,-9988779.067993164,-1159557.4617385864,-374464.7800922394,11228332.51953125,9517931.938171387,9162038.803100586,-14819472.312927246,-14971917.152404785,244073.48036766052,10233949.661254883,9870071.411132812
0.1,21652112.96081543,22030534.744262695,13887259.483337402,19759729.385375977,20966045.379638672,-10408637.046813965,15118083.000183105,10584281.921386719,15727948.188781738,19729185.104370117,18397802.352905273,8099225.997924805,7871401.786804199,7691644.191741943,3743791.8186187744,-13004700.660705566,-3174337.387084961,6094284.534454346,11643095.970153809,10878809.928894043,9756351.470947266,12616311.073303223,-7300969.60067749,5028056.621551514,3728109.59815979,939976.2749671936,1944473.147392273,26459.285989403725,1471650.242805481,6881545.543670654,9712002.754211426,-7241625.3089904785,4557192.802429199,-4891742.22946167,-7709414.482116699,175994.6346282959,1036913.3949279785,-1519272.0890045166,3406937.837600708,4728867.530822754,4551749.229431152,4036658.28704834,-8536450.386047363,-9576289.176940918,-3864608.0493927,1298678.2789230347,2025219.6788787842,5043055.534362793,5311400.413513184,5638363.838195801,-13556447.982788086,-14123004.913330078,-7063924.789428711,-4411665.916442871,7815228.9390563965,6274600.505828857,5985610.008239746,-18030984.87854004,-18295743.942260742,-3698688.507080078,6758485.794067383,6462710.380554199
0.105,19034223.556518555,23900247.57385254,18341781.616210938,17264650.344848633,22446718.215942383,-16892030.715942383,12361193.656921387,7547542.095184326,13977152.824401855,20236469.268798828,19403963.088989258,9848605.155944824,9836977.9586792,9624313.354492188,-3369915.008544922,-18893285.751342773,-6030683.517456055,5445757.3890686035,13361423.49243164,12511384.010314941,11213985.443115234,14649319.648742676,-4383808.135986328,-1813400.387763977,-584770.5006599426,-1781162.5003814697,1296620.9650039673,-77624.80527162552,1235900.9981155396,7751801.490783691,10901262.283325195,-4302585.124969482,-2479717.969894409,-10923599.243164062,-13997015.953063965,-581529.5577049255,720800.6978034973,-4155237.1978759766,1186833.143234253,500273.9429473877,23955.373093485832,-2825688.362121582,-14815837.860107422,-15890877.723693848,-8995466.232299805,1092063.4269714355,940540.1349067688,625890.1357650757,780102.9086112976,1134068.9659118652,-20990182.876586914,-21563447.952270508,-10996366.500854492,-8150183.67767334,3205728.530883789,1786555.0518035889,1563056.8265914917,-21552621.841430664,-21838451.385498047,-7541738.033294678,2164743.9002990723,1960971.713066101
0.11,16447816.848754883,24208744.049072266,21742662.42980957,14671407.699584961,23199346.5423584,-24863210.678100586,8389108.657836914,3378857.8510284424,11189581.871032715,20826374.053955078,19777576.446533203,9723814.010620117,9761042.594909668,9192907.333374023,-12598589.897155762,-26881443.02368164,-10687535.285949707,3193557.2624206543,14019897.4609375,13104484.558105469,11432447.43347168,14005046.844482422,-6831887.722015381,-11100968.360900879,-7101973.533630371,-6742691.0400390625,-1023899.3167877197,-433993.30973625183,-154481.03845119476,7094537.258148193,9567259.788513184,-6784403.324127197,-11710849.76196289,-18687911.987304688,-19759477.615356445,-1560306.5490722656,140426.93376541138,-6973390.579223633,-1309117.5556182861,-2544786.214828491,-3039746.5229034424,-11895712.852478027,-20527055.740356445,-21726982.11669922,-11300346.374511719,684566.0209655762,836856.7228317261,-2010779.1423797607,-1777400.016784668,-1576599.7171401978,-28001153.94592285,-28672714.233398438,-11347548.484802246,-9842083.930969238,756873.1904029846,-735247.552394867,-935530.7817459106,-24736360.549926758,-25051448.822021484,-9473856.925964355,-200258.5530281067,-471334.7852230072
0.115,18132528.30505371,27779476.165771484,27546348.571777344,16266300.201416016,26929262.161254883,-27134368.896484375,7681513.786315918,2752167.224884033,11676163.673400879,22916421.89025879,22100463.8671875,11480567.932128906,11523782.730102539,10633195.877075195,-16631984.71069336,-29711709.97619629,-12245410.919189453,2623870.1343536377,14652149.200439453,13835957.527160645,12778269.76776123,14372694.969177246,-8469638.82446289,-15518451.690673828,-10345217.70477295,-9528521.537780762,-2643940.9255981445,-576077.0440101624,-207610.63694953918,7512670.040130615,9371222.496032715,-8483567.237854004,-15847643.852233887,-22400472.64099121,-21229598.999023438,-1789046.4067459106,-73528.7219285965,-7108512.878417969,-1475757.2412490845,-2098240.375518799,-2320554.733276367,-16040462.493896484,-21969699.85961914,-23242792.1295166,-10657892.227172852,541662.8122329712,1169901.3710021973,-1244480.4906845093,-755923.867225647,-767322.9575157166,-30516279.220581055,-31256614.685058594,-9896466.255187988,-9621764.183044434,1780794.9781417847,160173.34163188934,-76781.12387657166,-26678030.014038086,-27128284.454345703,-9477895.736694336,919517.7555084229,471859.9021434784
0.12,22203161.239624023,35455051.42211914,38379718.78051758,18775169.372558594,33418827.056884766,-27883630.752563477,7847604.751586914,3265576.6010284424,13430854.797363281,23847370.147705078,25037054.06188965,17576133.728027344,17687131.881713867,17220441.818237305,-16560474.395751953,-29368633.270263672,-11470041.275024414,3288465.4998779297,14342853.546142578,14477613.44909668,15979889.869689941,18840991.973876953,-1897621.2739944458,-15658286.094665527,-10689148.902893066,-9501925.468444824,-2807461.977005005,-339634.4482898712,1717549.9200820923,10225662.231445312,13288652.420043945,-1959991.8127059937,-15740389.823913574,-21110406.87561035,-18370941.162109375,-1160222.7687835693,252691.77556037903,-4052997.11227417,1581110.0006103516,2221527.8148651123,2193752.5272369385,-15982557.29675293,-19138555.5267334,-20286525.72631836,-8246100.425720215,762519.0615653992,1936527.0137786865,2753068.9239501953,3458683.967590332,3345829.963684082,-27400453.567504883,-27980972.290039062,-7733179.569244385,-7516245.365142822,5758387.088775635,4121260.166168213,3854628.324508667,-25111276.626586914,-25649234.771728516,-7494530.200958252,4911248.683929443,4407552.719116211
0.125,24569797.51586914,43951820.373535156,52275302.88696289,17619195.93811035,40281341.552734375,-35793422.69897461,4656615.734100342,446803.5697937012,12809189.796447754,22505500.79345703,27062965.393066406,27392852.783203125,27552640.914916992,28397583.0078125,-19340873.71826172,-32921215.057373047,-12542548.179626465,2966387.5102996826,12882283.210754395,15147234.916687012,20539812.088012695,27644115.447998047,13147911.071777344,-18249687.19482422,-12735815.048217773,-9705352.783203125,-2674040.7943725586,-46523.7982571125,4198934.078216553,14452121.73461914,20902441.024780273,13059637.069702148,-18247222.900390625,-19359479.904174805,-15028516.76940918,-528348.1478691101,674760.3416442871,-260733.78324508667,6148304.9392700195,8328377.723693848,8204781.532287598,-18402587.890625,-15865586.280822754,-16745429.992675781,-5612268.924713135,991930.2463531494,3025035.619735718,8119333.267211914,8830910.682678223,8834259.033203125,-22690176.010131836,-23006931.30493164,-5318543.910980225,-4411517.62008667,10877253.532409668,9315800.666809082,9103428.840637207,-20706083.297729492,-21093338.012695312,-4392178.535461426,9916874.885559082,9537597.65625
0.13,22821430.206298828,48732074.73754883,63514156.341552734,13084750.175476074,45920326.232910156,-52151920.318603516,-1718504.1904449463,-5740885.257720947,10114050.86517334,21812702.178955078,29304586.41052246,37755283.35571289,37864341.735839844,40068267.822265625,-29475553.512573242,-42514610.290527344,-17065864.56298828,1333671.8082427979,12315686.225891113,17130052.56652832,25942308.42590332,38078311.920166016,28563173.294067383,-28159698.486328125,-19473247.528076172,-12676459.312438965,-3499207.9734802246,-26371.590793132782,6081659.79385376,18797080.993652344,28857004.165649414,28436445.236206055,-28107053.756713867,-22616079.330444336,-16192480.087280273,-642736.7329597473,736322.7009773254,1679941.0581588745,9435436.248779297,12222202.30102539,11913730.62133789,-28100498.19946289,-17088836.669921875,-17792192.459106445,-5095198.154449463,929306.4475059509,3432436.227798462,11429265.975952148,12032277.10723877,12301852.226257324,-23678155.89904785,-23979877.471923828,-5607458.114624023,-3576018.3334350586,14007336.616516113,12510331.153869629,12410010.33782959,-19610183.715820312,-19736555.099487305,-3474219.32220459,12894079.208374023,12629311.561584473
0.135,17213371.27685547,47841609.954833984,68142562.86621094,8726716.995239258,49672725.677490234,-69135093.68896484,-7667377.471923828,-11668047.904968262,8059886.932373047,23984161.376953125,32739433.28857422,44880691.52832031,44918907.165527344,47585998.53515625,-44210758.209228516,-53321067.810058594,-22604980.46875,-203019.1421508789,13991065.979003906,20475128.173828125,31125898.361206055,46182983.3984375,36048892.974853516,-42977741.24145508,-29216678.619384766,-17739599.227905273,-5284811.019897461,-200424.76058006287,7438191.890716553,22088518.142700195,33813591.00341797,35832569.12231445,-42788200.37841797,-31469684.600830078,-23221460.342407227,-1326964.259147644,456303.0004501343,1594369.2922592163,10298748.016357422,11428821.563720703,11090063.095092773,-42731594.08569336,-24118526.458740234,-24875839.233398438,-8144345.283508301,682884.693145752,2782912.7311706543,10416282.653808594,11031265.258789062,11507720.947265625,-33382049.560546875,-33992637.634277344,-11477068.901062012,-7383725.643157959,12992121.696472168,11533232.688903809,11506785.39276123,-26439008.712768555,-26504240.036010742,-7221839.427947998,11841221.809387207,11548734.664916992
0.14,10487565.040588379,43229370.1171875,66411918.64013672,6441111.5646362305,50008213.04321289,-77664237.97607422,-10857106.20880127,-14840967.178344727,7186378.002166748,26309617.99621582,34738300.32348633,45927291.87011719,45973308.56323242,48198951.721191406,-55171176.91040039,-59491146.087646484,-25948301.315307617,-1132649.6601104736,15691555.02319336,22239252.0904541,33353469.848632812,48425209.045410156,34443149.56665039,-54124450.68359375,-36814758.30078125,-21897949.21875,-6974891.662597656,-274647.47428894043,8127522.4685668945,22947107.315063477,34474666.595458984,34135059.35668945,-53810749.05395508,-39858821.868896484,-30945005.416870117,-1827613.9497756958,147221.1480140686,1022437.572479248,10072124.481201172,8270100.5935668945,8010926.246643066,-53822792.053222656,-31763322.830200195,-32699619.29321289,-12227458.953857422,524928.6890029907,2790990.3526306152,7299044.132232666,8057233.810424805,8522658.348083496,-44679561.614990234,-45578117.37060547,-19256361.00769043,-12708167.07611084,9874087.3336792,8491232.872009277,8448651.313781738,-35852241.51611328,-36074893.951416016,-12614321.7086792,8852006.912231445,8502644.538879395
0.145,6389023.780822754,38359699.24926758,60423122.40600586,5607884.883880615,45535598.75488281,-75154113.76953125,-11444523.811340332,-15325242.99621582,6184329.032897949,24884323.120117188,31993312.83569336,40705921.1730957,40797737.12158203,42426849.365234375,-55298542.02270508,-59209339.1418457,-25897062.301635742,-2042026.7581939697,14421099.662780762,19746715.545654297,30323802.947998047,43836460.11352539,28650661.46850586,-54179706.57348633,-37669120.78857422,-22577531.814575195,-7439728.260040283,-182173.2521057129,7330996.036529541,20477495.193481445,31704690.93322754,28388378.143310547,-53910751.34277344,-40703529.357910156,-32079021.453857422,-1748852.6105880737,-8453.252725303173,864800.5127906799,10424301.147460938,7516115.188598633,7293770.313262939,-53943420.41015625,-32750812.530517578,-33802261.35253906,-12549678.802490234,516074.35941696167,5068134.307861328,6832543.849945068,7594990.7302856445,7894952.774047852,-46520019.53125,-47373756.408691406,-20775289.53552246,-13592209.815979004,9223821.640014648,7987244.129180908,7868686.676025391,-37389171.6003418,-37671661.376953125,-13645241.737365723,8392391.204833984,8101601.600646973
0.15,6577739.238739014,35800102.23388672,53666721.34399414,5876194.477081299,39199073.791503906,-67412048.33984375,-10040883.06427002,-13784706.115722656,5682704.448699951,21142911.911010742,26669754.028320312,33751266.47949219,33859451.29394531,35257831.57348633,-46641056.060791016,-55128269.19555664,-23562410.354614258,-2566697.359085083,11392436.027526855,15290744.78149414,24534809.112548828,36630958.557128906,24460315.704345703,-45291362.76245117,-32483852.38647461,-20019796.37145996,-6460674.285888672,-129249.18532371521,5455289.363861084,16519037.246704102,28301460.26611328,24433479.30908203,-45189880.37109375,-34453876.49536133,-26271152.49633789,-1436100.8405685425,-53685.9892308712,737164.1993522644,11268814.086914062,10331044.19708252,10074728.965759277,-45136447.90649414,-26812860.4888916,-27849920.27282715,-8710790.634155273,546571.6123580933,7959682.941436768,10073989.868164062,10557451.248168945,10761936.18774414,-37973133.0871582,-38550590.51513672,-14606630.325317383,-9410258.293151855,12146326.065063477,11075416.564941406,10882621.765136719,-29705186.84387207,-29800693.51196289,-9514451.026916504,11428298.950195312,11264361.381530762
0.155,9219257.354736328,37147716.5222168,52267642.974853516,8129477.500915527,38141345.9777832,-63689029.693603516,-7078941.345214844,-10766855.239868164,8002396.583557129,20768650.05493164,25552961.349487305,32389167.78564453,32542999.267578125,33948699.951171875,-40088726.04370117,-52119731.90307617,-21441431.045532227,-1396708.607673645,11170098.304748535,14585985.18371582,22764263.153076172,34704223.6328125,25414480.209350586,-38739452.36206055,-27814373.016357422,-17364780.42602539,-5044846.057891846,-240080.93774318695,4796980.381011963,15471943.855285645,28097564.697265625,25625366.2109375,-38727947.23510742,-29772827.1484375,-21869657.516479492,-1474462.9859924316,-68693.3770775795,215761.78073883057,11654960.632324219,12989477.157592773,12631728.172302246,-38626426.696777344,-22437547.68371582,-23389047.622680664,-6544915.199279785,589013.7553215027,8081876.754760742,12811430.931091309,13016874.313354492,13315269.470214844,-31150789.260864258,-31537450.790405273,-9770361.90032959,-6537345.886230469,14655710.220336914,13668641.090393066,13451841.354370117,-23734010.696411133,-23660306.930541992,-6530605.792999268,13922688.484191895,13828465.461730957
0.16,11573420.524597168,42472789.7644043,59840469.36035156,12351312.637329102,45432819.36645508,-67091461.181640625,-3664286.1366271973,-7439148.426055908,12767939.567565918,25623329.162597656,31170154.571533203,38962585.44921875,39251674.65209961,40592071.533203125,-43193321.228027344,-53110862.731933594,-21424697.875976562,1285565.4954910278,15217470.169067383,19385353.088378906,28251976.013183594,41471965.78979492,31052455.90209961,-42121212.005615234,-28965141.29638672,-17325939.178466797,-4436211.585998535,-372005.1050186157,6607867.240905762,19445077.896118164,32529846.19140625,31242967.60559082,-42046497.3449707,-32923576.35498047,-25413188.934326172,-1973287.4631881714,-66640.88368415833,-520180.1061630249,11710008.62121582,12369577.407836914,11811834.335327148,-42062324.52392578,-26178800.582885742,-27067308.42590332,-10366195.678710938,672212.1238708496,5083045.959472656,11595461.84539795,11919086.456298828,12359501.838684082,-35853069.30541992,-36246677.39868164,-13708151.817321777,-9804925.918579102,13486711.502075195,12434423.446655273,12250915.52734375,-28192365.646362305,-28216016.76940918,-9666889.190673828,12629378.318786621,12547980.308532715
0.165,13076498.031616211,47739212.03613281,68755348.2055664,16344747.543334961,53402721.4050293,-69060623.16894531,-766402.3041725159,-4702493.190765381,16062423.706054688,30307365.41748047,36943412.78076172,45585319.51904297,45949775.69580078,47071376.80053711,-49113250.732421875,-54780300.14038086,-22259389.877319336,3318552.255630493,19103681.564331055,24133882.522583008,34844673.15673828,49307064.056396484,35283893.58520508,-48249393.463134766,-32193359.375,-18350746.154785156,-4547889.709472656,-354611.1285686493,8561168.670654297,24148372.650146484,37254634.857177734,35196441.650390625,-48101936.34033203,-38553207.39746094,-31884237.28942871,-2438060.2836608887,-48060.666769742966,-1411447.6442337036,11927781.105041504,9798193.93157959,9071174.621582031,-48343997.955322266,-32794193.267822266,-33733402.252197266,-16001886.367797852,681494.5340156555,2212364.1967773438,8316962.242126465,9100934.982299805,9512112.617492676,-45654506.68334961,-46105773.92578125,-21159500.122070312,-15574526.7868042,10520569.801330566,9315242.767333984,9166140.55633545,-37301185.607910156,-37497386.93237305,-15432484.62677002,9472359.657287598,9423768.997192383
0.17,14790293.69354248,46309837.341308594,64785827.63671875,17996484.756469727,50984416.96166992,-57584850.3112793,2487608.6711883545,-1529448.390007019,15572896.003723145,29104124.069213867,34930030.822753906,41684764.86206055,41831180.572509766,42600322.72338867,-43670841.217041016,-49592861.17553711,-20096540.451049805,3483365.535736084,18115116.119384766,22528223.037719727,33246063.232421875,46355384.826660156,30368162.155151367,-42765232.08618164,-28108697.89123535,-15856375.694274902,-3927514.07623291,-259272.84359931946,7281424.999237061,22789928.436279297,35288997.650146484,30033750.534057617,-42700466.15600586,-35765724.182128906,-30662570.95336914,-2371459.9609375,-41100.796312093735,-2907444.477081299,11232572.555541992,7905070.781707764,7318923.9501953125,-43134140.01464844,-31429378.509521484,-32556587.21923828,-15871675.491333008,452688.69400024414,1566923.975944519,6538356.781005859,7635641.574859619,7856602.191925049,-46046112.060546875,-46478473.66333008,-21239048.00415039,-16562553.405761719,9123245.239257812,7838636.39831543,7650216.102600098,-38510166.16821289,-38623233.795166016,-16498304.36706543,7900513.648986816,7900088.787078857
0.175,17206235.885620117,37165370.94116211,45962459.564208984,18177219.39086914,38456565.856933594,-32922233.58154297,7834507.942199707,3861131.6680908203,14114454.26940918,23826847.076416016,26587152.4810791,27705884.93347168,27400402.069091797,27625356.674194336,-24582851.40991211,-35230609.89379883,-13326089.859008789,3367689.371109009,13654876.708984375,15832160.949707031,23145076.751708984,31609525.680541992,16260337.829589844,-23588926.315307617,-14441635.131835938,-8423751.831054688,-1711066.484451294,-279281.5864086151,3023888.349533081,14697212.219238281,25571062.088012695,15915119.171142578,-23745632.17163086,-23076120.376586914,-20458621.978759766,-1884614.9444580078,-54731.65214061737,-5143642.902374268,8048883.438110352,6444434.642791748,6310887.813568115,-24276454.92553711,-20894882.202148438,-22220434.188842773,-9758386.611938477,110046.28241062164,1512521.1477279663,5995897.7699279785,6964923.858642578,7070396.423339844,-34586643.21899414,-34981250.76293945,-13126644.134521484,-11687257.766723633,8799964.904785156,7587596.893310547,7290310.382843018,-29638517.379760742,-29504011.154174805,-11639854.431152344,7530880.928039551,7535247.325897217
0.18,19816492.080688477,28663196.563720703,28820272.44567871,19713405.60913086,28428915.02380371,-10415313.720703125,14788100.242614746,10821256.637573242,15752527.236938477,21284406.661987305,21032953.2623291,15791935.920715332,15204700.469970703,14701010.704040527,-6382561.206817627,-19839679.718017578,-5680154.800415039,5013187.408447266,11276778.221130371,11270087.242126465,14231842.994689941,17655176.162719727,2831550.359725952,-5440905.570983887,-751124.6800422668,-661666.3336753845,1073869.5859909058,-415627.1517276764,-432222.6047515869,6813035.011291504,15525179.862976074,2592948.1983184814,-5793980.121612549,-11307141.304016113,-11722421.646118164,-1550970.196723938,-56403.41341495514,-7368510.723114014,3384921.073913574,3768604.7554016113,3961602.9262542725,-6363789.5584106445,-11998406.410217285,-13333219.528198242,-5267775.058746338,40718.71191263199,97166.81391000748,4003849.506378174,4661605.8349609375,4855302.810668945,-24238321.30432129,-24693992.614746094,-7086626.052856445,-7089393.138885498,6781164.646148682,5666382.789611816,5280823.230743408,-21195671.08154297,-21054826.736450195,-6961519.718170166,5627407.550811768,5600188.732147217
0.185,21769582.748413086,28574419.021606445,27713441.848754883,23161933.89892578,29161161.422729492,-3786118.745803833,20070108.41369629,15943252.563476562,19960403.442382812,23847229.00390625,22580883.026123047,14278290.748596191,13861367.225646973,12650458.335876465,-2219616.413116455,-13684072.494506836,-2243895.2922821045,7746845.245361328,13086787.223815918,12366004.943847656,13362417.221069336,14789484.024047852,-1579508.5430145264,-1351800.3225326538,3136486.768722534,2219512.939453125,2809662.5804901123,-481213.7186527252,-823926.0911941528,4870208.740234375,12078275.680541992,-1805989.0270233154,-1752202.6300430298,-9362234.115600586,-12133033.752441406,-1675267.5771713257,-37032.13483095169,-8670879.364013672,570818.1262016296,605038.4044647217,674091.1602973938,-2338540.554046631,-12573509.216308594,-13689236.640930176,-6871625.4234313965,369625.2703666687,-1417410.6121063232,713674.4856834412,1275141.1199569702,1594636.6786956787,-24798171.997070312,-25403108.596801758,-9391045.570373535,-7486715.793609619,3323174.9534606934,2165613.1744384766,1762779.2358398438,-21336935.04333496,-21510915.756225586,-7246941.089630127,2346445.5604553223,2292044.4011688232
0.19,21838956.832885742,32927204.132080078,35123226.165771484,25401552.200317383,33707828.521728516,-9832516.67022705,21004947.662353516,16703947.067260742,22397752.76184082,26659547.805786133,25509548.18725586,17531946.182250977,17509159.088134766,15842459.678649902,-7806846.141815186,-17075071.334838867,-3331725.3589630127,8990307.807922363,15366960.525512695,14875443.458557129,16051599.502563477,18214632.034301758,-491535.2165699005,-6877416.133880615,-866395.9503173828,819414.9732589722,3244463.6821746826,-416198.07481765747,31217.73712337017,6519577.503204346,13104944.229125977,-779308.557510376,-7202371.120452881,-13157689.094543457,-16385046.005249023,-1963814.7354125977,-48091.63883328438,-8870864.868164062,1282762.5274658203,-517670.1545715332,-742538.1541252136,-7773202.419281006,-17088022.232055664,-17952220.916748047,-9980545.043945312,688848.4358787537,-538202.3453712463,-654154.4198989868,30681.373551487923,273553.40123176575,-30057863.235473633,-30766078.94897461,-14065585.136413574,-10624901.77154541,1795307.0402145386,502793.01404953003,110736.13166809082,-25887132.64465332,-26296436.309814453,-10276753.425598145,933679.6998977661,844090.99817276
0.195,19090169.90661621,31771255.493164062,33931560.51635742,23766557.693481445,31421955.108642578,-15062097.549438477,18473550.79650879,14214160.919189453,20905788.42163086,25114053.72619629,23437856.674194336,15991909.02709961,16125072.479248047,14295746.803283691,-10235108.375549316,-21508749.00817871,-5087271.690368652,7756133.079528809,14412981.986999512,13761860.847473145,14690878.868103027,17070787.42980957,-2401537.1799468994,-9213000.297546387,-3749934.196472168,-433716.9826030731,3203243.9708709717,-390393.4359550476,-363870.85914611816,6281615.734100342,12045068.740844727,-2652141.0942077637,-9462013.244628906,-13514407.15789795,-15367016.792297363,-2025346.279144287,-112653.91856431961,-8405410.766601562,3680609.4646453857,953605.6518554688,743338.3464813232,-9962484.359741211,-16176309.585571289,-16968193.05419922,-8783926.963806152,563353.1212806702,2507158.2794189453,1242737.2932434082,1994373.4407424927,1959215.0449752808,-29091543.197631836,-29760221.481323242,-13078584.671020508,-11829973.220825195,3567346.5728759766,2263907.6709747314,1888922.8105545044,-26578680.03845215,-26859287.26196289,-11389341.354370117,2729115.2477264404,2596772.1939086914
0.2,15093360.900878906,24964881.896972656,24071256.637573242,20224412.91809082,24378293.991088867,-13803914.070129395,15709476.470947266,11591227.531433105,17875904.083251953,21176391.6015625,18700325.01220703,10723025.32196045,10692645.072937012,8889011.38305664,-7074953.556060791,-21877187.728881836,-5514158.248901367,5697928.428649902,11651913.6428833,10419351.577758789,10487628.936767578,11362282.752990723,-6769876.956939697,-6120288.372039795,-2723746.2997436523,-228934.06450748444,2918025.016784668,-502825.43897628784,-1513686.7761611938,4284983.6349487305,8722743.034362793,-6873426.914215088,-6378038.40637207,-10208259.582519531,-10295506.477355957,-1919639.229774475,-130382.79116153717,-7828946.113586426,5189498.9013671875,2729855.0605773926,2796765.5658721924,-6759624.481201172,-11090443.61114502,-12013785.362243652,-5377774.715423584,166909.93309020996,5008759.97543335,3681394.338607788,4372288.227081299,4085296.630859375,-23371828.079223633,-23926498.413085938,-8466730.117797852,-10823699.951171875,5853154.65927124,4732223.5107421875,4451552.867889404,-23516815.185546875,-23549840.927124023,-10382092.475891113,4966861.724853516,4878936.290740967
0.205,13794922.828674316,23226566.314697266,22049793.243408203,19221263.885498047,23389396.66748047,-11948362.350463867,14960942.268371582,10718246.459960938,16338615.417480469,19711051.94091797,17829561.233520508,10336198.806762695,10207671.165466309,8529962.539672852,-6694490.909576416,-21356466.29333496,-6312577.247619629,4681895.732879639,10925786.018371582,9725005.149841309,10723774.909973145,10867684.364318848,-5241438.388824463,-5927303.791046143,-2844223.2608795166,-1245434.6418380737,1987915.1582717896,-592380.2852630615,-1484863.4004592896,5120190.143585205,9308460.235595703,-5257851.600646973,-6254783.153533936,-10618852.615356445,-10055985.450744629,-1970306.634902954,13879.893347620964,-7798451.900482178,5274994.850158691,2616792.4404144287,2757259.3688964844,-6515191.078186035,-10853482.246398926,-12015414.237976074,-6107335.567474365,73675.99755525589,5147524.833679199,3438852.310180664,4134271.6217041016,3797307.7297210693,-23365360.260009766,-23904783.248901367,-8139511.1083984375,-10895815.8493042,5454051.494598389,4504601.955413818,4422850.131988525,-23277957.916259766,-23315046.310424805,-10606975.555419922,4441557.40737915,4533884.525299072
0.21,17164213.180541992,31449699.40185547,33853645.32470703,21861070.63293457,30336437.225341797,-13777709.007263184,16224725.723266602,11566699.981689453,16377853.393554688,21309253.692626953,21099672.317504883,16203516.006469727,16308187.484741211,14798488.61694336,-11819854.736328125,-23075849.533081055,-8241621.017456055,4855402.946472168,12787274.360656738,12311985.969543457,16308002.471923828,18470485.68725586,3468401.4320373535,-11157109.260559082,-6252915.859222412,-4142765.998840332,891795.9928512573,-521196.96140289307,-505744.0996170044,9235069.274902344,15546719.551086426,3396450.0427246094,-11534398.078918457,-16383085.250854492,-16576520.919799805,-2230391.74079895,224284.42537784576,-8946752.548217773,4597445.487976074,701857.2092056274,586576.2829780579,-11722675.323486328,-17343471.52709961,-18780086.517333984,-11303379.05883789,429936.021566391,3389808.416366577,600209.5937728882,1431051.49269104,1211082.5777053833,-31097248.077392578,-31791389.46533203,-13140880.584716797,-12981972.694396973,2605670.690536499,1598060.131072998,1676998.7344741821,-27434675.216674805,-27667819.97680664,-12900687.217712402,1405466.6757583618,1656929.0161132812
0.215,22090965.270996094,40121929.16870117,44475074.768066406,24793701.171875,35027622.22290039,-14394559.860229492,18543447.494506836,13641315.460205078,16647668.838500977,22479856.491088867,22631008.14819336,19900224.685668945,20307533.264160156,18903993.606567383,-14199056.625366211,-23624588.012695312,-8607229.232788086,5524308.204650879,14331724.166870117,14043797.492980957,19708751.678466797,24623050.689697266,9313877.10571289,-13511310.577392578,-7732571.601867676,-5266014.575958252,996382.474899292,-452467.26274490356,-591717.4220085144,11270680.42755127,20646352.767944336,9142221.450805664,-13881855.964660645,-19962488.174438477,-21438806.533813477,-2446340.0840759277,238046.24378681183,-11089570.999145508,3386586.4276885986,-1337764.9784088135,-1643611.192703247,-14055876.731872559,-22032503.128051758,-23712991.71447754,-14535060.88256836,733485.2814674377,1142040.1334762573,-2039180.5171966553,-1141766.3097381592,-1231615.662574768,-36583374.0234375,-37447010.0402832,-16390033.721923828,-14274381.637573242,167605.4298877716,-1073312.4017715454,-1048062.2053146362,-30158849.716186523,-30452686.309814453,-14281984.329223633,-1185869.2169189453,-985542.9530143738
0.22,24182886.123657227,39238864.89868164,40839153.28979492,25524301.528930664,31308437.34741211,-8635883.331298828,21336475.372314453,16645595.55053711,17337127.685546875,21886770.248413086,20147159.576416016,16448381.423950195,16815687.17956543,15355288.5055542,-8279203.414916992,-19045207.977294922,-5509442.329406738,6602608.203887939,14031980.514526367,12794841.766357422,16497369.766235352,21596637.725830078,5277225.494384766,-7593773.84185791,-3477440.595626831,-2241688.4899139404,2589094.1619873047,-575872.6000785828,-2087325.5729675293,8342943.19152832,18959096.908569336,5055008.411407471,-7945210.933685303,-16321727.752685547,-18734231.94885254,-2478855.848312378,2340.0576319545507,-12945698.738098145,2071049.451828003,-1910471.0817337036,-2090260.9825134277,-8135043.144226074,-19117017.74597168,-20893959.045410156,-12323584.55657959,603020.0123786926,-433332.4730396271,-2230154.7527313232,-1469220.2806472778,-1521075.8447647095,-33242885.58959961,-34065208.435058594,-13968122.482299805,-13071825.981140137,198868.0511713028,-1201763.9875411987,-1413825.6311416626,-27983238.220214844,-28178674.697875977,-13050073.623657227,-1207320.8093643188,-1174711.5850448608
0.225,23642532.348632812,32838298.797607422,30945213.317871094,25894514.083862305,26084926.60522461,64751.72936916351,24415737.15209961,20040052.41394043,19550716.400146484,22134399.4140625,18218656.539916992,11470844.268798828,11497545.24230957,9828734.397888184,-79488.26253414154,-11997018.814086914,-1273767.590522766,8337781.90612793,13695444.107055664,11346946.716308594,11768815.040588379,14418203.353881836,-2375770.330429077,490453.8094997406,2603640.7947540283,2081029.4151306152,4300837.03994751,-674238.3241653442,-2987253.9043426514,4650303.840637207,14004284.858703613,-2615391.492843628,114432.52116441727,-10201556.205749512,-13367926.597595215,-2397189.8555755615,-135443.0764913559,-13300748.825073242,1710638.8807296753,-755701.8399238586,-782088.9949798584,-113568.19421052933,-13705800.05645752,-15378226.280212402,-8990445.137023926,386697.59035110474,-807774.9013900757,-386938.4825229645,180822.75986671448,108967.3712849617,-27163715.362548828,-27724777.221679688,-10683670.043945312,-11644246.101379395,2017332.0770263672,673224.5087623596,256015.24114608765,-25183666.229248047,-25434625.62561035,-11661076.545715332,608552.6347160339,648796.6775894165
0.23,24394714.35546875,31765975.952148438,29820728.302001953,28519294.73876953,27540773.391723633,5442606.9259643555,27597354.888916016,23200893.40209961,22825721.740722656,24818727.493286133,20397876.739501953,11735251.426696777,11552752.494812012,9651101.112365723,3134207.010269165,-7511159.420013428,1249024.9872207642,10464756.01196289,15119647.979736328,12449217.796325684,11804935.455322266,12161146.16394043,-3869363.784790039,3612180.233001709,5523706.436157227,4135400.2952575684,5227984.428405762,-349231.481552124,-1979264.497756958,4921708.106994629,12406172.752380371,-4089179.039001465,3175776.720046997,-7652962.207794189,-12321735.382080078,-2184044.122695923,157245.35286426544,-12324825.286865234,2174461.1263275146,472633.421421051,291607.43951797485,2861395.1206207275,-12753350.257873535,-14236341.47644043,-9576587.677001953,627721.2500572205,-836890.1610374451,853246.2120056152,1358923.9120483398,1347296.953201294,-26167972.564697266,-26487628.936767578,-11882032.39440918,-12641918.182373047,2969445.9438323975,1823985.4574203491,1372529.38747406,-26281417.846679688,-26847259.521484375,-12854804.039001465,1579828.8583755493,1854018.5689926147
0.235,27934669.494628906,37551628.11279297,37124221.80175781,32167858.123779297,32905223.846435547,7633378.028869629,30477128.982543945,25923465.728759766,25283929.8248291,27584075.927734375,23794338.22631836,15743795.394897461,15692454.33807373,13688706.398010254,3760871.171951294,-5297182.083129883,3095157.6232910156,12422824.85961914,17335685.72998047,14732012.748718262,15237244.606018066,15195614.8147583,688715.4579162598,4335305.690765381,6740608.215332031,4856214.52331543,6217788.219451904,297894.3884372711,-158589.27369117737,7632576.465606689,14430502.891540527,595396.2206840515,3860929.7275543213,-6846302.9861450195,-13974776.268005371,-1730741.6200637817,665480.4944992065,-11189225.196838379,1641638.2789611816,-476351.14192962646,-962977.2305488586,3408354.2823791504,-14430641.174316406,-15792615.89050293,-12387117.385864258,1164461.8511199951,-2455386.161804199,-771259.7250938416,-220528.37908267975,-19449.347630143166,-27775987.62512207,-28075117.111206055,-15285969.734191895,-15120814.323425293,1048828.9594650269,102622.26313352585,-284183.0253601074,-28679174.423217773,-29494388.580322266,-15540462.493896484,-192315.9807920456,231325.77538490295
0.24,31484344.482421875,43111644.74487305,42229511.26098633,33601490.02075195,35270641.3269043,9784916.877746582,32169891.357421875,27846569.061279297,25973192.21496582,27965553.283691406,24648168.563842773,18911952.97241211,19070764.541625977,17217254.638671875,6827681.541442871,-2539672.8515625,6185663.70010376,13799387.93182373,18453451.15661621,15740875.244140625,17360181.80847168,18264326.095581055,5046997.547149658,7631203.174591064,9477091.789245605,6656013.011932373,7848250.389099121,620554.1491508484,968785.1071357727,8784484.86328125,16180282.592773438,5142913.341522217,7174290.657043457,-3571316.0037994385,-12642913.818359375,-1223951.5781402588,818800.8666038513,-10555807.113647461,-245405.4355621338,-3482091.9036865234,-4042600.631713867,6583852.767944336,-13021517.753601074,-14323428.1539917,-12526320.457458496,1275131.7024230957,-5982581.13861084,-4408591.270446777,-3798852.2052764893,-3392623.4245300293,-25714937.210083008,-26161411.28540039,-15556337.356567383,-16626220.703125,-2695718.0500030518,-3512941.837310791,-3875542.402267456,-27970073.699951172,-28681173.32458496,-17092000.96130371,-3624478.578567505,-3373257.875442505
0.245,32950881.958007812,46537158.96606445,44786582.946777344,32945293.426513672,36426963.806152344,9441129.684448242,31678749.084472656,27909929.275512695,25694648.74267578,27519657.135009766,24994338.989257812,22499256.134033203,22654464.721679688,21218379.974365234,8235174.179077148,-1649775.8626937866,8144351.005554199,14164149.284362793,18620567.321777344,16336988.44909668,18883987.426757812,21417242.0501709,8935983.657836914,9164668.083190918,10704117.774963379,7731185.9130859375,8503550.52947998,277258.0087184906,1627177.9537200928,9194537.162780762,18029764.17541504,9085888.862609863,8751272.201538086,-1186378.7174224854,-9863945.007324219,-1152908.5636138916,468744.57597732544,-10099421.501159668,-601488.3518218994,-5475460.529327393,-5844079.01763916,8081085.205078125,-10243928.909301758,-11446178.436279297,-10302776.336669922,728726.0293960571,-8563095.092773438,-6630001.544952393,-5906989.574432373,-5571400.6423950195,-23216850.28076172,-23804683.685302734,-13728075.981140137,-17781496.047973633,-4912310.1234436035,-5689971.446990967,-6098963.260650635,-27058929.443359375,-27497331.619262695,-18162033.081054688,-5629079.341888428,-5681974.8878479
0.25,34260387.4206543,53172550.201416016,54317863.46435547,33838226.318359375,43416133.880615234,1823321.9385147095,29320285.79711914,25771678.924560547,25665159.225463867,29515836.715698242,29171506.881713867,30372779.846191406,30397642.135620117,29461755.752563477,265999.10855293274,-7538250.923156738,5083673.000335693,13330523.490905762,19515211.10534668,19020338.05847168,23939311.981201172,28848075.86669922,16957321.166992188,1080055.1176071167,5006246.566772461,4325566.76864624,6474633.693695068,-219890.69879055023,2854497.4327087402,12653179.168701172,23638700.485229492,16944831.84814453,679344.7732925415,-6715209.9609375,-12940245.628356934,-1683454.8711776733,136068.80605220795,-9416077.613830566,2716949.701309204,-4278116.703033447,-4478044.033050537,2246.029442176223,-13442493.438720703,-14528372.764587402,-11090093.612670898,164311.31958961487,-7328986.644744873,-5542825.698852539,-4621901.512145996,-4634132.385253906,-29318620.681762695,-29985797.882080078,-16062204.360961914,-21295509.338378906,-3863139.3909454346,-4705813.407897949,-5164598.46496582,-32677013.397216797,-33065891.26586914,-21601682.662963867,-4760902.404785156,-4913827.419281006
0.255,37571880.34057617,63128047.943115234,70088027.95410156,37782787.32299805,54636623.38256836,-9100769.996643066,27397741.317749023,23478410.720825195,26431297.302246094,33837886.810302734,35935775.75683594,39635074.615478516,39664325.71411133,38978305.81665039,-13593554.496765137,-17265172.958374023,-937503.0398368835,12285308.837890625,21659360.885620117,23186597.82409668,31136400.22277832,38216373.443603516,26812936.782836914,-13022049.903869629,-5086933.612823486,-2069738.1496429443,3306766.5100097656,-151136.32380962372,4503731.250762939,18148241.04309082,31071292.877197266,26626211.166381836,-13462836.265563965,-18253240.58532715,-22512237.548828125,-2292461.156845093,303733.6766719818,-8601844.787597656,6863918.304443359,-1851459.7415924072,-2037071.943283081,-14077003.479003906,-23054569.244384766,-24134532.928466797,-16842807.76977539,211678.20692062378,-3516970.634460449,-3297591.4478302,-2267519.71244812,-2547415.018081665,-42787239.07470703,-43505676.26953125,-23875265.12145996,-26399822.235107422,-1657748.3415603638,-2656646.728515625,-3100211.1434936523,-43265815.73486328,-43871299.743652344,-26687784.19494629,-2968115.3297424316,-3019449.234008789
0.26,40600894.927978516,67013511.657714844,76730781.55517578,41109653.47290039,59072551.72729492,-12343488.693237305,27868947.982788086,23576650.619506836,27642246.24633789,36656417.84667969,38895980.83496094,41888622.28393555,42071857.45239258,41197895.05004883,-20055355.072021484,-20761707.305908203,-2891168.3559417725,12593759.536743164,23597423.553466797,25138605.11779785,33344844.818115234,40267154.693603516,28769851.684570312,-19634702.682495117,-10230587.95928955,-5089105.129241943,2557450.771331787,435280.82966804504,5377255.439758301,19755424.49951172,32455326.080322266,28620658.87451172,-20134078.979492188,-24747518.53942871,-29354421.615600586,-2343635.082244873,753993.3323860168,-7767586.708068848,7189153.671264648,-1565259.9334716797,-1746292.7103042603,-20607984.54284668,-29754190.44494629,-30943161.010742188,-22265943.52722168,656260.7884407043,-1021878.6001205444,-2945467.233657837,-2075082.540512085,-2275537.9676818848,-50099613.189697266,-50796436.30981445,-30043809.89074707,-27969957.35168457,-1216666.340827942,-2382944.345474243,-2720755.3386688232,-47828014.3737793,-48580638.88549805,-28247234.344482422,-2656887.2928619385,-2702789.783477783
0.265,38627540.588378906,58331359.86328125,64750434.87548828,39025478.36303711,50787197.11303711,-5113822.937011719,29202278.13720703,25144287.109375,27799652.099609375,34865467.0715332,34586280.822753906,34216278.076171875,34481811.5234375,33191764.83154297,-13796388.626098633,-14473083.49609375,1421435.7137680054,13962125.778198242,23495885.848999023,22774457.931518555,27380659.103393555,31368041.9921875,19392820.358276367,-13364578.247070312,-6772804.737091064,-2153970.241546631,4917797.565460205,839820.8618164062,4939029.216766357,15228028.297424316,24947158.813476562,19413141.25061035,-13879717.826843262,-20321462.631225586,-26322237.014770508,-1845739.3646240234,930151.0453224182,-6644554.138183594,4021550.178527832,-3031205.177307129,-3144685.983657837,-14165532.112121582,-26605144.500732422,-27843290.328979492,-21415287.017822266,859078.3476829529,-1093384.1466903687,-3820085.048675537,-3243176.6986846924,-3220987.319946289,-42765220.642089844,-43294517.517089844,-27821939.46838379,-22923423.767089844,-1937293.8871383667,-3171956.777572632,-3348926.544189453,-39690940.856933594,-40308876.037597656,-23187183.380126953,-3029241.8003082275,-3282936.5730285645
0.27,30545545.57800293,43110057.83081055,44396320.34301758,31221937.17956543,36921150.20751953,1619659.7814559937,27380235.67199707,23951078.414916992,24892013.549804688,29132984.161376953,26447910.30883789,23447851.181030273,23611600.875854492,22127985.00061035,-4796593.66607666,-7385669.231414795,5527118.20602417,13652283.668518066,20771060.943603516,18023426.055908203,18862833.02307129,19745506.286621094,8191339.492797852,-4308686.256408691,-1707062.6020431519,1707789.8979187012,6893134.117126465,711066.5440559387,3945758.34274292,9880731.582641602,16183368.682861328,8264391.899108887,-4755748.748779297,-12037925.720214844,-17849967.95654297,-1349930.5248260498,746557.354927063,-5090507.984161377,2466641.426086426,-2619028.091430664,-2741647.243499756,-4910393.714904785,-18244274.139404297,-19336967.46826172,-15267166.137695312,712782.6809883118,-1313599.4672775269,-2641250.8487701416,-2174800.8728027344,-2149076.223373413,-28928682.327270508,-29234695.434570312,-19521121.978759766,-15047154.426574707,-767459.2137336731,-1911404.9673080444,-1978425.145149231,-26037073.135375977,-26423625.946044922,-15326551.43737793,-1428104.6390533447,-1861873.3882904053
0.275,20875581.741333008,32581260.681152344,32918029.78515625,22243724.822998047,28751823.42529297,-2502624.51171875,21066951.751708984,17993030.548095703,18913305.282592773,22790128.707885742,20442136.764526367,18361785.888671875,18351966.857910156,17145811.080932617,-4212738.990783691,-9104232.788085938,3087929.9640655518,9826573.371887207,16523450.85144043,14345504.760742188,15432037.353515625,15893228.530883789,6432811.260223389,-3734573.1258392334,-2521626.7108917236,877476.3941764832,5361708.641052246,424484.7297668457,3506482.8395843506,9759361.267089844,15234733.581542969,6396987.9150390625,-4033427.2384643555,-9791924.476623535,-13450910.568237305,-1238822.2217559814,602277.0404815674,-3523040.533065796,5221643.924713135,1090266.5853500366,820373.1775283813,-4221517.086029053,-14051376.342773438,-14889270.782470703,-10076412.200927734,671883.4042549133,22821.65363430977,1356557.011604309,1947004.0798187256,1801760.4351043701,-22322210.31188965,-22556535.720825195,-13161677.360534668,-10606448.17352295,2997476.33934021,2054908.9908599854,1952364.444732666,-19044610.97717285,-19377939.224243164,-10910691.261291504,2422072.649002075,2082277.774810791
0.28,15459386.825561523,30941780.09033203,35216766.357421875,17005313.873291016,29888341.903686523,-13561494.827270508,14173162.460327148,10982141.494750977,13248112.678527832,19029640.197753906,19415571.212768555,21335651.397705078,21216262.817382812,20577033.99658203,-10451883.316040039,-17317050.93383789,-3466753.0059814453,4602625.846862793,13007887.840270996,13460013.389587402,18538837.432861328,21181568.145751953,14266312.599182129,-10023883.819580078,-7486008.167266846,-3564847.707748413,1577775.8359909058,366837.59093284607,4101765.1557922363,14352903.366088867,21874135.971069336,14143981.93359375,-10137862.205505371,-13899365.425109863,-15675971.031188965,-1444416.4037704468,661939.2037391663,-2469439.0296936035,9282522.201538086,5345868.110656738,4984459.400177002,-10511636.734008789,-16288425.44555664,-16982522.96447754,-9727888.107299805,910127.1629333496,1582536.6973876953,5268383.979797363,5946347.713470459,5813181.8771362305,-25372220.993041992,-25731710.43395996,-12715398.788452148,-10723703.384399414,6653356.552124023,5879879.951477051,5665997.9820251465,-21244657.516479492,-21689815.521240234,-10994821.548461914,5912755.489349365,5854600.90637207
0.285,15820715.90423584,34060867.30957031,42824981.689453125,16568115.234375,35599380.49316406,-20293836.59362793,11424332.618713379,8048252.105712891,11440820.693969727,18759614.944458008,21986890.79284668,28255437.85095215,28111108.779907227,27922412.872314453,-14659809.112548828,-22720058.44116211,-7137122.631072998,1809742.3315048218,11996314.04876709,14668087.005615234,23745861.053466797,28854694.366455078,22876630.783081055,-14259082.794189453,-10072036.743164062,-6575325.489044189,-919175.3268241882,344769.150018692,5320943.832397461,18531293.869018555,28502801.8951416,22786838.53149414,-14219212.532043457,-17466468.811035156,-19223077.77404785,-1786702.9905319214,608596.7421531677,-1963102.8175354004,10965049.743652344,7363181.591033936,7134124.755859375,-14774711.608886719,-19606035.232543945,-20406093.59741211,-12365829.467773438,1002845.7641601562,2155786.2758636475,6830955.028533936,7412566.184997559,7508496.284484863,-29536384.58251953,-30030712.127685547,-15006539.344787598,-11164272.30834961,8099868.7744140625,7336857.795715332,7147330.284118652,-24771179.19921875,-25278175.354003906,-11322615.623474121,7320228.576660156,7447698.593139648
0.29,17292747.497558594,35104259.4909668,45031906.12792969,17315971.37451172,38632507.32421875,-19915660.858154297,12280087.4710083,9018636.703491211,12433417.320251465,19639060.974121094,24090364.456176758,32516452.78930664,32412639.617919922,32252315.521240234,-14221649.169921875,-22255090.713500977,-6216538.429260254,2071243.0477142334,12736577.987670898,15705011.367797852,26029262.54272461,31953382.49206543,24907155.990600586,-13853779.792785645,-8959403.991699219,-6509141.92199707,-977135.1218223572,32485.969364643097,6095198.154449463,18937639.236450195,29394950.86669922,24865858.07800293,-13752300.262451172,-17176992.416381836,-19711900.71105957,-2155427.6943206787,255988.9554977417,-1589604.2585372925,10544133.186340332,7435074.806213379,7415664.6728515625,-14314331.0546875,-19843429.565429688,-20921203.61328125,-14082083.702087402,635852.8137207031,3022721.529006958,6895743.846893311,7406569.480895996,7542670.726776123,-28806592.94128418,-29280113.220214844,-15635332.107543945,-9229648.59008789,8112594.6044921875,7234815.1206970215,7280542.373657227,-23403314.5904541,-23833019.256591797,-9231346.130371094,7494405.746459961,7588172.435760498
0.295,12958473.205566406,27756879.806518555,35241069.79370117,14045103.073120117,33169349.670410156,-18812501.907348633,11778377.532958984,8903340.339660645,11412767.41027832,17554954.528808594,21211948.39477539,28405321.12121582,28393806.45751953,27775522.232055664,-13239134.788513184,-20352159.50012207,-4854961.395263672,2299727.9167175293,12124390.602111816,13979228.019714355,22794179.916381836,27132484.436035156,18620197.296142578,-12952706.336975098,-8057020.18737793,-5893363.475799561,-426349.9975204468,-352979.30240631104,5459590.911865234,15821813.583374023,24194227.21862793,18566041.946411133,-12883406.639099121,-15432269.096374512,-17772815.704345703,-2282673.5973358154,-24274.976924061775,-843038.5589599609,9844243.049621582,6676901.340484619,6674032.688140869,-13252778.053283691,-17797569.274902344,-19066968.91784668,-13084229.469299316,192624.83716011047,5101626.873016357,6599147.796630859,7251207.8285217285,7049025.058746338,-24930807.11364746,-25261220.932006836,-13999919.891357422,-6963292.598724365,7707421.779632568,6773540.97366333,7037318.229675293,-18891899.10888672,-19182664.87121582,-6797942.638397217,7210565.090179443,7179327.011108398
0.3,979411.780834198,10082932.472229004,13616907.119750977,5359436.511993408,18612424.850463867,-20036434.173583984,7459238.529205322,5053458.690643311,6350057.125091553,11016408.920288086,12425511.360168457,15603403.091430664,15663544.654846191,14306756.019592285,-12996707.916259766,-19368717.193603516,-5211956.024169922,414402.3656845093,8255228.9962768555,8919137.954711914,14831741.333007812,15350255.966186523,6445823.192596436,-12750863.075256348,-8759613.990783691,-6217663.288116455,-767804.205417633,-307301.67031288147,3704421.7586517334,10994886.39831543,15436620.712280273,6396992.6834106445,-12730497.360229492,-13701106.071472168,-14994777.67944336,-1806768.4173583984,187436.96808815002,630695.2834129333,8548902.51159668,4593170.642852783,4410499.095916748,-12865687.370300293,-15024629.592895508,-16161108.016967773,-9908316.612243652,255978.19685935974,6237603.187561035,5042564.868927002,5834333.419799805,5316736.698150635,-20523319.244384766,-20686845.779418945,-11865017.890930176,-6770553.5888671875,6014440.536499023,5219683.647155762,5410335.540771484,-15235502.243041992,-15355069.160461426,-6461066.246032715,5512895.584106445,5418660.640716553
0.305,-11723977.088928223,-9141920.08972168,-8425558.090209961,-3489146.7094421387,3694920.539855957,-19687122.344970703,2748751.8787384033,753552.7944564819,1390856.9812774658,4165089.1304016113,3519354.3434143066,2790416.479110718,2815483.570098877,897664.9045944214,-10412698.745727539,-16937496.185302734,-4745258.808135986,-1684679.627418518,3501752.8533935547,3833810.0910186768,7155133.247375488,3563922.166824341,-4826371.192932129,-10030621.528625488,-8229632.377624512,-6041077.613830566,-1393655.6577682495,164424.3597984314,2515663.1469726562,7130270.957946777,7506450.653076172,-4792866.7068481445,-9988089.561462402,-10381927.490234375,-11240738.868713379,-844541.6688919067,687412.440776825,2577748.7754821777,5961149.6925354,1139527.9169082642,854385.5547904968,-10035657.88269043,-11311769.485473633,-12019224.166870117,-6084372.043609619,755547.5831031799,4027474.880218506,1813645.839691162,2413449.764251709,2034895.658493042,-15041796.684265137,-15036453.247070312,-10223881.721496582,-7497630.596160889,2669973.373413086,2133594.9897766113,2029850.4829406738,-12745233.535766602,-12622735.023498535,-7131571.292877197,2226467.8478240967,2123144.6266174316
0.31,-15662750.244140625,-14461144.44732666,-13308983.80279541,-5181996.3455200195,1415744.0662384033,-16548772.811889648,2160907.506942749,383324.65291023254,1830250.2632141113,3188179.4929504395,2718183.994293213,1762713.7899398804,1701793.909072876,-160496.0560798645,-5725674.152374268,-13117346.76361084,-1866791.3675308228,-1002228.9752960205,2386955.2612304688,3453940.8683776855,6189890.8615112305,1681482.6726913452,-5998975.2769470215,-5076422.214508057,-5451056.480407715,-4422676.563262939,-1135409.1167449951,478646.2187767029,3231027.126312256,7221763.134002686,5805893.898010254,-5887539.386749268,-4954986.572265625,-5837923.526763916,-7332137.107849121,-152966.87185764313,872108.8171005249,3790729.522705078,3884358.1676483154,-1231320.0235366821,-1377824.306488037,-5067090.5113220215,-7488075.733184814,-7781877.517700195,-3702082.872390747,1028133.1539154053,-341655.7312011719,-760021.8057632446,-589826.1070251465,-528616.189956665,-9181362.15209961,-9044332.504272461,-9353914.260864258,-6969838.1423950195,-57049.33404922485,-402622.3421096802,-662848.5918045044,-10188215.255737305,-9849356.651306152,-6668974.39956665,-291151.0169506073,-447831.1836719513
0.315,-10001878.73840332,-2004348.7548828125,2722795.009613037,898724.9732017517,13913520.812988281,-16273433.685302734,5109855.651855469,3302377.462387085,7138608.455657959,8768790.245056152,10834798.812866211,13784664.154052734,13754301.071166992,12508887.29095459,-4215456.008911133,-12584914.207458496,700976.312160492,2222695.1122283936,5923971.176147461,8173336.982727051,12547211.647033691,11679753.303527832,5040286.540985107,-3399172.782897949,-3795410.633087158,-2879909.038543701,31534.29925441742,258140.23613929749,4988791.465759277,11148329.734802246,11248268.127441406,5152370.452880859,-3243580.3413391113,-3885643.482208252,-6013858.318328857,-307358.7119579315,528650.5818367004,3044242.3820495605,4150154.5906066895,-524610.3405952454,-454301.98311805725,-3388509.750366211,-6313724.517822266,-6476655.960083008,-4278868.675231934,700004.2200088501,-3620797.634124756,-578513.503074646,-625768.1846618652,-288667.4702167511,-6616798.877716064,-6507873.53515625,-9698743.82019043,-5616294.384002686,-39119.284600019455,-330521.73256874084,-440189.33176994324,-8245354.652404785,-7938212.3947143555,-5424724.102020264,-107651.46464109421,-368889.9874687195
0.32,-5131922.245025635,10394265.174865723,18421875.0,6232573.03237915,25734792.709350586,-22277656.55517578,6462011.337280273,4589670.658111572,11136550.903320312,13917258.262634277,18099037.170410156,24988201.141357422,25123094.55871582,24410243.98803711,-8174853.324890137,-17039125.442504883,220463.30571174622,4554065.227508545,9528400.421142578,12197690.0100708,18015686.03515625,21552740.0970459,16675827.026367188,-7425922.393798828,-5790654.65927124,-2909416.437149048,1147898.4355926514,-197111.23406887054,5320544.242858887,13637955.665588379,16081079.483032227,16759887.6953125,-7313343.524932861,-6048887.729644775,-7729860.782623291,-883106.1720848083,58486.97945475578,899799.8237609863,4872348.785400391,1263649.821281433,1392644.2861557007,-7342265.1290893555,-8160033.226013184,-8395208.358764648,-6398776.531219482,149895.02727985382,-4495204.925537109,746991.0383224487,869638.5025978088,1197477.102279663,-7995463.848114014,-8081361.770629883,-10496329.307556152,-4672555.446624756,1354483.723640442,1061689.6152496338,1153057.4560165405,-7382742.881774902,-7374938.488006592,-4528800.010681152,1248648.6434936523,933788.3591651917
0.325,-11225406.646728516,1992994.5468902588,9179994.583129883,2099315.643310547,19863302.23083496,-29620159.149169922,2663350.5821228027,989539.5636558533,8910949.70703125,11364058.494567871,14459039.688110352,20923063.278198242,21139558.792114258,20278385.162353516,-13122561.45477295,-21542871.475219727,-2095020.7710266113,3256508.5887908936,8029536.247253418,9695955.276489258,13943570.137023926,17211101.531982422,14113900.184631348,-12537941.932678223,-9246915.817260742,-3913262.8440856934,1094042.181968689,-382904.2315483093,2891363.3823394775,9503445.625305176,11168661.117553711,14173207.28302002,-12436646.461486816,-8657065.391540527,-8767024.040222168,-945647.1800804138,-98283.67829322815,-329707.71193504333,2990706.205368042,594412.3864173889,640159.010887146,-12346797.943115234,-9208662.986755371,-9447047.233581543,-6230961.799621582,-42143.501341342926,-3638492.8226470947,224003.73220443726,542414.4864082336,799515.4857635498,-8560759.544372559,-8780054.092407227,-9410231.590270996,-3229522.466659546,1219743.4902191162,929588.6754989624,959849.0595817566,-5820300.579071045,-6062429.428100586,-3107992.172241211,1017663.9556884766,754154.6821594238
0.33,-25903766.632080078,-23214590.072631836,-20435853.958129883,-9890816.688537598,-623303.1153678894,-33015628.814697266,-4411608.2191467285,-5684376.7166137695,1911326.6468048096,2311871.7670440674,1999219.6559906006,4260689.258575439,4316476.345062256,2777562.8566741943,-15046914.100646973,-22247961.044311523,-3907952.308654785,-912181.2582015991,2102212.66746521,2223507.6427459717,2363366.6038513184,525176.7635345459,-2106411.2186431885,-14506417.274475098,-11038502.69317627,-4823539.733886719,-856626.6298294067,-242534.95037555695,-815348.0291366577,993926.465511322,-1532345.0565338135,-2152570.4860687256,-14293506.622314453,-8570930.480957031,-6672635.078430176,-341468.78123283386,40034.47666764259,691241.3239479065,-326156.1989784241,-2525709.867477417,-2505962.133407593,-14312199.592590332,-6996264.934539795,-7119656.562805176,-2439043.9987182617,168405.83086013794,-1310629.2486190796,-2003199.3389129639,-1830406.3081741333,-1630243.7782287598,-5971879.959106445,-6076821.804046631,-6137967.109680176,-741064.9061203003,-698511.0640525818,-1019510.2691650391,-1234833.836555481,-3559641.8380737305,-3721958.3988189697,-762096.1666107178,-845705.509185791,-1029141.1876678467
0.335,-36414787.29248047,-38485591.888427734,-38411090.85083008,-18760698.318481445,-14275482.177734375,-35207851.40991211,-9587555.885314941,-10684760.093688965,-3831489.5629882812,-4197196.483612061,-6448326.587677002,-7289523.124694824,-7469839.572906494,-9500402.450561523,-16553382.873535156,-22759706.497192383,-5609465.1222229,-4547434.8068237305,-1909071.0878372192,-2236720.323562622,-4987130.641937256,-10903957.36694336,-14603808.403015137,-15923595.428466797,-11856516.83807373,-5963035.583496094,-4274631.500244141,-116295.50904035568,-2873568.534851074,-3522777.557373047,-9056216.2399292,-14868099.212646484,-15576475.143432617,-8397451.400756836,-4999195.575714111,4062.5412948429585,165010.9887123108,2271753.5495758057,-720403.8500785828,-4681565.284729004,-4579528.80859375,-15898376.46484375,-5193140.029907227,-5325736.045837402,804998.8150596619,335084.7661495209,2060650.8255004883,-3227695.2266693115,-3362848.2818603516,-3339265.823364258,-5910310.2684021,-5814924.240112305,-4738836.288452148,-535220.2653884888,-2132729.0534973145,-2544977.4265289307,-2854577.3029327393,-5299277.782440186,-5197750.568389893,-834743.1421279907,-2152987.9570007324,-2314411.401748657
0.34,-33906127.9296875,-26606269.83642578,-23639698.028564453,-16170171.737670898,-6239112.854003906,-41326744.079589844,-9432932.85369873,-10820054.054260254,-3613055.944442749,-1170945.0483322144,-1688300.4903793335,-1254787.2066497803,-1448211.5507125854,-3384118.5569763184,-21812417.98400879,-28096279.14428711,-8590398.788452148,-4796234.607696533,865786.8504524231,1795064.6877288818,188848.86801242828,-4162320.137023926,-9194555.282592773,-21127262.115478516,-14373116.493225098,-8042709.3505859375,-7433359.622955322,-219013.64624500275,-1761889.6961212158,844443.5000419617,-2474197.1492767334,-9622066.497802734,-20813419.342041016,-12394611.358642578,-8838337.898254395,-693179.4881820679,110432.2224855423,1708191.8716430664,2844838.6192321777,-4057047.3670959473,-3938217.4015045166,-21319581.985473633,-9025259.971618652,-9440366.744995117,-1541296.4820861816,173104.6736240387,3942364.9311065674,-2610085.4873657227,-2755093.3361053467,-2973084.2113494873,-14237385.749816895,-14172541.618347168,-9042032.241821289,-6153439.044952393,-2021175.6229400635,-2529374.837875366,-2683550.8346557617,-14311093.3303833,-14152543.067932129,-6654189.586639404,-2106096.9829559326,-2265725.85105896
0.345,-22536659.240722656,-301141.50047302246,8888925.552368164,-5315679.550170898,15115384.101867676,-49243217.46826172,-5273546.6957092285,-7151028.633117676,1713126.301765442,8552090.644836426,11776462.55493164,16265712.73803711,16316295.623779297,14743133.544921875,-29184223.175048828,-36095787.048339844,-11868514.060974121,-2051422.119140625,8062274.932861328,11108325.958251953,13631485.939025879,14342301.368713379,8857164.38293457,-28556324.005126953,-18631401.06201172,-10630452.156066895,-9014285.08758545,-417904.1087627411,1337547.3022460938,10119427.680969238,12446103.0960083,8493401.527404785,-28458866.119384766,-19460559.844970703,-16998529.4342041,-1982630.8488845825,-31910.82924604416,-1020849.4663238525,6462280.2734375,-2443630.9337615967,-2485385.4179382324,-28823850.631713867,-17305746.07849121,-18063245.77331543,-8397920.608520508,-97933.15827846527,1933070.6596374512,-2024935.4839324951,-1825546.2646484375,-2085385.5609893799,-26664443.969726562,-26861278.533935547,-16449781.41784668,-14685871.124267578,-1561257.8392028809,-2123529.1957855225,-2122755.765914917,-25290222.16796875,-25410125.732421875,-15107674.598693848,-1951939.582824707,-2038929.7008514404
0.35,-13815714.836120605,15126914.024353027,28517940.521240234,3233933.448791504,29837381.36291504,-52639396.66748047,-1790883.6603164673,-3979362.0109558105,6715890.407562256,15595584.869384766,21526103.973388672,29284383.77380371,29578231.811523438,28148164.749145508,-33623416.900634766,-40425083.16040039,-13419930.458068848,404566.82443618774,12761988.639831543,17679965.97290039,24092018.127441406,27928874.969482422,22727209.091186523,-33051429.748535156,-22133125.30517578,-12756594.65789795,-9784003.257751465,-500063.06171417236,3830455.780029297,16785503.387451172,22714477.5390625,22567939.75830078,-33162570.95336914,-24268278.121948242,-22842491.149902344,-2744561.6722106934,-124277.80777215958,-3197952.5089263916,6977184.295654297,-2016638.7557983398,-2250555.5152893066,-33220619.201660156,-23274515.15197754,-24093193.05419922,-13460527.420043945,-117642.5963640213,-2233682.632446289,-2643136.978149414,-2187618.4940338135,-2247891.1876678467,-33066009.521484375,-33422706.604003906,-20257417.678833008,-18893260.955810547,-1762661.8146896362,-2379696.846008301,-2402507.3051452637,-29288425.44555664,-29760463.71459961,-19046237.94555664,-2449164.1521453857,-2421877.861022949
0.355,-14295378.684997559,11395522.117614746,25061277.389526367,3026731.491088867,29048246.383666992,-51211914.0625,-2391771.7933654785,-4688127.517700195,6748504.161834717,14293752.670288086,20767663.955688477,29546722.412109375,29883102.416992188,28345987.31994629,-34286571.50268555,-39983860.01586914,-13523949.62310791,-81469.50602531433,11373826.98059082,17369810.104370117,25332618.713378906,28543544.76928711,23484060.287475586,-33656021.11816406,-23587972.64099121,-14103186.60736084,-11345448.49395752,-460263.0138397217,3969413.2804870605,17626827.239990234,22593500.1373291,23418695.4498291,-33827381.1340332,-24589809.41772461,-22989910.125732422,-2618877.649307251,-168848.82748126984,-3223020.7920074463,5661763.668060303,-2847527.9808044434,-3111835.718154907,-33715602.87475586,-23474239.349365234,-24007484.436035156,-13416397.094726562,105503.93909215927,-4315228.9390563965,-3645758.628845215,-3322263.00239563,-3217643.4993743896,-31210199.3560791,-31450841.903686523,-18520307.540893555,-16890424.728393555,-2396397.590637207,-3131496.6678619385,-3190953.9699554443,-25636724.4720459,-26257366.180419922,-16899677.276611328,-3158686.399459839,-3101923.942565918
0.36,-20139560.69946289,1712592.363357544,14401236.534118652,-2497704.50592041,20949199.676513672,-50596370.697021484,-5640150.547027588,-8050796.5087890625,2725284.0995788574,8068008.4228515625,13899063.110351562,22290998.458862305,22539272.30834961,20934616.088867188,-34816722.86987305,-39602195.739746094,-14021224.975585938,-2511193.5138702393,7102543.830871582,13125473.976135254,20423461.9140625,22000221.252441406,16445556.640625,-34078720.09277344,-23996109.008789062,-14731994.62890625,-13472592.3538208,-462691.5454864502,1995717.8831100464,14685027.122497559,16871322.631835938,16261720.657348633,-34226554.87060547,-23623962.40234375,-21197666.16821289,-2340837.7170562744,-271939.4266605377,-2733916.5210723877,4903518.199920654,-4034132.0037841797,-4214853.763580322,-34163890.83862305,-21731708.526611328,-21913263.32092285,-11809823.989868164,231569.39446926117,-3219157.4573516846,-4363119.602203369,-4281134.605407715,-4212461.948394775,-29169624.32861328,-29259490.966796875,-16385227.20336914,-14584181.785583496,-3201321.601867676,-4103845.5963134766,-3999605.417251587,-22819087.982177734,-23394086.837768555,-14747482.299804688,-3894473.075866699,-3928803.9207458496
0.365,-22646850.5859375,775448.6203193665,13839719.772338867,-5086973.667144775,17784921.646118164,-52978145.599365234,-6915415.287017822,-9490120.887756348,-29440.11241197586,4506628.513336182,9783854.484558105,17443052.291870117,17639432.907104492,16099246.978759766,-36933944.70214844,-42085857.39135742,-15144237.518310547,-3672253.370285034,5226052.761077881,10312635.42175293,16235397.338867188,17786071.77734375,11317200.660705566,-36187232.971191406,-24458765.029907227,-14673522.94921875,-14417057.037353516,-601175.2486228943,-446008.0564022064,11306396.484375,12804863.929748535,10940064.430236816,-36334209.44213867,-24779458.99963379,-22360788.345336914,-2643425.464630127,-464240.55099487305,-3893554.6875,4809148.788452148,-4708104.610443115,-4899875.164031982,-36392356.872558594,-23009456.634521484,-23113241.19567871,-13221369.743347168,81628.34495306015,-1549626.8272399902,-4751591.205596924,-4564318.656921387,-4595088.005065918,-33035217.28515625,-33235725.40283203,-18098628.997802734,-16444448.471069336,-3746689.558029175,-4795163.154602051,-4431875.705718994,-26253173.828125,-26765550.61340332,-16888578.414916992,-4415264.60647583,-4561935.901641846
0.37,-17699863.43383789,9752084.732055664,24148586.27319336,-801376.5215873718,23104503.631591797,-54792839.05029297,-3982409.0003967285,-6630754.470825195,1971710.9203338623,6827573.776245117,12283168.79272461,19450057.983398438,19661756.51550293,18149759.29260254,-38583515.16723633,-45057220.458984375,-15698436.737060547,-2402939.0811920166,6876930.236816406,11043145.179748535,16678747.177124023,19425298.6907959,12208678.245544434,-37941459.65576172,-25206876.754760742,-14590030.670166016,-13938193.321228027,-773965.8355712891,-1705188.512802124,9856993.675231934,13463398.933410645,11735806.465148926,-38078338.623046875,-27619148.25439453,-26165061.950683594,-3331737.0414733887,-595624.9237060547,-6004366.397857666,5106755.73348999,-3443123.8174438477,-3793787.2409820557,-38220794.677734375,-26882793.426513672,-27283666.610717773,-16835626.60217285,-113660.98374128342,-372818.4401988983,-3621518.37348938,-2995148.6587524414,-3082350.015640259,-39038208.0078125,-39536849.97558594,-21070608.139038086,-19158176.42211914,-2378815.8893585205,-3493193.1495666504,-3058153.6293029785,-31472469.329833984,-31986213.68408203,-19708166.122436523,-3110324.1443634033,-3316036.2243652344
0.375,-9720082.28302002,20320650.100708008,35695152.282714844,6581646.919250488,31735645.294189453,-54335079.193115234,308864.17627334595,-2291898.488998413,6531787.395477295,11669138.90838623,18119621.27685547,25505664.825439453,25729593.27697754,24121549.606323242,-38713375.091552734,-46276046.75292969,-15757617.950439453,-801139.3547058105,9132446.2890625,13666429.51965332,20937797.54638672,24499200.82092285,17030872.344970703,-38153465.270996094,-26559127.807617188,-15646079.063415527,-13949476.24206543,-823946.1183547974,-1143262.1479034424,11546851.15814209,17861684.799194336,16596729.278564453,-38199985.50415039,-29997535.705566406,-28929798.126220703,-3724653.0055999756,-498880.3267478943,-6526326.656341553,7275820.255279541,728627.6817321777,238237.1425628662,-38428913.11645508,-29513032.913208008,-30377727.508544922,-18653100.967407227,-73723.95694255829,2355298.7575531006,469082.5045108795,1400485.3963851929,1186407.446861267,-41065528.869628906,-41734985.3515625,-21038925.170898438,-18198307.037353516,2027242.1836853027,955205.9173583984,1228701.5914916992,-32586135.864257812,-33099002.838134766,-18602420.806884766,1226718.4257507324,983231.3060760498
0.38,-6290521.621704102,25740356.4453125,41813270.568847656,10642264.366149902,37389186.85913086,-54925807.95288086,1894649.0287780762,-674100.8758544922,9147820.472717285,14446845.054626465,22165206.909179688,30278230.667114258,30498178.482055664,28762327.194213867,-39428607.94067383,-47106151.58081055,-16536615.371704102,-794797.6589202881,9936071.395874023,15973760.604858398,25626811.981201172,29083755.493164062,21468503.952026367,-38843811.03515625,-28663791.65649414,-17659053.802490234,-15401757.24029541,-768323.2426643372,668943.0475234985,15481400.489807129,23049657.821655273,21130386.352539062,-38785018.92089844,-31384086.60888672,-29225261.688232422,-3646785.259246826,-276951.1044025421,-4896520.137786865,11734291.076660156,5600494.384765625,5123126.983642578,-39131832.122802734,-29544353.485107422,-30709594.7265625,-17880615.234375,81404.46990728378,6741111.278533936,5607172.012329102,6413106.441497803,5966259.956359863,-40183071.13647461,-40779716.49169922,-19447982.788085938,-16050621.032714844,6934653.282165527,6001174.449920654,6108407.020568848,-31582977.294921875,-32016307.830810547,-16264713.287353516,6084693.431854248,5801718.711853027
0.385,-9917567.253112793,24734968.185424805,41443317.41333008,9035287.857055664,37580718.994140625,-58456333.16040039,426459.28263664246,-2190414.6671295166,8451901.43585205,14223374.366760254,22451410.2935791,30467763.900756836,30712957.38220215,28857339.85900879,-41871356.96411133,-48877063.7512207,-17838920.59326172,-1607725.1434326172,10089883.804321289,16989885.330200195,27434223.175048828,30195510.864257812,21619953.155517578,-41237552.642822266,-30222965.240478516,-18550746.91772461,-16554058.074951172,-789447.6056098938,2362751.7223358154,18284921.646118164,25208034.51538086,21337985.99243164,-41177913.665771484,-32195182.80029297,-28534927.368164062,-3526761.770248413,-261573.1656551361,-3400538.921356201,15127787.590026855,6740421.295166016,6357592.1058654785,-41599418.64013672,-28721578.59802246,-29871639.251708984,-17270648.956298828,-17958.732321858406,8731611.251831055,7078197.956085205,7545044.422149658,6977627.754211426,-41213191.986083984,-41658615.11230469,-20776601.791381836,-18076921.463012695,7753214.8361206055,6975380.897521973,7065028.190612793,-33626815.79589844,-33918422.69897461,-18263111.114501953,6845875.7400512695,6578402.042388916
0.39,-16323478.698730469,19436532.974243164,35716163.635253906,4474291.3246154785,33632015.228271484,-61735546.11206055,-1496960.7591629028,-4147436.6188049316,6362201.21383667,12636623.38256836,20159664.154052734,26403825.759887695,26693809.509277344,24658874.51171875,-43601093.29223633,-50004825.592041016,-18248382.568359375,-1855605.3638458252,10366961.479187012,16366502.76184082,25232324.600219727,27034566.87927246,16640594.482421875,-43003669.73876953,-29613868.713378906,-17061004.638671875,-15726771.354675293,-938830.0180435181,2687033.4148406982,17350337.982177734,22477354.049682617,16338031.768798828,-43013652.80151367,-31849880.21850586,-27677721.02355957,-3638470.8881378174,-554437.6969337463,-3939926.6242980957,14197988.510131836,3291270.7328796387,2946764.7075653076,-43403766.63208008,-27960004.806518555,-28933870.315551758,-17907108.306884766,-397026.1216163635,6002282.619476318,3728253.126144409,4010412.2161865234,3567752.1228790283,-43551189.42260742,-43904853.82080078,-24349416.732788086,-22817964.553833008,4075324.535369873,3371390.8195495605,3509451.8661499023,-37097545.6237793,-37292865.75317383,-23092828.75061035,3150181.770324707,2976925.6114959717
0.395,-20447330.474853516,13515835.762023926,27782548.904418945,393190.7117366791,28755105.97229004,-62246284.48486328,-2688316.1067962646,-5287847.04208374,4266122.817993164,10543844.223022461,17035280.227661133,21290683.74633789,21583038.330078125,19352806.091308594,-42394172.66845703,-49232887.268066406,-17930318.83239746,-2225017.786026001,9655971.52709961,14240080.833435059,21137947.08251953,22284582.138061523,10888009.071350098,-41878143.310546875,-27619770.050048828,-15066388.130187988,-14128645.896911621,-992771.9831466675,1631641.8647766113,14517348.289489746,18138399.124145508,10561528.205871582,-41875545.501708984,-29831897.735595703,-25926959.991455078,-3722797.8706359863,-789184.9875450134,-5521250.247955322,11117862.701416016,372347.6231098175,-11246.515437960625,-42187381.744384766,-26362800.59814453,-27244382.858276367,-17716266.632080078,-597152.829170227,2494420.5284118652,755551.9342422485,1052693.0093765259,784998.7149238586,-42063766.47949219,-42331417.083740234,-24640319.82421875,-23302560.806274414,1336557.149887085,624151.5278816223,780583.918094635,-35492431.640625,-35752544.40307617,-23575756.072998047,518368.0057525635,433618.1581020355
0.4,-21580299.377441406,10601896.286010742,23121690.75012207,-2224058.8665008545,26178186.416625977,-62457801.818847656,-4114915.8477783203,-6646822.452545166,2030485.8684539795,8032358.169555664,14501989.364624023,19147935.86730957,19397298.81286621,17143367.767333984,-39867885.58959961,-48434234.619140625,-18596818.923950195,-3918102.025985718,7467040.061950684,12223613.739013672,19226814.27001953,20889528.274536133,11200881.958007812,-39351562.5,-26960294.723510742,-15377070.426940918,-14097883.224487305,-765449.047088623,708612.5016212463,14371770.858764648,18413473.12927246,10968111.991882324,-39223316.19262695,-27604030.60913086,-23611875.534057617,-3474593.6393737793,-594640.2549743652,-5845415.5921936035,11286619.186401367,3246164.321899414,2828473.3295440674,-39508499.14550781,-24131160.736083984,-25037147.521972656,-15836634.635925293,-300654.0238857269,3212343.93119812,3522325.9925842285,3828384.1609954834,3594421.38671875,-35977676.39160156,-36117954.25415039,-19926561.35559082,-17521554.946899414,4349564.552307129,3651371.0021972656,3842046.022415161,-27872035.98022461,-28344661.712646484,-17623470.306396484,3713263.511657715,3637444.257736206
0.405,-21525238.037109375,11853903.770446777,25294784.545898438,-3672752.3803710938,27581134.796142578,-64915115.35644531,-5702233.31451416,-8222815.51361084,382018.3575153351,6459546.5660095215,14183935.165405273,22240583.419799805,22473539.352416992,20429553.985595703,-38993347.16796875,-49533462.52441406,-20324611.66381836,-5740469.455718994,5997548.580169678,12740179.061889648,22044250.48828125,25607906.341552734,19865671.157836914,-38382602.69165039,-28637807.846069336,-17839334.48791504,-15627640.724182129,-461531.4304828644,1469110.0120544434,18483480.45349121,25423686.981201172,19834085.46447754,-38160648.345947266,-27393941.87927246,-22752609.252929688,-3054254.2934417725,-166176.39362812042,-4460788.249969482,15888091.087341309,10553639.41192627,10185769.081115723,-38468326.568603516,-23359167.098999023,-24271854.400634766,-14846049.308776855,160926.81884765625,6873811.721801758,10530857.08618164,10790205.955505371,10580664.63470459,-30681474.685668945,-30774707.794189453,-15238829.612731934,-11193155.288696289,11262696.266174316,10656894.68383789,10925307.273864746,-20510652.542114258,-21161813.735961914,-11100865.364074707,10727924.346923828,10612405.776977539
0.41,-20805698.39477539,14893348.693847656,31646898.26965332,-3940216.302871704,31919496.536254883,-67392936.70654297,-5842742.919921875,-8352085.113525391,817953.4673690796,7358191.967010498,16649475.09765625,29028806.686401367,29304920.196533203,27530195.236206055,-39868907.9284668,-51230983.73413086,-21136888.50402832,-5524538.516998291,7208952.903747559,15959566.116333008,27792867.66052246,33681816.10107422,31338905.334472656,-39186679.84008789,-30749078.75061035,-19678741.455078125,-16774917.602539062,-452114.13502693176,3478997.9457855225,23312154.76989746,34050128.93676758,31439401.626586914,-39009052.27661133,-29274187.088012695,-24120840.072631836,-2851876.0204315186,-28714.8579955101,-3060171.365737915,20230953.216552734,16172071.45690918,15957100.868225098,-39292053.22265625,-24828821.182250977,-25725088.119506836,-16621986.389160156,234439.8945569992,8281579.971313477,15683485.984802246,16021966.934204102,15995946.884155273,-29701782.2265625,-29940618.51501465,-14694143.295288086,-8736145.973205566,16387058.25805664,15867955.207824707,16138387.680053711,-17472875.595092773,-18105356.216430664,-8604933.738708496,15847769.737243652,15684973.71673584
0.415,-19052982.330322266,16642423.629760742,36400669.09790039,-3474563.8370513916,35970623.01635742,-67063987.731933594,-4710903.167724609,-7131131.649017334,2526533.365249634,9394796.371459961,19509700.775146484,34706233.978271484,35025962.829589844,33424972.534179688,-40522750.85449219,-51512744.90356445,-20540870.666503906,-3973793.5066223145,9220880.508422852,18574140.548706055,31588411.331176758,39086582.18383789,37600917.81616211,-39849014.28222656,-31625738.1439209,-19571474.075317383,-16935390.47241211,-712632.5368881226,4392465.114593506,24664087.295532227,37506862.64038086,37652622.22290039,-39774364.47143555,-31106597.900390625,-25647632.598876953,-2953721.046447754,-265446.7225074768,-3041604.2804718018,20341320.037841797,17003063.201904297,16972036.361694336,-39938373.56567383,-26267539.978027344,-27270185.470581055,-18610671.997070312,-57340.36490321159,6718344.211578369,16324838.638305664,16948442.459106445,17077417.373657227,-30161586.76147461,-30623687.744140625,-15398102.760314941,-7367467.880249023,17485288.619995117,16939754.486083984,17057744.9798584,-15791056.632995605,-16282949.447631836,-7360091.209411621,16976289.749145508,16724107.74230957
0.42,-17183380.126953125,16637992.858886719,37176944.732666016,-3576291.32270813,36815086.364746094,-65585861.20605469,-4780848.026275635,-7091251.373291016,2603663.682937622,9315712.928771973,19112216.94946289,34957466.12548828,35254352.56958008,33781475.06713867,-40149181.3659668,-50892738.342285156,-20503215.789794922,-4064083.0993652344,8488796.23413086,17352300.6439209,30103693.00842285,38142181.396484375,35903347.01538086,-39485580.44433594,-31738033.294677734,-18947158.813476562,-17379293.44177246,-799704.8497200012,2643778.085708618,22415067.672729492,34497989.654541016,35843364.71557617,-39427509.30786133,-31106491.088867188,-24813253.40270996,-3082520.008087158,-385288.41733932495,-3948285.1028442383,17770471.572875977,15539316.177368164,15568988.800048828,-39464183.80737305,-25088808.059692383,-26298282.623291016,-16913106.91833496,-149659.00778770447,6607711.315155029,15235960.006713867,16152933.120727539,16118663.787841797,-28088224.411010742,-28627487.182617188,-12363140.106201172,-3176170.825958252,17011146.545410156,16344100.952148438,16294090.270996094,-11985969.543457031,-12436421.394348145,-3319007.8735351562,16604772.567749023,16232099.533081055
0.425,-16336637.496948242,16475891.11328125,35952915.19165039,-4330957.889556885,34443843.841552734,-65487434.38720703,-6536452.770233154,-8857419.01397705,711162.269115448,6850006.580352783,15293093.68133545,30104896.545410156,30334541.32080078,28996330.26123047,-39009601.59301758,-50367908.4777832,-21517135.620117188,-6166183.4716796875,5261916.160583496,13467046.737670898,24898479.461669922,32521320.343017578,30108705.520629883,-38293853.759765625,-31374597.549438477,-18777738.571166992,-18420862.197875977,-486153.36418151855,-405285.8054637909,19619083.404541016,29176471.710205078,30007570.266723633,-38141864.77661133,-29218852.996826172,-21575872.42126465,-2992986.9174957275,-80242.32089519501,-4527741.432189941,16115818.02368164,14662608.14666748,14536737.442016602,-38180225.37231445,-21597434.997558594,-22823070.526123047,-11940099.716186523,208524.00362491608,9446593.284606934,14874852.180480957,15868371.00982666,15483922.004699707,-24250255.584716797,-24677820.205688477,-6599802.494049072,1575121.8795776367,16824993.133544922,16050010.681152344,16003643.035888672,-8101900.100708008,-8652707.09991455,1369320.7502365112,16410852.432250977,16032716.751098633
0.43,-15690007.209777832,16905788.42163086,34737529.75463867,-3580305.576324463,31855741.500854492,-64857925.41503906,-6685230.255126953,-9177574.157714844,598652.720451355,6089565.277099609,12609100.341796875,25088623.046875,25287628.173828125,23947704.315185547,-36665473.93798828,-48639198.303222656,-20751106.26220703,-6725675.582885742,3933588.981628418,11492041.58782959,20769983.291625977,27072641.372680664,25592540.740966797,-35888740.53955078,-29198814.392089844,-17719696.044921875,-18344568.252563477,-116162.33736276627,-1880473.6137390137,18384975.43334961,25469850.540161133,25418222.427368164,-35640037.536621094,-26423862.45727539,-18227619.171142578,-2741824.3885040283,277538.2995605469,-4501972.675323486,15581397.05657959,13493021.965026855,13124032.020568848,-35831031.799316406,-18436111.450195312,-19321733.474731445,-8378984.451293945,560520.8873748779,10391684.532165527,13686000.82397461,14564244.270324707,14093894.958496094,-22074239.73083496,-22363111.49597168,-4042603.4927368164,1702958.2262039185,15375039.100646973,14577692.985534668,14676087.379455566,-7834782.123565674,-8415348.052978516,1521340.7278060913,14740061.75994873,14563157.081604004
0.435,-13899779.319763184,17246240.615844727,33670852.66113281,166052.6692867279,32130012.51220703,-60938137.05444336,-2988712.5492095947,-5698040.48538208,4853712.558746338,10182502.746582031,15101137.161254883,24577220.916748047,24819503.784179688,23223749.1607666,-33267639.16015625,-44892433.166503906,-16556358.337402344,-3303792.4766540527,7152504.920959473,13906251.907348633,20920089.721679688,25489128.11279297,24626253.128051758,-32476783.752441406,-25272672.653198242,-15001856.803894043,-16120622.634887695,-125347.95701503754,-748430.3116798401,18447746.27685547,24084835.052490234,24207529.067993164,-32249725.341796875,-24129344.940185547,-17107055.6640625,-2580054.759979248,169789.83581066132,-4633647.441864014,13938892.364501953,10262068.748474121,9801407.814025879,-32585819.244384766,-17748991.012573242,-18205564.498901367,-9579305.648803711,416088.730096817,5570557.117462158,9874423.027038574,10628255.844116211,10481685.638427734,-22570045.471191406,-22803291.32080078,-7329977.989196777,-2854875.8029937744,11358200.073242188,10621728.897094727,10817027.09197998,-10344336.50970459,-10738150.596618652,-2999684.3338012695,10516800.880432129,10573678.970336914
0.44,-11315709.114074707,18088582.99255371,34009620.666503906,5384082.794189453,35894382.47680664,-56468841.552734375,1932328.3433914185,-924180.6864738464,10828331.94732666,16845565.795898438,21420295.71533203,28757251.739501953,29067348.48022461,27169723.510742188,-31573503.494262695,-42154663.0859375,-12161381.721496582,1612537.7416610718,12242879.867553711,18464485.16845703,24542932.510375977,28279487.60986328,26467231.75048828,-30779790.8782959,-23016929.626464844,-12877807.6171875,-13407156.944274902,-441758.2154273987,1284551.1436462402,19217992.782592773,24721107.482910156,25826269.149780273,-30711549.758911133,-23944385.528564453,-18892259.59777832,-2709164.3810272217,-319086.37285232544,-5412150.3829956055,11399430.274963379,6761754.512786865,6408562.660217285,-31006114.959716797,-19701673.50769043,-20047960.28137207,-14019615.173339844,-32545.555382966995,-1190447.6881027222,5859093.189239502,6574093.818664551,6800091.26663208,-24356880.18798828,-24566686.630249023,-12642395.01953125,-6956520.557403564,7410808.563232422,6779439.449310303,6941763.877868652,-12128374.099731445,-12285749.435424805,-7127687.931060791,6645057.678222656,6694306.373596191
0.445,-8583491.325378418,21877065.658569336,38630886.07788086,9899503.707885742,41533443.450927734,-56158039.09301758,4573832.988739014,1636056.4231872559,14442154.884338379,21346448.89831543,26916599.27368164,34274257.65991211,34587612.15209961,32689605.712890625,-33936447.14355469,-43313945.77026367,-11405214.309692383,4031748.2948303223,14959266.662597656,21558732.986450195,28801013.946533203,33497623.443603516,29445957.18383789,-33136219.024658203,-24800302.505493164,-13579738.61694336,-12434632.301330566,-640883.1477165222,2276337.3851776123,20918006.896972656,27628120.42236328,28967353.82080078,-33244155.883789062,-26093990.325927734,-22094020.84350586,-3095843.3151245117,-633177.2804260254,-6349302.768707275,10833636.283874512,6550635.33782959,6314405.44128418,-33336692.810058594,-22692544.93713379,-23300874.710083008,-17713418.96057129,-218018.94903182983,-3090566.396713257,5607314.586639404,6352582.4546813965,6628067.493438721,-26490633.010864258,-26681741.71447754,-15173105.239868164,-7369379.043579102,7295324.325561523,6739296.436309814,6818891.525268555,-12477489.471435547,-12608560.562133789,-7645627.021789551,6752109.050750732,6551192.760467529
0.45,-4595595.359802246,29177272.79663086,47316619.873046875,14033380.508422852,47015460.96801758,-58146141.052246094,6052398.204803467,3054970.0260162354,15914912.223815918,22529174.8046875,29420764.923095703,38291076.66015625,38505657.19604492,36905998.22998047,-37497535.705566406,-45196910.8581543,-12563179.016113281,3991164.9227142334,14901723.861694336,22497121.810913086,31889810.56213379,38297687.53051758,31890327.45361328,-36769065.856933594,-27161264.419555664,-15135287.284851074,-12894762.03918457,-542419.1355705261,2313242.4354553223,23206226.348876953,31657457.35168457,31912065.505981445,-36905395.5078125,-27956205.368041992,-23809839.248657227,-3424382.209777832,-481499.1354942322,-6710996.627807617,12984910.011291504,9435788.15460205,9192289.352416992,-36848636.627197266,-24204473.4954834,-25156942.36755371,-18582801.818847656,-3869.9619472026825,282078.65357398987,8655171.394348145,9483044.624328613,9547877.311706543,-28343292.236328125,-28630718.231201172,-14590578.079223633,-6024537.563323975,10416409.492492676,9820717.811584473,9831151.962280273,-13054696.083068848,-13360738.754272461,-6391213.417053223,9848925.590515137,9451466.56036377
0.455,1041925.0726699829,35943820.95336914,54432716.369628906,18703073.501586914,50589233.3984375,-55778636.93237305,9707304.954528809,6696771.621704102,18137771.606445312,22986581.802368164,30327262.87841797,40114513.3972168,40194301.60522461,38802509.30786133,-36413150.787353516,-41989723.205566406,-10689232.82623291,4777556.896209717,14918272.018432617,22980720.52001953,33442974.090576172,40217445.373535156,32387180.32836914,-35851596.83227539,-24542484.283447266,-13404239.654541016,-12524062.156677246,-348011.5234851837,2541776.657104492,24374443.05419922,33411293.029785156,32699241.638183594,-35850723.26660156,-26220212.936401367,-22077856.063842773,-3318742.036819458,-99068.69381666183,-6561755.657196045,14699911.117553711,11087947.845458984,10789408.683776855,-35816623.68774414,-22516098.022460938,-23674932.4798584,-17594577.78930664,231292.9779291153,2879231.4529418945,10239685.05859375,11163006.782531738,11088535.30883789,-28289064.407348633,-28835691.452026367,-13619632.720947266,-5825423.240661621,12110895.156860352,11358657.836914062,11305540.084838867,-13655252.456665039,-14083106.994628906,-6108138.561248779,11207624.435424805,10877370.834350586
0.46,4812085.6285095215,36999099.73144531,54269989.013671875,21595916.748046875,50412048.33984375,-48308929.443359375,14400744.438171387,11458809.852600098,20528844.833374023,23753047.943115234,30335355.758666992,39423168.18237305,39449851.989746094,37927074.43237305,-29798843.383789062,-34569252.014160156,-5671167.850494385,7246687.889099121,16084999.084472656,23469991.68395996,33043735.50415039,38283119.201660156,30539726.25732422,-29333194.732666016,-17445245.74279785,-8235827.445983887,-10461098.670959473,-238082.3940038681,2859179.735183716,23059654.235839844,30715372.08557129,30552947.998046875,-29213466.64428711,-21180040.35949707,-18104808.807373047,-2738501.3103485107,189485.86285114288,-6701049.8046875,13307118.41583252,8957355.499267578,8623813.62915039,-29244792.938232422,-18594989.776611328,-19845891.95251465,-16529520.034790039,246918.51437091827,1140395.5221176147,7841462.6121521,8758728.02734375,8781011.581420898,-25403717.041015625,-26175380.70678711,-13376414.29901123,-6463461.399078369,9866208.07647705,8955414.772033691,8870751.38092041,-12305785.179138184,-12646265.983581543,-6431391.23916626,8711409.568786621,8591089.248657227
0.465,2407350.540161133,31478960.037231445,47020496.3684082,18850330.352783203,45156723.02246094,-42809902.19116211,14936587.3336792,12078160.285949707,18887363.43383789,22170963.287353516,27345607.75756836,35235935.21118164,35325435.638427734,33552383.422851562,-23424264.907836914,-30432579.040527344,-3144615.888595581,8150680.5419921875,15996301.651000977,22244499.20654297,29984972.00012207,33445648.193359375,27151752.471923828,-22853946.685791016,-12388733.863830566,-4332148.551940918,-8445652.00805664,-140869.3641424179,1987240.5529022217,19997684.478759766,25600387.573242188,26584632.873535156,-22778287.887573242,-16851758.95690918,-15091371.536254883,-2054817.4381256104,346411.5262031555,-7482480.525970459,10378502.84576416,5796407.699584961,5359965.3244018555,-22761968.6126709,-15392964.363098145,-16676553.726196289,-15855108.261108398,251786.9770526886,-1600741.1479949951,4597947.597503662,5353199.9588012695,5580202.579498291,-21429296.493530273,-22151735.305786133,-12382891.654968262,-5756349.563598633,6663114.070892334,5700559.139251709,5660532.474517822,-8964509.010314941,-9099673.2711792,-5345597.743988037,5635779.38079834,5627396.106719971
0.47,-4953558.921813965,22930131.912231445,37178966.5222168,10905429.84008789,35948184.967041016,-43405925.75073242,9741127.014160156,6876791.000366211,12018695.831298828,16271636.962890625,20128183.364868164,27915786.743164062,28070457.458496094,26277303.69567871,-21773742.67578125,-32773647.30834961,-6219384.670257568,4972444.0574646,12574498.176574707,18351221.084594727,24826828.002929688,27776453.018188477,23142517.08984375,-21050418.853759766,-12970593.452453613,-5003301.14364624,-8412340.16418457,39067.48071312904,-221942.05224514008,17217031.478881836,21789196.014404297,22314332.962036133,-21053552.627563477,-15914455.41381836,-14447779.655456543,-1627751.9464492798,478714.58530426025,-8032126.426696777,9183721.542358398,5486177.921295166,4860337.734222412,-20956260.681152344,-14507838.249206543,-15722264.289855957,-14954578.399658203,462681.20408058167,-976386.9047164917,4598947.525024414,5169785.499572754,5505263.805389404,-18594789.505004883,-19039535.522460938,-9626771.926879883,-3141782.9990386963,6578614.234924316,5657606.601715088,5652570.724487305,-5763974.666595459,-5727557.65914917,-2560358.5243225098,5838599.681854248,5802729.606628418
0.475,-11446970.93963623,14327086.448669434,27620271.682739258,3094329.357147217,26617435.455322266,-45418216.705322266,3623680.1147460938,698214.7097587585,4542443.27545166,8675714.492797852,11721786.499023438,20589813.232421875,20675010.681152344,19078262.329101562,-22343849.182128906,-35709487.91503906,-10826348.304748535,-213719.9491262436,7463743.209838867,13754398.345947266,19996551.513671875,22953855.514526367,18598573.684692383,-21658971.786499023,-15456294.059753418,-7979491.710662842,-10102463.722229004,199394.89662647247,-1940645.3371047974,15949222.564697266,20081926.345825195,17987127.30407715,-21549535.751342773,-16587778.091430664,-14488799.095153809,-1447537.5413894653,561608.0164909363,-7085405.349731445,9952089.309692383,7280865.19241333,6586005.687713623,-21514881.134033203,-14584098.815917969,-15615111.351013184,-13626435.279846191,700795.9485054016,1941968.6794281006,6925345.897674561,7426887.035369873,7720425.128936768,-16492029.190063477,-16715539.932250977,-6596588.134765625,-353643.923997879,8855409.622192383,7997809.886932373,7853461.742401123,-3756531.4769744873,-3613977.4322509766,91840.33423662186,8200628.280639648,8123824.119567871
0.48,-13782551.765441895,6628353.118896484,19506805.419921875,-268170.68457603455,21528661.727905273,-43853202.81982422,1416652.9178619385,-1490996.7184066772,1531455.2783966064,4352300.16708374,7247406.959533691,17228944.778442383,17151584.62524414,15644812.58392334,-20866062.16430664,-33649116.51611328,-11816921.23413086,-3225684.16595459,4503757.476806641,11721619.606018066,18272218.704223633,20059089.66064453,14040697.09777832,-20360647.201538086,-15295104.026794434,-9205210.68572998,-11655647.277832031,172833.35328102112,-1448497.7722167969,16262382.507324219,18794666.290283203,13771112.442016602,-20013479.232788086,-16100736.618041992,-13649957.656860352,-1364205.1219940186,471278.1310081482,-4723734.8556518555,10274996.757507324,7188564.777374268,6673867.702484131,-20118915.557861328,-14034156.799316406,-14866858.48236084,-12793714.52331543,653601.348400116,2958893.299102783,7238660.81237793,7688339.2333984375,7905949.115753174,-13993553.161621094,-14213395.118713379,-5762239.456176758,431881.0701370239,9156623.840332031,8368260.383605957,7941277.503967285,-2633541.1071777344,-2418887.138366699,620087.742805481,8420902.252197266,8334434.509277344
0.485,-13614326.477050781,2242244.7204589844,16417551.040649414,417568.5942173004,22863143.920898438,-41543323.5168457,2548068.046569824,-249196.0972547531,3192200.8991241455,5642355.918884277,9007464.408874512,19338134.765625,19219690.322875977,17519546.508789062,-18618715.286254883,-29833318.71032715,-9979337.692260742,-2486766.3383483887,5773893.8331604,13697713.851928711,20686660.766601562,20274482.72705078,11855031.01348877,-18169275.283813477,-13738759.994506836,-8353184.700012207,-11824607.849121094,-37005.01471757889,785089.3139839172,18076250.076293945,17988637.924194336,11743067.741394043,-17787986.755371094,-15192782.402038574,-13267138.481140137,-1451273.5605239868,216232.40411281586,-2752985.2390289307,9422361.373901367,4204211.235046387,3874647.617340088,-17846853.256225586,-13895651.817321777,-14612792.015075684,-13624302.864074707,332108.7956428528,1154405.5938720703,4267291.54586792,4518648.624420166,4748578.071594238,-13091532.707214355,-13423877.716064453,-8023602.485656738,-1732943.8924789429,6016902.923583984,5310028.076171875,4740528.106689453,-3435976.266860962,-3188965.7974243164,-1662230.2532196045,5334604.740142822,5198632.717132568
0.49,-12418408.393859863,5311595.916748047,22671377.182006836,3082433.2237243652,29501832.962036133,-43284667.96875,4081234.4551086426,1338013.5297775269,6681398.868560791,10921517.372131348,15009586.334228516,25100862.503051758,25188367.84362793,23179445.266723633,-19737058.639526367,-30447837.829589844,-9455338.478088379,319009.33384895325,10084415.435791016,18368175.506591797,25920431.13708496,24376840.591430664,14686645.5078125,-19175312.042236328,-14413494.110107422,-7987780.570983887,-10920986.17553711,-259298.83122444153,2927533.1497192383,21289382.934570312,20108064.651489258,14593702.31628418,-19074203.491210938,-16497219.08569336,-15399462.699890137,-1831238.865852356,-2362.2375447303057,-2832698.345184326,9527147.29309082,2043604.850769043,1601588.8452529907,-18855321.884155273,-16079896.926879883,-16774549.48425293,-16118726.73034668,48319.60052251816,-392224.0734100342,1689986.8249893188,1737302.8993606567,2027544.9752807617,-16808755.87463379,-17245241.165161133,-11980685.234069824,-5765003.681182861,3119169.235229492,2458764.5530700684,2080931.4250946045,-7706039.4287109375,-7475655.078887939,-5607498.645782471,2646039.0090942383,2433878.183364868
0.495,-8420666.694641113,15811532.974243164,35932109.83276367,7482909.202575684,37738857.26928711,-46191478.72924805,5911828.04107666,3095515.251159668,10608380.317687988,17126787.185668945,21495201.110839844,31202072.143554688,31578329.08630371,29408252.716064453,-23222299.575805664,-34060104.37011719,-10634550.094604492,3157815.456390381,14663073.539733887,23150381.088256836,31215835.571289062,30827095.03173828,21658943.17626953,-22617992.401123047,-16426012.03918457,-8741826.057434082,-9910393.714904785,-345041.3644313812,4029995.4414367676,24769500.732421875,25498538.970947266,21584175.10986328,-22790309.90600586,-19541040.420532227,-18959856.033325195,-2257647.2759246826,8649.928495287895,-4565111.16027832,11833488.464355469,3817918.062210083,3107903.003692627,-22383432.388305664,-19578548.431396484,-20328897.47619629,-18774759.29260254,27763.21955025196,409624.308347702,2876742.6013946533,3060107.946395874,3301653.3851623535,-23153951.64489746,-23708024.978637695,-15098709.106445312,-8748839.378356934,4144343.852996826,3466330.7666778564,3429733.0379486084,-13187208.17565918,-12991024.9710083,-8461778.64074707,3740844.964981079,3571000.099182129
0.5,-999503.3144950867,26689180.374145508,46603008.27026367,13565473.556518555,43425472.259521484,-43387332.916259766,9563575.744628906,6669813.632965088,15040169.715881348,22037771.224975586,25660226.821899414,34962799.072265625,35419265.74707031,33310588.836669922,-23373826.98059082,-33905765.533447266,-10181997.299194336,5322862.148284912,17403520.584106445,25998945.236206055,34023262.02392578,35754608.154296875,27870101.928710938,-22887298.583984375,-15821583.74786377,-8607699.394226074,-9302589.416503906,-287919.90876197815,4427088.737487793,26539831.161499023,30308328.62854004,27778949.737548828,-22992918.014526367,-20680431.365966797,-20423345.5657959,-2297718.048095703,209637.95483112335,-6188116.550445557,14184261.322021484,7665554.046630859,6955184.459686279,-22762432.098388672,-20923801.42211914,-21800786.9720459,-19760786.056518555,211001.63459777832,2129673.0041503906,6386882.305145264,7060081.958770752,7108121.871948242,-25634851.455688477,-26335500.717163086,-15382593.154907227,-8041216.850280762,7829517.364501953,7160108.0894470215,7243518.829345703,-14457814.21661377,-14302777.290344238,-7754292.964935303,7250788.21182251,7292691.707611084
