time,Fp1,Fpz,Fp2,AF3,AF4,F7,F5,F3,F1,Fz,F2,F4,F6,F8,FT7,FC5,FC3,FC1,FCz,FC2,FC4,FC6,FT8,T7,C5,C3,C1,Cz,C2,C4,C6,T8,TP7,CP5,CP3,CP1,CPz,CP2,CP4,CP6,TP8,P7,P5,P3,P1,Pz,P2,P4,P6,P8,PO7,PO5,PO3,POz,PO4,PO6,PO8,CB1,O1,Oz,O2,CB2
0.0,-1295445.6806182861,-1447350.8596420288,-2032968.0442810059,197384.40215587616,-1191660.1657867432,1857581.2578201294,520852.5061607361,484807.01446533203,-175672.56093025208,-75895.11573314667,-916699.4094848633,-1243125.557899475,-1242299.4375228882,-1244121.9091415405,1576986.1936569214,911713.0637168884,545914.1135215759,497120.9168434143,-399624.67551231384,-420543.4322357178,-644828.200340271,-1697820.0674057007,-969014.2273902893,1564937.710762024,584047.6751327515,-313424.7064590454,-60133.30817222595,-21224.526688456535,-719636.6786956787,-1112834.4535827637,-902505.5170059204,-951086.0443115234,1557512.2833251953,1321942.0909881592,475157.6781272888,47534.11561250687,-7560.402154922485,-111466.10975265503,-774850.4877090454,77663.28006982803,83997.71898984909,1562984.7049713135,492364.0191555023,481799.4832992554,367652.62484550476,-23336.827754974365,-542527.1987915039,18152.056261897087,30742.540955543518,45506.034046411514,1239961.7433547974,1242756.0091018677,891205.1320075989,1482242.3458099365,79106.19676113129,58368.9883351326,51967.38615632057,1394652.4858474731,1391977.6678085327,1483841.896057129,79566.94811582565,78175.70120096207
0.005,27244949.340820312,23655250.549316406,8975662.231445312,21862966.537475586,7217758.1787109375,29687168.12133789,20422052.38342285,18001277.923583984,12976702.690124512,8212553.977966309,4368652.34375,-4457747.936248779,-3523602.7240753174,-4799496.650695801,12950555.801391602,4367287.635803223,6974467.754364014,5946282.386779785,3407449.245452881,215569.43655014038,-3109775.0663757324,-7071149.3492126465,-11057430.267333984,11483846.664428711,11460765.838623047,2604809.284210205,3243850.4695892334,200589.65682983398,-3087151.288986206,-6199508.6669921875,-3085468.053817749,-11084259.986877441,11350749.015808105,5408486.843109131,-572915.3752326965,-516136.7058753967,560965.7764434814,-4576737.880706787,-9191327.095031738,-13160386.085510254,-12429480.55267334,11262288.093566895,270239.6512031555,-237111.09161376953,-661492.0496940613,-94527.49788761139,-3390250.9212493896,-12979403.495788574,-12169686.317443848,-12748664.855957031,-8756764.41192627,-8339662.551879883,-13961214.065551758,-2598884.105682373,-12608572.959899902,-13637843.132019043,-13138764.381408691,-3203586.1015319824,-2745666.265487671,-3136381.6261291504,-12594100.952148438,-13494316.101074219
0.01,40174095.153808594,34113540.64941406,11306957.244873047,31563667.29736328,9114581.108093262,46402526.85546875,30180320.739746094,26795900.344848633,18855545.043945312,11522880.554199219,4856524.467468262,-10035796.165466309,-8724902.153015137,-10789381.980895996,18930826.18713379,8597881.317138672,10742914.199829102,8684267.9977417,5190634.250640869,-1061952.829360962,-7193475.246429443,-15435041.427612305,-22595214.84375,16867795.944213867,17162168.502807617,4651967.525482178,5490778.44619751,438382.3275566101,-5464615.345001221,-11847572.326660156,-8717951.774597168,-22747034.072875977,16657020.568847656,7381098.27041626,-487307.6379299164,-603800.892829895,817578.3157348633,-5738917.350769043,-15550681.114196777,-21470186.233520508,-20413606.643676758,16631938.934326172,642880.4993629456,-82863.88963460922,-972679.3766021729,106504.81283664703,-4253506.183624268,-20831993.103027344,-19719476.6998291,-20757093.42956543,-10912837.028503418,-10301940.91796875,-14933707.237243652,-1378427.6247024536,-20311418.533325195,-21735586.166381836,-21224004.7454834,-1845566.5111541748,-1057833.4331512451,-2028399.4674682617,-20418350.219726562,-21596736.907958984
0.015,38542137.145996094,30895956.03942871,6602431.297302246,29886537.551879883,5448347.568511963,51457252.502441406,30121606.826782227,27044399.26147461,17432434.08203125,9413768.768310547,1100106.120109558,-16206985.473632812,-15021197.319030762,-17322462.08190918,21143436.431884766,12768718.719482422,11733888.626098633,8234515.190124512,4358052.730560303,-4123197.555541992,-11826211.929321289,-23787029.266357422,-32524379.73022461,19348217.010498047,18578027.725219727,6138418.197631836,6100039.005279541,706623.4350204468,-7272795.677185059,-16247268.676757812,-15414069.175720215,-32816047.66845703,19047517.776489258,7937064.647674561,446805.9539794922,-265851.31883621216,815842.5092697144,-5117897.987365723,-18678258.895874023,-24506433.486938477,-23600553.512573242,19233943.939208984,1343357.3246002197,686929.1663169861,-1224155.6644439697,478900.7902145386,-3198220.2529907227,-23389209.747314453,-22452825.54626465,-23749256.134033203,-6777760.5056762695,-6234187.602996826,-8552525.520324707,2693723.9170074463,-22963548.66027832,-24201419.830322266,-24012689.5904541,5014812.94631958,5751893.997192383,2196180.820465088,-23256309.509277344,-24218370.43762207
0.02,34191299.43847656,24961826.32446289,1841996.669769287,25530494.689941406,981659.6508026123,52065547.943115234,27678009.033203125,24950963.973999023,13630162.239074707,4618459.224700928,-3565839.5290374756,-20296865.463256836,-19276031.494140625,-21499534.606933594,24819747.924804688,15211233.139038086,11464457.511901855,5915670.871734619,1240264.1773223877,-7909519.672393799,-15305140.495300293,-27496713.638305664,-36922634.12475586,23476367.950439453,20150974.27368164,7559235.095977783,5207158.56552124,950126.7671585083,-8565812.110900879,-17552074.432373047,-18672510.147094727,-37220436.096191406,23035573.959350586,9557564.735412598,1774368.166923523,72834.40232276917,837374.6275901794,-5929193.019866943,-18860738.75427246,-24680189.13269043,-24096748.35205078,23386646.270751953,2382100.5821228027,1836962.5806808472,-1527267.6944732666,689358.3536148071,-1467051.2676239014,-23362792.96875,-22649715.423583984,-24051017.76123047,-3166732.5496673584,-2829820.394515991,-8859803.199768066,3859797.716140747,-23150962.829589844,-24166175.842285156,-24090274.810791016,11305724.143981934,11574960.708618164,3344943.5234069824,-23525985.717773438,-24365221.02355957
0.025,33234542.846679688,22034355.16357422,-846214.3540382385,23061204.91027832,-2701125.6217956543,52804050.44555664,26970207.21435547,24022848.12927246,10635209.083557129,-348837.4650478363,-7672545.433044434,-22924594.87915039,-21865737.915039062,-23900590.896606445,30044124.603271484,15260039.329528809,10821097.373962402,3223279.7145843506,-3241481.5425872803,-11806418.418884277,-17880201.33972168,-27256120.681762695,-36950504.302978516,28830171.585083008,22956151.962280273,8347457.8857421875,3734368.8011169434,1021348.5956192017,-10452023.50616455,-16888040.54260254,-18610671.997070312,-37074962.6159668,28308832.1685791,12632764.81628418,3660444.736480713,127755.23960590363,966133.5945129395,-7193529.12902832,-17726013.18359375,-23312660.217285156,-22827138.900756836,28595338.821411133,4264251.232147217,3642320.6329345703,-476651.99637413025,588993.489742279,61868.082731962204,-21969463.348388672,-21217514.038085938,-22695224.76196289,-2933901.54838562,-2785217.761993408,-14539767.265319824,1730419.635772705,-21836343.76525879,-22950786.590576172,-22605766.29638672,12127502.44140625,11897626.876831055,1017048.1204986572,-22156908.03527832,-23182863.235473633
0.03,33510738.372802734,20565834.045410156,-3075923.204421997,21266073.22692871,-5934649.467468262,52609760.28442383,26529388.427734375,23300065.994262695,8718008.995056152,-3346150.1598358154,-10532464.981079102,-25399608.612060547,-24224559.783935547,-26093585.968017578,31061561.584472656,13686448.097229004,9970225.33416748,1327082.2763442993,-6700002.670288086,-14574156.761169434,-20029443.740844727,-26884552.001953125,-37266349.79248047,29742544.174194336,23723196.029663086,7846462.249755859,3078207.25440979,830631.2561035156,-12933732.032775879,-16701278.686523438,-18875158.309936523,-37161666.87011719,29288333.892822266,14133910.179138184,5104851.722717285,-60856.591910123825,1000683.9036941528,-4925637.245178223,-17275886.53564453,-21406370.162963867,-20693956.37512207,29350635.528564453,5924293.041229248,5045837.879180908,1815703.1536102295,333724.5285511017,387078.3746242523,-19861486.434936523,-18912841.796875,-20549051.28479004,-4811650.276184082,-4712341.785430908,-14272339.820861816,202243.8645362854,-19639318.466186523,-20982128.143310547,-20365184.783935547,8463459.014892578,8044935.22644043,-507575.21390914917,-19878185.272216797,-21066833.49609375
0.035,34093971.252441406,20017177.58178711,-3589597.463607788,20129011.154174805,-6690814.49508667,50809139.251708984,25264200.21057129,22235250.47302246,8255316.734313965,-2487768.1732177734,-10131977.081298828,-26145015.716552734,-24920337.677001953,-26802185.05859375,25381034.85107422,11860376.358032227,9427847.862243652,957023.9782333374,-6537381.172180176,-14241967.20123291,-20433874.130249023,-26925827.026367188,-39664318.0847168,24025342.94128418,20669929.50439453,6771419.048309326,3959225.89302063,527018.6066627502,-13893764.49584961,-17349723.81591797,-20595626.831054688,-39443393.70727539,23646738.052368164,11698417.663574219,3944773.1971740723,-294220.9541797638,830402.0166397095,1357755.7802200317,-18403219.22302246,-21511932.373046875,-20511051.177978516,23605039.596557617,4990116.119384766,3864291.6679382324,2442320.8236694336,165546.7003583908,-1630899.3101119995,-19581571.578979492,-18525485.99243164,-20407995.223999023,-8220447.540283203,-7989707.946777344,-7929973.602294922,226724.2968082428,-19373954.77294922,-20698450.088500977,-20159427.642822266,4983676.433563232,4520196.437835693,-172897.26436138153,-19581438.064575195,-20638963.69934082
0.04,37332202.91137695,21791761.39831543,-434943.43757629395,21668832.778930664,-3423369.1692352295,50261070.251464844,24895204.544067383,22282506.942749023,9591535.568237305,1067367.434501648,-6348387.241363525,-23797906.87561035,-22566518.783569336,-24665466.30859375,19170644.760131836,10989312.171936035,9562329.292297363,1523466.70627594,-3556620.5978393555,-11093168.258666992,-18303106.3079834,-25285604.47692871,-41662479.400634766,17893875.122070312,16861402.51159668,6304993.152618408,5388529.300689697,399157.0174694061,-11902265.548706055,-17380857.467651367,-21439989.08996582,-41494720.458984375,17391002.655029297,7814652.919769287,519856.21452331543,-374071.98548316956,664673.0303764343,7257127.285003662,-19949117.66052246,-24644088.745117188,-23584398.26965332,17520397.186279297,1737172.7228164673,529512.4650001526,55215.69773554802,199010.29765605927,-4869325.160980225,-22521091.46118164,-21470478.057861328,-23571941.375732422,-12415422.439575195,-11965106.964111328,-6109587.1925354,-601873.1594085693,-22587640.7623291,-23618782.04345703,-23379270.553588867,4519522.190093994,3823844.4328308105,-781065.4640197754,-22792343.139648438,-23635549.545288086
0.045,41601100.92163086,23363868.713378906,2544538.736343384,24289470.672607422,151395.85733413696,52630851.74560547,26018911.361694336,23507484.436035156,10738311.767578125,2588786.6020202637,-3544477.939605713,-21139225.006103516,-19911371.2310791,-22179882.049560547,19960237.503051758,11479337.692260742,9613282.203674316,1251702.070236206,-1973646.1639404297,-8692706.108093262,-15744114.875793457,-22328155.517578125,-40850616.455078125,18720977.783203125,16172790.52734375,6217046.26083374,5525522.708892822,522613.5849952698,-8661036.491394043,-16063850.402832031,-19805738.44909668,-40811038.970947266,17962583.541870117,7245719.909667969,-1321092.6055908203,-226040.21430015564,709147.5129127502,9468850.135803223,-19458362.579345703,-26593358.993530273,-25693765.64025879,18352132.79724121,8426.235057413578,-1087684.8697662354,-2176052.0935058594,361732.00607299805,-5206587.314605713,-24641290.66467285,-23571065.90270996,-25711786.2701416,-13867534.637451172,-13290709.495544434,-11034348.487854004,-2144712.6865386963,-24987930.297851562,-25769039.154052734,-25680919.647216797,5940300.464630127,4935317.9931640625,-2501981.258392334,-25188432.693481445,-26082248.68774414
0.05,41428985.595703125,20326122.283935547,-293562.76988983154,23413112.64038086,-750612.6761436462,54959278.10668945,26453615.188598633,23764770.5078125,9251585.960388184,-533349.0967750549,-5287597.65625,-21309957.50427246,-20135536.193847656,-22278562.545776367,26360763.549804688,12465425.491333008,8799072.265625,-528274.0592956543,-3953963.7565612793,-9533013.343811035,-14951953.887939453,-20351802.825927734,-37553165.435791016,25067844.39086914,18275827.407836914,5464456.081390381,4011221.8856811523,612309.992313385,-6770813.941955566,-13750724.792480469,-16466770.17211914,-37573089.599609375,24233520.5078125,10418563.842773438,614551.0673522949,-42309.61948633194,781536.8175506592,9713715.553283691,-15601589.20288086,-22078102.111816406,-21318010.330200195,24660531.997680664,1883447.8855133057,1042811.8705749512,-1058793.306350708,421757.40003585815,-42408.06773304939,-20334182.739257812,-19214593.8873291,-21191507.33947754,-10628705.024719238,-10086942.672729492,-13439531.326293945,-1245758.7718963623,-20677736.282348633,-21469402.313232422,-21258836.74621582,6881685.733795166,5860348.224639893,-1923225.7604599,-20885486.602783203,-22077997.2076416
0.055,36917938.232421875,14845334.05303955,-6529808.044433594,19019241.333007812,-4309332.847595215,54066364.28833008,25105773.92578125,22375591.278076172,6395626.544952393,-4565839.767456055,-8574357.032775879,-22346570.96862793,-21249013.900756836,-23112360.00061035,29805557.250976562,12600246.42944336,7984064.57901001,-2069553.8520812988,-6594943.046569824,-11500567.436218262,-14808979.988098145,-19134628.295898438,-33385181.427001953,28467096.32873535,19846939.086914062,4402026.653289795,2640593.2903289795,365326.3747692108,-6327278.614044189,-10872478.485107422,-12660715.103149414,-33342342.376708984,27857551.57470703,12618512.153625488,3248747.8256225586,-158874.36270713806,526861.4292144775,10899044.036865234,-10114899.635314941,-12772967.338562012,-11991368.293762207,28045646.66748047,4227004.528045654,3679722.309112549,1636402.96459198,162229.7167778015,7264074.325561523,-10905342.102050781,-9831346.51184082,-11627211.570739746,-7075195.3125,-6592646.598815918,-9146191.596984863,2433173.656463623,-11111622.81036377,-12053046.226501465,-11627552.98614502,6902813.911437988,6129827.976226807,1749130.368232727,-11348156.929016113,-12760300.636291504
0.06,35747203.8269043,14685488.7008667,-7388742.446899414,16840587.615966797,-4347859.859466553,51310615.53955078,23985120.77331543,21407758.712768555,5960633.754730225,-4332247.734069824,-7904818.534851074,-20314765.93017578,-19202619.552612305,-21010972.97668457,25901155.471801758,11566258.430480957,8519675.254821777,-1640722.0363616943,-6538901.329040527,-11236718.17779541,-13309185.028076172,-16744791.030883789,-30013130.18798828,24565170.288085938,19266202.926635742,4535202.980041504,3080253.3626556396,-98419.50982809067,-5799189.09072876,-8488900.184631348,-9742740.631103516,-29869441.986083984,24218776.70288086,10529026.03149414,2623168.706893921,-597990.5128479004,-13318.190351128578,12206898.68927002,-6929815.769195557,-7154051.780700684,-6281146.049499512,24150148.391723633,3305425.8823394775,2917255.163192749,2122303.247451782,-323913.18678855896,10303721.42791748,-4904526.233673096,-3946060.6575012207,-5778291.22543335,-8644835.472106934,-8106336.59362793,-5511616.230010986,4860922.813415527,-5200803.279876709,-6210731.983184814,-5663057.804107666,7062405.109405518,6393387.794494629,4488914.012908936,-5473984.241485596,-6827966.213226318
0.065,42442268.37158203,22193538.665771484,-282438.15898895264,20134963.989257812,247996.2706565857,49751644.134521484,24817632.6751709,22255681.99157715,8726405.143737793,-488712.1021747589,-3478211.4028930664,-16317729.949951172,-15085412.02545166,-17160137.176513672,19581476.21154785,10269515.037536621,9844712.257385254,-266457.6470851898,-4947639.942169189,-9269474.029541016,-11747216.22467041,-14236189.842224121,-29363216.400146484,18222488.403320312,17950307.846069336,6063947.2007751465,4757189.750671387,-331051.37944221497,-5207042.694091797,-8616817.474365234,-10053668.975830078,-29197793.96057129,17881299.97253418,6716353.893280029,-116618.5736656189,-899493.0386543274,-352036.2973213196,10810700.416564941,-8753396.034240723,-10841172.218322754,-9957461.3571167,17793733.596801758,561980.7839393616,80738.6189699173,546382.3676109314,-604833.4240913391,6977024.078369141,-8305663.108825684,-7345255.8517456055,-9405212.40234375,-13356372.833251953,-12732367.515563965,-8143899.917602539,3497966.527938843,-8896326.065063477,-9877635.955810547,-9311654.090881348,7671185.01663208,6853495.5978393555,3319075.584411621,-9212944.984436035,-10336215.97290039
0.07,51208892.822265625,30254329.681396484,7094438.552856445,24954662.322998047,3926200.3898620605,49002365.11230469,26465526.580810547,23691112.518310547,11356053.352355957,2065626.621246338,-498206.82406425476,-15301249.504089355,-13995361.328125,-16349800.109863281,17810554.50439453,9542868.614196777,10177748.680114746,-88254.01961803436,-4794435.977935791,-8698534.01184082,-13043407.440185547,-15035350.799560547,-32474395.751953125,16389204.025268555,17707843.780517578,7529837.131500244,5950637.340545654,-108751.30444765091,-5967074.871063232,-11968293.190002441,-14815392.49420166,-32373428.344726562,15843555.450439453,5812807.083129883,-572814.4645690918,-654667.6754951477,-165670.40979862213,6876929.759979248,-14459529.876708984,-20166555.404663086,-19365121.841430664,15964608.192443848,355287.96911239624,-380988.9256954193,98332.62115716934,-368150.5620479584,1491045.2365875244,-17590171.813964844,-16483602.523803711,-18646617.889404297,-14371662.139892578,-13821385.383605957,-12006674.766540527,936677.5751113892,-18277475.357055664,-19264314.651489258,-18717445.373535156,7837517.738342285,7006358.623504639,554085.910320282,-18649421.69189453,-19554725.646972656
0.075,53617671.966552734,31467416.763305664,7241179.466247559,26216207.50427246,2648291.58782959,46897480.01098633,27555776.596069336,24675582.885742188,11568867.683410645,1674831.3903808594,-1362655.0436019897,-18559688.568115234,-17342641.830444336,-19698608.3984375,21258373.260498047,9654409.408569336,9612476.348876953,-608398.0202674866,-5484190.464019775,-10028393.745422363,-16814153.67126465,-19451799.392700195,-37472328.186035156,19857618.33190918,18884586.334228516,8284895.896911621,6263899.326324463,294331.6400051117,-8037213.325500488,-16219541.549682617,-21141113.28125,-37424396.51489258,19161638.259887695,8658557.891845703,2460197.687149048,-68812.83223628998,291448.6229419708,3756931.781768799,-20006544.11315918,-26933830.26123047,-26197935.104370117,19506986.618041992,3560709.9533081055,2623712.5396728516,1547264.575958252,150016.1737203598,-1170481.0857772827,-24423423.767089844,-23255393.981933594,-25196435.928344727,-10044171.333312988,-9694874.76348877,-10511823.654174805,786814.3320083618,-24844793.31970215,-25886167.526245117,-25376941.680908203,7093319.416046143,6649331.092834473,17885.029315948486,-25253406.524658203,-26011341.094970703
0.08,49708610.53466797,26839832.305908203,2117038.7268066406,24742904.663085938,-1169242.7396774292,44696784.97314453,29137918.47229004,26484239.57824707,11369606.971740723,1433475.136756897,-3301876.0681152344,-22082759.857177734,-21047183.990478516,-23173097.610473633,25521476.74560547,11042400.360107422,10305808.067321777,933913.5885238647,-4103344.440460205,-10651729.583740234,-19452974.319458008,-23563203.811645508,-40422210.693359375,24303396.224975586,20935892.10510254,9303455.352783203,6726397.514343262,482469.67792510986,-9507467.269897461,-18283832.550048828,-24078668.59436035,-40361454.010009766,23604549.407958984,12338260.650634766,5793822.288513184,295144.1705226898,548184.7524642944,3539020.538330078,-21820978.16467285,-26984411.239624023,-26204807.28149414,24015026.092529297,6848667.621612549,5849205.493927002,2604410.171508789,418690.0854110718,-261290.87805747986,-24537120.819091797,-23523870.46813965,-25142093.658447266,-5674067.02041626,-5391533.851623535,-5675754.547119141,2833251.953125,-24655141.830444336,-25655664.443969727,-25221179.962158203,6274387.359619141,6344712.734222412,1890722.0363616943,-25036128.997802734,-25705881.118774414
0.085,47220302.58178711,23206991.19567871,-698864.4599914551,25232469.55871582,-2800934.076309204,45928043.365478516,32441303.253173828,30128700.256347656,13764069.557189941,3673651.695251465,-3334469.0799713135,-22227329.25415039,-21323780.059814453,-23225334.16748047,27473705.291748047,13920699.119567871,12995183.944702148,5199811.4585876465,-716007.4710845947,-8969361.305236816,-18692230.224609375,-23893491.744995117,-38815883.63647461,26459306.716918945,23003574.37133789,10855424.880981445,7789057.731628418,416364.78900909424,-9084984.77935791,-17418577.194213867,-21880647.659301758,-38734527.587890625,25779514.31274414,14280529.022216797,6582320.690155029,230343.23751926422,498942.19636917114,4969975.94833374,-19315814.971923828,-22298208.236694336,-21380859.375,26095180.51147461,7594094.753265381,6571081.638336182,2208909.273147583,273435.47344207764,1866176.2475967407,-19980903.62548828,-19128021.240234375,-20684329.986572266,-5363090.515136719,-4890469.074249268,-3973443.031311035,4349601.268768311,-20086082.458496094,-20874654.76989746,-20550985.33630371,6263833.045959473,6574573.516845703,3564697.742462158,-20387840.270996094,-21058950.424194336
0.09,51453605.65185547,25339006.423950195,2869963.6459350586,29471771.240234375,-333795.1898574829,49976772.30834961,35690937.04223633,33546134.94873047,18444629.669189453,7117715.835571289,-1169258.8329315186,-18985755.920410156,-18122116.088867188,-19950843.811035156,27180246.353149414,16692596.435546875,15329926.490783691,9067711.83013916,1654372.215270996,-6042922.019958496,-15349298.477172852,-20321371.07849121,-33479110.717773438,26151027.67944336,23847578.048706055,11372172.355651855,8589110.374450684,351493.2692050934,-7301225.662231445,-14817900.657653809,-17154100.41809082,-33430736.541748047,25446630.477905273,14037202.835083008,5222908.973693848,16622.84880876541,408628.8511753082,5992526.054382324,-14832509.04083252,-17113759.994506836,-16066898.345947266,25646255.493164062,6380151.271820068,5315782.54699707,1780016.6606903076,67818.7683224678,3378644.2279815674,-15038403.511047363,-14088402.74810791,-15840927.124023438,-7545385.837554932,-6848133.563995361,-6928061.485290527,4116514.6827697754,-15308419.227600098,-15858614.921569824,-15640663.146972656,6484679.698944092,6775985.240936279,3598237.2760772705,-15557995.796203613,-16334369.659423828
0.095,60235897.064208984,32843372.344970703,11178103.44696045,34684528.35083008,5652504.920959473,51244171.142578125,35763458.251953125,33639564.514160156,22379648.208618164,10056243.896484375,3082364.082336426,-13365248.680114746,-12486962.31842041,-14402190.208435059,24952377.319335938,16367752.075195312,14856657.028198242,9313553.810119629,2027340.8889770508,-3167022.228240967,-10841274.26147461,-14162436.485290527,-27162475.5859375,23658119.201660156,22642051.696777344,9899829.864501953,8385543.8232421875,409909.7549915314,-5143795.967102051,-11450575.828552246,-12990637.77923584,-27158462.524414062,22975255.966186523,11972872.734069824,3315492.1531677246,-133185.83369255066,446074.4559764862,6130321.979522705,-11704185.485839844,-14786734.580993652,-13726277.351379395,23178459.16748047,4656484.603881836,3613082.17048645,1987844.8247909546,111181.55717849731,3764882.0877075195,-12902316.093444824,-11678076.74407959,-13573725.700378418,-9730916.023254395,-9054536.819458008,-10603699.684143066,2625384.0923309326,-13233190.536499023,-13734431.266784668,-13551571.8460083,5099459.648132324,5402321.815490723,2192431.926727295,-13517123.222351074,-14400878.90625
0.1,68582344.05517578,42263870.23925781,20809116.36352539,37577602.38647461,13865269.660949707,46241374.96948242,32423995.971679688,30317932.12890625,23373029.708862305,12669439.315795898,9698410.987854004,-5691327.095031738,-4752404.689788818,-6856778.144836426,20109643.936157227,11765436.172485352,12155641.555786133,6406961.917877197,2684876.6803741455,-454234.45105552673,-5834555.625915527,-6571733.474731445,-22220466.61376953,18565635.681152344,20033372.87902832,7880180.358886719,7584041.595458984,444785.56513786316,-3003134.9658966064,-8005799.293518066,-10277481.079101562,-22196023.94104004,17977621.07849121,8464848.518371582,1226028.323173523,-374044.38853263855,472928.58362197876,5759680.74798584,-11877058.029174805,-16954563.14086914,-16028762.817382812,18308631.896972656,2568546.772003174,1622524.2614746094,1417086.4820480347,242189.58616256714,2664703.130722046,-15011400.22277832,-13647572.51739502,-15522630.69152832,-12672458.64868164,-12226833.34350586,-11999865.531921387,-204465.29984474182,-15332627.296447754,-15996990.203857422,-15741878.509521484,1046457.7674865723,1476404.070854187,-831607.0437431335,-15705617.904663086,-16568805.694580078
0.105,74708541.87011719,49909652.70996094,29272108.07800293,37608631.1340332,21872690.200805664,38321434.020996094,28851549.14855957,26694389.34326172,21710205.078125,15052281.379699707,16828699.111938477,2356954.81300354,3424592.2565460205,1137299.4184494019,13109446.52557373,5354075.908660889,9709364.891052246,3505889.892578125,4944909.09576416,1832569.8375701904,-1478828.5493850708,521452.30770111084,-19348802.56652832,11609756.469726562,17393581.39038086,7027546.8826293945,6973387.241363525,332456.43973350525,-1132284.40284729,-5638200.759887695,-8650417.32788086,-19257738.11340332,11043877.601623535,4333677.291870117,-1531975.0308990479,-859225.0943183899,321724.89166259766,4940783.0238342285,-14373238.563537598,-22432096.481323242,-21716474.533081055,11484008.7890625,-311224.19238090515,-1228419.0654754639,-871296.226978302,146132.57348537445,75659.26760435104,-20221311.569213867,-18973995.208740234,-20873500.82397461,-17674242.01965332,-17380119.32373047,-12445476.531982422,-4853135.108947754,-20721195.220947266,-21557621.002197266,-21176431.65588379,-4257962.226867676,-3761245.4891204834,-5797911.643981934,-21144039.154052734,-21887006.759643555
0.11,79476081.84814453,53508331.298828125,34575374.603271484,36293331.146240234,26278711.318969727,33554813.385009766,27899034.50012207,25535362.243652344,19038917.541503906,15761531.829833984,20526212.692260742,7203902.721405029,8431021.690368652,6102399.826049805,7057948.589324951,1136353.9695739746,8790270.805358887,2817993.1640625,6967755.7945251465,2737500.1907348633,474496.5136051178,4440039.63470459,-17668691.635131836,5860125.541687012,15372629.165649414,7028712.272644043,6834218.0252075195,195182.8896999359,46864.97896909714,-4944186.687469482,-7736982.822418213,-17557126.998901367,5137691.497802734,1068760.1566314697,-4571959.018707275,-1363477.9453277588,91283.20962190628,3970496.416091919,-16194808.959960938,-26970901.489257812,-26414403.915405273,5539408.206939697,-3392311.0961914062,-4416106.700897217,-3544014.9307250977,-120476.90898180008,-2702216.625213623,-24562654.495239258,-23516941.07055664,-25552453.994750977,-22749238.967895508,-22368747.71118164,-14522626.876831055,-9762921.333312988,-25411542.892456055,-26237367.630004883,-25787702.560424805,-7646501.064300537,-7213750.36239624,-10872192.3828125,-25791208.267211914,-26485805.51147461
0.115,82034034.7290039,52500362.396240234,34846115.11230469,34720432.28149414,25220523.834228516,34082763.671875,29099248.8861084,26591629.028320312,16494043.350219727,13572656.631469727,18625499.725341797,6541582.107543945,7843463.42086792,5671242.237091064,5627857.208251953,1149574.7566223145,8642611.503601074,3884899.854660034,6610448.837280273,1831485.1522445679,-633170.3662872314,3954488.515853882,-16108325.958251953,4680472.373962402,14150245.666503906,6834856.033325195,7014653.68270874,235906.64565563202,287770.3905105591,-5166420.936584473,-7101076.602935791,-16049093.246459961,3730234.384536743,377355.2179336548,-6007577.419281006,-1492454.4095993042,47053.19553613663,3697126.1501312256,-15473773.956298828,-26610507.96508789,-26074045.181274414,3992891.788482666,-4764186.382293701,-5878708.839416504,-4364892.482757568,-200359.64250564575,-3831625.6999969482,-24288694.381713867,-23350706.100463867,-25363740.921020508,-23894258.499145508,-23314208.984375,-16900615.692138672,-11268769.264221191,-25277231.216430664,-25948863.983154297,-25528041.83959961,-6962651.252746582,-6524051.189422607,-12236164.093017578,-25574466.705322266,-26370826.721191406
0.12,79255989.07470703,47110187.53051758,29462072.372436523,32144535.064697266,19814622.87902832,37189426.42211914,29502546.310424805,27201354.98046875,13642984.390258789,8898424.14855957,12610300.064086914,1592901.8259048462,2791117.6681518555,910642.4450874329,9514173.50769043,4201648.235321045,7863067.150115967,4601119.041442871,3959680.5572509766,-440636.93284988403,-3875652.313232422,422071.8741416931,-14935887.336730957,8559419.631958008,14326183.319091797,6591868.877410889,7081960.201263428,465667.0093536377,-471334.4871997833,-5730930.805206299,-6587590.217590332,-14922589.302062988,7474186.420440674,3221237.6594543457,-3837421.8940734863,-1151672.9593276978,291959.7029685974,4309036.2548828125,-13461874.008178711,-21960817.337036133,-21316093.44482422,7657138.824462891,-2544197.3209381104,-3624972.5818634033,-2268083.5723876953,43673.548847436905,-2769739.1510009766,-19920911.78894043,-19005128.860473633,-20697771.072387695,-19264577.865600586,-18553165.435791016,-14169325.828552246,-7349070.072174072,-20629671.096801758,-21210697.174072266,-20833648.681640625,-3185120.105743408,-2474160.1943969727,-8001573.56262207,-20904067.993164062,-21817476.272583008
0.125,70951919.55566406,38601078.033447266,20763793.9453125,27222564.697265625,13023617.7444458,38960048.67553711,26718345.642089844,24827934.26513672,9315673.828125,3135353.8036346436,5634312.629699707,-4122416.0194396973,-3154199.8386383057,-4725452.899932861,14927353.858947754,6834060.6689453125,5432144.1650390625,3097096.6815948486,377220.86906433105,-3431181.9076538086,-7701228.618621826,-3337727.3082733154,-15084173.202514648,13822835.922241211,15768630.027770996,6423575.878143311,6274763.107299805,671897.7689743042,-2105387.9261016846,-7149207.592010498,-6782718.181610107,-15036779.403686523,12714413.6428833,8003128.0517578125,1114380.955696106,-676486.0153198242,621005.117893219,4767043.590545654,-12622043.60961914,-17648586.27319336,-16860748.291015625,12926983.833312988,2431752.920150757,1353697.5383758545,1632316.7085647583,325120.0318336487,-719103.5151481628,-15804189.682006836,-14913995.742797852,-16313808.44116211,-11658685.684204102,-10914793.968200684,-4381329.05960083,-872979.9389839172,-16151611.328125,-16816110.610961914,-16413057.327270508,444869.19045448303,1581931.9486618042,-1335016.4890289307,-16459764.48059082,-17352787.017822266
0.13,63188121.7956543,30719614.028930664,13898324.966430664,20928970.336914062,8088816.6427612305,37326477.05078125,21347415.924072266,19611377.716064453,4144118.309020996,-1588561.4156723022,791831.4337730408,-7234437.465667725,-6423356.533050537,-7800930.023193359,16336826.32446289,5729122.638702393,1431435.8234405518,-500049.9486923218,-2701090.3358459473,-5964493.274688721,-10303585.052490234,-4730824.4705200195,-15965106.964111328,15160716.05682373,16347929.000854492,5134453.296661377,4369077.205657959,627257.2875022888,-3666536.569595337,-9111910.820007324,-7872402.191162109,-15837597.846984863,14096395.492553711,10288333.892822266,4280286.78894043,-533196.6280937195,718425.989151001,4268414.02053833,-13327859.878540039,-17052881.240844727,-16187982.559204102,14314625.74005127,5654534.816741943,4416456.699371338,4236243.724822998,297002.375125885,613420.6652641296,-15165569.305419922,-14329724.311828613,-15804835.319519043,-7235928.535461426,-6507248.878479004,4657832.145690918,2428436.756134033,-15561028.480529785,-16353656.768798828,-15892303.466796875,1450796.127319336,2835201.2634277344,1898568.5110092163,-15827896.118164062,-16612823.486328125
0.135,62945953.369140625,28267915.725708008,13123617.172241211,17238662.719726562,7450454.235076904,33025661.46850586,16868288.040161133,14913823.127746582,1471396.9230651855,-2340066.432952881,764148.7121582031,-6203184.127807617,-5310880.661010742,-6734955.787658691,12008992.195129395,827551.4245033264,-2152686.357498169,-3562034.3685150146,-3491560.697555542,-6051429.271697998,-9901924.133300781,-2763280.6301116943,-15510462.760925293,10854613.304138184,14250490.188598633,2572172.8801727295,2797323.9421844482,319717.675447464,-3474823.7133026123,-9476427.07824707,-8377843.856811523,-15352203.369140625,9949544.906616211,7048581.123352051,1888468.5039520264,-912001.7290115356,485324.35297966003,3429634.0942382812,-13769891.738891602,-18968517.303466797,-18122644.424438477,10027241.706848145,3268924.7131347656,1934129.3573379517,2887529.134750366,-34747.011959552765,361158.1325531006,-16923185.348510742,-16152168.273925781,-17881303.787231445,-10162818.908691406,-9493954.6585083,2721668.7202453613,-85130.08803129196,-17755270.00427246,-18518135.07080078,-18061908.721923828,102870.03219127655,1384324.550628662,-766840.6367301941,-17836368.560791016,-18590751.64794922
0.14,69968818.66455078,32021156.311035156,17468055.725097656,19377082.82470703,11154803.276062012,29313903.80859375,16724382.400512695,14581476.211547852,4088235.855102539,2205972.909927368,5982722.759246826,-2311329.8416137695,-1169160.8428955078,-2875177.1450042725,6473620.891571045,-3544356.8229675293,-2318427.801132202,-3103427.4101257324,-829533.5173606873,-2922387.8383636475,-6466142.177581787,978256.344795227,-13133405.685424805,5288689.613342285,11437530.517578125,1773109.4360351562,3585172.653198242,2811.79859302938,-967406.3324928284,-7090221.405029297,-6723851.680755615,-13028346.061706543,4670837.879180908,1432470.0832366943,-3425896.167755127,-1543155.0741195679,146755.4271221161,3230929.374694824,-12857158.660888672,-19905567.169189453,-19120929.718017578,4553480.625152588,-2227752.923965454,-3291494.607925415,-1135400.7720947266,-342942.59548187256,-958564.043045044,-17783344.268798828,-17074523.92578125,-18801282.88269043,-17296066.284179688,-16744316.101074219,-8191432.952880859,-4844872.951507568,-18917367.935180664,-19489704.132080078,-19113656.997680664,-1284719.2287445068,-270637.6910209656,-5510214.805603027,-18810321.807861328,-19655508.041381836
0.145,77482681.27441406,37277797.69897461,21727968.215942383,25827219.009399414,16349594.116210938,29715734.481811523,21036155.700683594,19050586.700439453,10383690.83404541,8920447.34954834,12823687.553405762,1226653.6951065063,2528401.8516540527,524860.0244522095,5906500.816345215,-2462575.1972198486,1764470.3388214111,871384.7398757935,3623269.557952881,1042392.6115036011,-2631634.23538208,3461545.22895813,-11004933.35723877,4622151.851654053,12133170.127868652,5705784.320831299,6619637.966156006,-21711.042150855064,2081906.795501709,-4068667.411804199,-3826200.9620666504,-10968883.514404297,4203553.199768066,260827.6605606079,-4732415.676116943,-1914009.0942382812,1600.4545614123344,3524800.7774353027,-11581268.310546875,-18491827.0111084,-17756891.25061035,4064867.4964904785,-3814755.916595459,-4392355.442047119,-3142386.1980438232,-344458.0137729645,-1922147.512435913,-16394565.58227539,-15723512.649536133,-17182779.31213379,-20495595.932006836,-20066930.770874023,-14214970.588684082,-6381028.652191162,-17368827.81982422,-17820167.541503906,-17526039.123535156,-904678.9407730103,-22958.381101489067,-6846313.4765625,-17268220.901489258,-18215808.868408203
0.15,81245140.0756836,39801231.384277344,22630172.729492188,31775623.321533203,19720970.153808594,34727535.247802734,26565948.486328125,24864950.18005371,15627827.644348145,12355503.08227539,16248186.111450195,2273660.659790039,3490426.540374756,1432669.0435409546,11129703.521728516,4053854.465484619,7114413.261413574,5045715.808868408,6144897.4609375,2440350.5325317383,-1277908.3251953125,3338390.350341797,-11157275.199890137,9838164.329528809,17327569.96154785,12530322.074890137,9245487.213134766,263117.2239780426,3395321.6075897217,-3076140.6421661377,-2320682.2872161865,-11117069.244384766,9284418.106079102,5575095.176696777,264028.51939201355,-1759870.8868026733,99160.35085916519,3472741.6038513184,-11015702.247619629,-16495311.737060547,-15816634.178161621,9375125.885009766,1063012.4807357788,681081.4738273621,-804476.4399528503,-69072.73083925247,-1473329.1864395142,-14423042.297363281,-13745219.230651855,-15068128.58581543,-16391061.782836914,-16044351.577758789,-8390654.563903809,-4123247.1466064453,-15064689.636230469,-15647521.018981934,-15384999.27520752,584623.7540245056,1510818.600654602,-4412519.931793213,-15130382.537841797,-16091501.235961914
0.155,83740966.796875,40990680.69458008,22282232.2845459,34317287.44506836,20505788.803100586,41069095.611572266,29976348.876953125,28308368.682861328,17102361.67907715,10614956.855773926,15011605.262756348,1539935.1119995117,2556972.7420806885,699251.651763916,16946380.615234375,10722920.417785645,9826842.308044434,6388117.31338501,5041227.8175354,804743.4091567993,-2501303.9112091064,2200637.102127075,-12716345.78704834,15802964.210510254,23103412.628173828,17159006.118774414,9429445.266723633,520696.759223938,2841093.5401916504,-3651098.2513427734,-3186164.617538452,-12601830.48248291,14911417.007446289,11751376.152038574,5847034.931182861,-1345270.5144882202,235237.61332035065,2910478.115081787,-10607749.938964844,-16277256.01196289,-15683795.928955078,15266037.940979004,6751999.855041504,6098510.265350342,2469426.393508911,188333.74977111816,-2214.123494923115,-14229534.149169922,-13524873.733520508,-14998522.758483887,-11154730.796813965,-10881189.346313477,-779040.8730506897,-2709137.201309204,-14825096.130371094,-15674510.00213623,-15389654.159545898,536774.5161056519,1487809.5388412476,-2984169.2447662354,-14978989.601135254,-15847293.853759766
0.16,88004180.90820312,44270706.17675781,24201938.62915039,34486740.11230469,20242046.356201172,44903148.65112305,30421802.520751953,28551965.713500977,16118347.16796875,7078097.820281982,12395389.556884766,756637.454032898,1692584.753036499,68322.72559404373,18723152.16064453,12937506.675720215,9191002.84576416,5152208.32824707,2427596.092224121,-1356854.796409607,-4219309.8068237305,2044438.6005401611,-13295140.266418457,17700141.90673828,25524654.388427734,17515094.757080078,8173898.696899414,441652.95362472534,2116283.416748047,-3475835.5617523193,-4671944.618225098,-13128709.79309082,16715335.845947266,13017082.214355469,6221844.19631958,-1152453.1841278076,244421.52678966522,2393380.1651000977,-9391400.337219238,-18165357.58972168,-17616197.58605957,17066078.186035156,7254795.074462891,6238079.071044922,2419179.916381836,152987.10763454437,1192143.201828003,-16235586.166381836,-15533291.816711426,-17163755.416870117,-11958052.635192871,-11772244.453430176,-2934643.7454223633,-5006824.970245361,-17066648.483276367,-18015905.380249023,-17655286.78894043,-2360418.0812835693,-1487233.5195541382,-5334871.292114258,-17132915.496826172,-17823007.583618164
0.165,92278312.68310547,49069286.34643555,28614719.39086914,34524600.982666016,20650537.490844727,45276512.145996094,29029806.13708496,27042467.11730957,15086451.530456543,5812658.786773682,11876624.10736084,702599.7042655945,1736844.0628051758,227600.23176670074,17347646.713256836,11321957.5881958,7717471.122741699,3710393.4288024902,1194243.4310913086,-2090103.3878326416,-4829491.61529541,3129079.580307007,-11868125.915527344,16218109.130859375,25004972.457885742,16302965.16418457,7680177.688598633,136373.3410835266,2306142.0917510986,-2007292.0322418213,-4601686.000823975,-11729135.513305664,15567575.454711914,10675923.347473145,3279879.331588745,-1317829.6089172363,176045.55189609528,2235195.6367492676,-7680593.490600586,-20211645.126342773,-19566461.56311035,15604404.44946289,4338284.015655518,3230508.327484131,209738.3439540863,-157792.06156730652,1525474.0715026855,-18443246.841430664,-17769723.892211914,-19353559.494018555,-16642835.61706543,-16466629.028320312,-10288353.91998291,-7805169.105529785,-19396778.106689453,-20163383.48388672,-19703035.354614258,-5386424.0646362305,-4545876.026153564,-8103081.703186035,-19385278.701782227,-19894645.69091797
0.17,94415985.10742188,52412872.314453125,33628520.96557617,35621219.635009766,22976842.880249023,44461177.825927734,27547420.501708984,25668453.216552734,15146010.398864746,7590798.377990723,14203963.279724121,2095970.630645752,3280391.9315338135,1809935.212135315,16670610.427856445,9917990.684509277,7861517.906188965,3753998.279571533,1927925.705909729,-1507178.783416748,-3846881.38961792,5207928.657531738,-9082880.020141602,15266191.482543945,24511169.43359375,16447650.909423828,8295598.030090332,-16766.224056482315,3029978.2752990723,-506650.32863616943,-2508736.3719940186,-8994471.549987793,15014859.199523926,9882116.317749023,2745860.3382110596,-1536733.627319336,155301.64539813995,2237819.194793701,-6527694.225311279,-20192852.020263672,-19360340.118408203,14714424.133300781,3845185.9951019287,2814545.6314086914,217185.3929758072,-450185.98437309265,1429588.1986618042,-18418043.13659668,-17756298.065185547,-19249696.731567383,-17329921.72241211,-16996406.55517578,-10467414.855957031,-6626666.54586792,-19198732.376098633,-19728466.033935547,-19240425.10986328,-3986179.5902252197,-3071450.2334594727,-6830427.169799805,-19297561.645507812,-19787954.330444336
0.175,97260124.20654297,54409763.33618164,38525016.78466797,38414669.036865234,27914356.231689453,45443504.333496094,28001722.33581543,26290519.71435547,17054555.892944336,11069658.279418945,18529781.341552734,6145459.175109863,7411355.018615723,5937497.615814209,18161916.732788086,11430544.85321045,10168450.355529785,5550837.516784668,3706935.8825683594,-90373.05414676666,-1133597.2547531128,8635678.2913208,-6127338.409423828,16559574.127197266,25371358.87145996,17860313.415527344,8936739.921569824,105365.42534828186,3626610.517501831,451787.7995967865,369471.6691970825,-6037362.098693848,16335306.167602539,11888678.550720215,5386527.538299561,-1533390.8796310425,188919.23129558563,2088859.0812683105,-6462560.653686523,-18245433.807373047,-17335351.943969727,15975671.768188477,6626805.305480957,5576449.871063232,2824627.637863159,-475721.538066864,836752.7723312378,-16230442.04711914,-15556624.412536621,-17101034.16442871,-12674631.118774414,-12119107.246398926,-3598626.8520355225,-2850221.872329712,-16794502.25830078,-17326774.59716797,-16945190.4296875,2089872.8370666504,2976433.038711548,-3042084.6939086914,-17078186.03515625,-17780527.114868164
0.18,103792228.69873047,56885269.16503906,42720729.82788086,42824760.43701172,33937526.70288086,48896553.03955078,31537706.37512207,29839397.430419922,21464954.376220703,15194832.801818848,23540443.420410156,11947545.051574707,13199634.552001953,11592597.007751465,19915542.602539062,15184426.307678223,13932194.709777832,8704528.80859375,6057507.9917907715,2092138.5288238525,2457473.7548828125,12510070.80078125,-4593309.8793029785,18339435.577392578,26576663.970947266,19374391.555786133,9630124.09210205,235433.32517147064,3858875.513076782,1081207.513809204,2082583.6658477783,-4487466.812133789,17818077.087402344,13535706.520080566,6943763.732910156,-1408337.116241455,185893.02897453308,1475593.3284759521,-7603723.526000977,-17315893.173217773,-16555665.969848633,17669565.200805664,8268010.139465332,7148095.13092041,3860651.4930725098,-308089.85233306885,-1313925.3854751587,-15065937.042236328,-14388484.954833984,-16028066.635131836,-9680150.032043457,-9052166.938781738,-1263915.0619506836,-2402305.841445923,-15650757.789611816,-16412103.652954102,-16169338.22631836,6661912.91809082,7269684.314727783,-2716140.031814575,-15948306.0836792,-16892456.0546875
0.185,109430709.83886719,57490341.18652344,43128253.93676758,46364791.87011719,36713706.970214844,51781757.35473633,35911285.400390625,33985736.84692383,26702915.19165039,18768117.904663086,26817615.509033203,15125471.115112305,16272701.263427734,14394393.920898438,19641927.71911621,18286420.822143555,17602294.921875,12103328.704833984,8592763.900756836,4137190.818786621,4472827.911376953,13744605.06439209,-6083990.097045898,18259748.458862305,26808248.51989746,20732753.75366211,11397838.592529297,158501.66976451874,3612314.224243164,883019.1493034363,1242200.0169754028,-6042586.326599121,17499496.459960938,12956379.890441895,5465701.580047607,-1399295.3300476074,100933.44002962112,209893.27132701874,-9953802.108764648,-19986074.447631836,-19482362.747192383,17586736.67907715,6657729.625701904,5644580.364227295,1278602.2424697876,-217261.28458976746,-5111902.236938477,-17774824.142456055,-17114147.186279297,-18738399.505615234,-12769784.927368164,-12267557.144165039,-7216520.309448242,-7693982.6011657715,-18570524.215698242,-19490633.010864258,-19238288.87939453,3821597.8145599365,4119632.2441101074,-8143735.885620117,-18690011.978149414,-19627180.099487305
0.19,106343261.71875,51402202.60620117,36754325.86669922,45388454.43725586,33155532.836914062,49713481.90307617,36088264.46533203,33736064.91088867,28701826.095581055,19761837.005615234,25945190.4296875,12315463.066101074,13312198.638916016,11202583.312988281,16929920.196533203,17855415.34423828,18809307.098388672,13783404.350280762,10015466.690063477,4489852.9052734375,3244886.1598968506,10770414.352416992,-10163342.475891113,15777990.341186523,25529762.268066406,21378482.818603516,13779246.33026123,37195.1125562191,3081190.1092529297,-360186.78545951843,-1277305.6030273438,-10245087.623596191,14988237.380981445,11554834.365844727,3523533.582687378,-1479741.096496582,-24214.1280323267,-1205906.5103530884,-12539582.252502441,-24860958.099365234,-24501642.22717285,15194102.28729248,4491395.950317383,3726600.8853912354,-1968888.8788223267,-300249.6659755707,-8327027.320861816,-22912549.97253418,-22277013.778686523,-23847579.956054688,-17907758.712768555,-17549989.700317383,-12753353.118896484,-14521742.820739746,-23879783.630371094,-24706859.588623047,-24274637.22229004,-4427005.767822266,-4190193.1762695312,-14989131.927490234,-23856575.01220703,-24562524.795532227
0.195,95621955.87158203,40008613.58642578,25955921.173095703,39922576.904296875,25816499.710083008,42556110.38208008,30092676.162719727,27316577.911376953,25511405.94482422,17358734.130859375,21649662.017822266,6036384.582519531,6983239.17388916,4798400.87890625,13339825.630187988,13706896.781921387,16361198.425292969,12530147.552490234,9240001.678466797,3062460.18409729,478412.6281738281,6669806.480407715,-13527594.566345215,12363662.719726562,23141340.255737305,20082654.95300293,14682032.585144043,127492.72584915161,3024884.2239379883,-887963.7122154236,-2433344.841003418,-13655306.816101074,11571769.714355469,10567440.9866333,3044209.4802856445,-1398061.990737915,-102881.73705339432,-1648031.3539505005,-13322732.925415039,-27481000.900268555,-27069538.116455078,11860497.47467041,3938221.9314575195,3285452.127456665,-2868620.3956604004,-376484.9901199341,-8546341.896057129,-25739709.854125977,-25144628.524780273,-26756879.806518555,-19952651.977539062,-19612989.42565918,-12533257.484436035,-17691228.86657715,-26733392.7154541,-27387475.967407227,-26781387.329101562,-10128458.023071289,-9833779.335021973,-18062820.434570312,-26765138.626098633,-27316764.83154297
0.2,88434295.65429688,32373771.66748047,18084207.53479004,35094142.91381836,20946273.803710938,36432945.251464844,23004005.432128906,20126499.17602539,20344480.514526367,13794725.41809082,18085334.77783203,2311233.2820892334,3430056.095123291,1193788.766860962,11357748.031616211,9391421.3180542,12481731.414794922,9503037.452697754,7027963.161468506,1548740.5061721802,-526918.1132316589,6009768.009185791,-13001830.101013184,10451473.236083984,21288509.368896484,17371971.130371094,13271794.319152832,369042.5753593445,3786379.814147949,1089137.7925872803,-180124.96829032898,-13052238.464355469,9593680.381774902,9429392.81463623,2698826.313018799,-1053618.9079284668,-23723.149672150612,-743852.972984314,-11365091.323852539,-25378353.118896484,-24801441.192626953,9997836.112976074,3677870.273590088,2910161.4952087402,-2290565.7291412354,-278130.8889389038,-6113870.620727539,-23620416.64123535,-23084157.943725586,-24778825.759887695,-19723724.365234375,-19343521.118164062,-11790062.90435791,-16597934.72290039,-24546577.45361328,-25215326.3092041,-24600400.924682617,-8769159.317016602,-8638890.266418457,-16861238.479614258,-24737901.68762207,-25344898.223876953
0.205,91891929.62646484,34410537.71972656,17968122.482299805,35120121.002197266,21502893.447875977,37203666.68701172,21702964.782714844,19171653.747558594,17668676.376342773,12109084.129333496,18278795.24230957,3593216.4192199707,4987732.410430908,2608734.607696533,12575300.216674805,8979641.914367676,10915219.3069458,7085174.560546875,5155869.483947754,990278.5420417786,882764.995098114,9200888.633728027,-9006724.35760498,11615180.969238281,21937580.108642578,15931795.120239258,11231974.601745605,500150.8593559265,4365647.792816162,4103852.7488708496,3816985.3687286377,-8981148.719787598,10805196.762084961,8223831.1767578125,1717468.6193466187,-635796.9045639038,273884.8328590393,286068.05205345154,-8337308.883666992,-20659128.189086914,-19936100.006103516,11250317.573547363,2741317.5106048584,1853427.8869628906,-2017000.436782837,-87558.20244550705,-3373497.724533081,-18722291.946411133,-18200935.36376953,-19917659.759521484,-19765800.47607422,-19408048.629760742,-13771884.91821289,-13572131.156921387,-19561090.46936035,-20389064.78881836,-19924186.70654297,-3273947.00050354,-3487213.373184204,-13769824.028015137,-19814748.764038086,-20474201.202392578
0.21,99261390.68603516,40532394.40917969,22332586.28845215,37568325.04272461,24200710.29663086,42553909.30175781,26055168.15185547,24022228.240966797,17579679.489135742,12628963.470458984,20687059.40246582,6698941.707611084,8189777.374267578,5753664.016723633,15941389.083862305,12182028.770446777,12352285.385131836,6336250.782012939,4408131.5994262695,726585.2093696594,2352051.7349243164,12531242.370605469,-4918583.869934082,14850353.240966797,24814371.10900879,16870040.893554688,10415248.87084961,455726.83215141296,3760027.1701812744,4887763.977050781,6143483.638763428,-4917991.638183594,14295501.708984375,8536441.802978516,2077721.118927002,-366476.5954017639,655916.690826416,49176.80844664574,-6600991.725921631,-16926771.16394043,-16170230.865478516,14618165.969848633,3041750.431060791,2216034.412384033,-1306123.13747406,1169.9333554133773,-1537698.2688903809,-14780034.065246582,-14143120.765686035,-15908883.094787598,-18478715.896606445,-18165086.74621582,-12542948.722839355,-9909421.920776367,-15558848.38104248,-16375137.329101562,-16130872.72644043,1464619.1596984863,1149623.990058899,-10040719.985961914,-15710816.383361816,-16239465.713500977
0.215,99101585.3881836,40701564.78881836,23486177.444458008,36800773.62060547,24300060.272216797,44639099.12109375,29297636.032104492,27507692.337036133,16964056.01501465,13426414.489746094,21760816.57409668,7759637.832641602,9078770.637512207,6873631.477355957,18470397.94921875,14655229.568481445,13909907.341003418,6756581.3064575195,4494498.729705811,407181.3225746155,2318186.7599487305,13250617.980957031,-3469608.0684661865,17267869.94934082,26888240.814208984,17721677.780151367,10721440.315246582,380335.86740493774,2911232.9483032227,3044419.288635254,5778412.818908691,-3504157.066345215,16942390.44189453,10532639.503479004,4647005.081176758,-256598.94943237305,817562.7589225769,-1139275.1932144165,-6516365.528106689,-15465952.87322998,-14789306.640625,17109048.84338379,5607911.109924316,4930231.57119751,742574.5725631714,-54845.78758478165,-199852.3771762848,-13173025.131225586,-12312610.626220703,-14273207.664489746,-13937343.59741211,-13561046.600341797,-5263472.557067871,-6278710.36529541,-13938017.845153809,-14448014.259338379,-14412928.581237793,4098443.5081481934,4061347.484588623,-6277046.203613281,-13942975.997924805,-14315329.551696777
0.22,90776283.26416016,33732723.236083984,18581027.98461914,32138134.002685547,21629238.12866211,40362689.97192383,27532859.802246094,25703527.450561523,15202465.057373047,13771512.985229492,20933448.791503906,6846950.531005859,7962269.7830200195,6074172.9736328125,18089206.69555664,13365202.903747559,13458502.769470215,7900399.684906006,5373905.181884766,1243703.4845352173,2078301.191329956,12308704.376220703,-4661225.79574585,16875818.252563477,25640920.639038086,16008712.768554688,11093779.563903809,305377.0065307617,3792658.805847168,1663887.0239257812,4580271.7208862305,-4603960.990905762,16515441.89453125,11508090.97290039,6336252.212524414,-188931.48005008698,590476.3340950012,-1807227.0154953003,-6957324.981689453,-15934947.967529297,-15319011.688232422,16665279.388427734,7442971.229553223,6803572.654724121,1989698.5292434692,-146143.6003446579,226062.8491640091,-13611362.45727539,-12586822.509765625,-14764845.848083496,-10032451.629638672,-9482894.897460938,-992128.7298202515,-5073815.822601318,-14371667.861938477,-14596156.120300293,-14641893.38684082,5038615.2267456055,5258689.880371094,-4907637.119293213,-14340878.4866333,-14771679.878234863
0.225,84505607.60498047,28351469.039916992,13441242.218017578,28557157.516479492,20198257.446289062,34187515.25878906,24273811.34033203,22421630.859375,14920459.747314453,14941827.774047852,21026081.085205078,6824268.817901611,7940502.643585205,6033843.040466309,14789622.30682373,9164301.872253418,11925030.708312988,9523612.022399902,7231887.340545654,4072149.2767333984,3448080.7781219482,12084410.667419434,-6654365.062713623,13687398.910522461,21750835.418701172,12781822.204589844,11179215.431213379,107328.35531234741,6546348.094940186,2899685.3828430176,4089529.514312744,-6420820.236206055,13143258.094787598,8812288.284301758,3775883.913040161,-143168.01726818085,185921.86272144318,-1464993.953704834,-7636348.724365234,-18736156.463623047,-17998750.686645508,13349056.243896484,5003881.931304932,4281296.253204346,-236196.3987350464,-211099.23720359802,-1844028.2344818115,-16428779.602050781,-15466599.464416504,-17665246.963500977,-12738312.721252441,-12027956.96258545,-7908811.569213867,-8522276.878356934,-17155523.3001709,-17494985.580444336,-17392549.514770508,3190470.9339141846,3271856.3079833984,-8316291.809082031,-17216096.878051758,-17877992.630004883
0.23,86592086.79199219,30582902.908325195,14986461.639404297,28785823.822021484,22320297.241210938,30072778.701782227,23688676.834106445,21946079.25415039,16602195.739746094,17136592.864990234,23628061.294555664,9091184.616088867,10339437.484741211,8063602.447509766,9478869.438171387,3899603.6052703857,10463627.815246582,10299110.412597656,9178237.915039062,7374954.2236328125,5975811.004638672,13382127.76184082,-7743454.456329346,8559085.845947266,17699611.66381836,10623238.563537598,10957613.945007324,-180831.00020885468,8981805.801391602,5352457.523345947,3974191.427230835,-7416842.937469482,7959928.9894104,3253233.4327697754,-1757325.530052185,-218633.05568695068,-12213.471345603466,-1025825.3812789917,-9018930.435180664,-23706605.911254883,-22707643.508911133,8094155.311584473,-627146.4228630066,-1423059.105873108,-4522632.598876953,-290910.66122055054,-6044704.914093018,-21241876.60217285,-20562652.587890625,-22626146.31652832,-20911632.537841797,-20123315.811157227,-19000564.575195312,-14372388.83972168,-21979694.366455078,-22752267.837524414,-22387781.143188477,-1556602.954864502,-1866255.6409835815,-14380328.178405762,-22105216.97998047,-22948909.759521484
0.235,91181869.50683594,35262584.6862793,20683311.462402344,29145772.93395996,25056163.787841797,26693710.327148438,24161760.330200195,22450027.465820312,16582715.98815918,17831663.131713867,26130376.8157959,11595369.338989258,12878739.356994629,10356135.368347168,4032598.9723205566,-1319054.126739502,8458454.132080078,8558951.377868652,9447748.184204102,8609244.346618652,7452517.509460449,15045132.637023926,-7762034.893035889,3230257.272720337,15309635.162353516,10098052.978515625,10066187.858581543,-300893.03851127625,9275139.808654785,6606685.161590576,3817318.6779022217,-7473464.9658203125,2731056.6902160645,-1259502.5300979614,-5415990.352630615,-442722.886800766,105347.67806529999,-1096082.9257965088,-10354718.208312988,-27532169.342041016,-26397109.985351562,2676117.181777954,-4490985.39352417,-5302715.301513672,-6363722.324371338,-404133.02183151245,-8882211.685180664,-24617853.16467285,-24243301.391601562,-26271024.703979492,-26091802.5970459,-25271198.272705078,-20734024.047851562,-16735074.996948242,-25520023.345947266,-26564378.73840332,-26138751.983642578,-4759167.671203613,-5332479.953765869,-17105447.76916504,-25538936.614990234,-26439723.96850586
0.24,90181304.93164062,34132156.37207031,20509479.522705078,26158393.85986328,24095146.17919922,23426122.665405273,22589185.71472168,20713249.20654297,12788157.46307373,15133614.540100098,25110418.31970215,11286773.681640625,12482093.811035156,10127493.858337402,2194110.155105591,-3957172.8706359863,6225376.129150391,5080829.14352417,7604506.492614746,7098277.568817139,6580204.486846924,15513620.376586914,-7926727.294921875,1287487.506866455,15698667.526245117,10487974.166870117,8837890.625,-145710.8110189438,7939520.359039307,6322784.423828125,4200826.168060303,-7681794.166564941,861555.9935569763,-1170994.2817687988,-4216646.194458008,-668069.6606636047,277896.4936733246,-1183475.136756897,-10026525.497436523,-26241342.544555664,-25236600.875854492,719698.1906890869,-3297186.1362457275,-4143627.643585205,-3766989.231109619,-494199.33557510376,-7783293.2472229,-22832851.40991211,-22560451.50756836,-24721954.345703125,-22627286.911010742,-21801134.10949707,-11996418.952941895,-12751220.703125,-23965751.64794922,-24856370.92590332,-24692474.365234375,-1238360.88180542,-1848402.8577804565,-13308348.655700684,-23781614.303588867,-24680831.909179688
0.245,86774765.01464844,29866775.512695312,12243451.118469238,23990154.266357422,20903818.130493164,24836618.423461914,21416639.32800293,19406284.33227539,9564650.535583496,11848555.564880371,22116289.138793945,8898387.908935547,10064113.61694336,7998800.277709961,6865131.855010986,-580382.1682929993,6852901.935577393,3509285.9268188477,5833106.994628906,4934478.759765625,4882237.434387207,15112115.859985352,-8523949.62310791,5645035.743713379,19530805.587768555,12307904.243469238,9064496.994018555,34553.57626080513,6845998.287200928,6041536.331176758,5586926.460266113,-8227504.730224609,5238141.5367126465,3533832.550048828,100299.55208301544,-716772.5563049316,263121.2770938873,-948406.9347381592,-8121689.796447754,-20845714.569091797,-20017225.26550293,5189535.140991211,1276125.7886886597,348144.5014476776,308385.8788013458,-516252.9945373535,-4998267.650604248,-17321702.95715332,-16911256.790161133,-19142635.345458984,-14483408.92791748,-13739412.307739258,-4870066.165924072,-6681963.920593262,-18493299.48425293,-19084794.998168945,-19184144.973754883,7154954.91027832,6552856.4453125,-7043523.31161499,-18254276.275634766,-19082731.246948242
0.25,92322395.32470703,35480636.59667969,9333277.702331543,30024076.461791992,23104511.260986328,33156459.80834961,25390419.006347656,23488410.94970703,12923233.032226562,13465186.11907959,23337736.129760742,10254234.313964844,11529313.087463379,9490908.6227417,14754129.409790039,7395054.817199707,12071593.284606934,6605347.633361816,7049026.4892578125,5196575.64163208,5997668.266296387,17125089.645385742,-6792424.201965332,13280831.336975098,24930334.091186523,16018306.732177734,12045319.557189941,-9706.431068480015,7371229.17175293,7419824.600219727,7942512.989044189,-6402963.161468506,12981572.151184082,8722284.317016602,3103351.354598999,-573603.630065918,156655.415892601,-1023636.8179321289,-6644967.079162598,-17068218.231201172,-16187276.840209961,13018533.706665039,4476562.976837158,3524058.5803985596,1444906.3539505005,-487728.68514060974,-5094228.744506836,-13940912.246704102,-13328881.26373291,-15379680.633544922,-10577315.330505371,-10036571.502685547,-8073926.92565918,-5489510.536193848,-14877162.93334961,-15440899.848937988,-15406106.948852539,11565958.976745605,10886800.765991211,-5471758.842468262,-14832051.277160645,-15480159.759521484
0.255,109630905.15136719,57344768.52416992,25974409.103393555,43330307.00683594,35309131.62231445,40517471.31347656,32572689.056396484,30886354.446411133,21935317.993164062,21216791.1529541,31857669.830322266,20373376.846313477,21762195.587158203,19637294.76928711,17168287.27722168,12261555.671691895,17997787.475585938,12823783.874511719,11652554.512023926,9310421.94366455,12264269.828796387,24960584.64050293,804077.2676467896,15782313.346862793,26817390.44189453,19193538.665771484,16273468.017578125,-163487.95592784882,9708614.349365234,11116799.354553223,11753163.33770752,1216889.1429901123,15651604.652404785,9230835.914611816,1735951.1852264404,-385300.874710083,189110.96453666687,-1919599.2946624756,-6728184.700012207,-18247079.849243164,-17205398.559570312,15620815.27709961,2949971.914291382,2118567.705154419,-1661485.0759506226,-449757.00974464417,-9214345.932006836,-15800948.143005371,-15104739.18914795,-16844158.172607422,-15168036.460876465,-14868437.767028809,-17710382.46154785,-10985918.998718262,-16484130.859375,-17269935.607910156,-16777633.666992188,5883469.104766846,5073308.46786499,-10818659.782409668,-16663368.225097656,-17153894.424438477
0.26,125951271.0571289,83842353.82080078,56558105.46875,52901233.6730957,51364139.556884766,36154724.12109375,34807209.01489258,33202964.782714844,28630952.835083008,29214801.788330078,42250816.345214844,35989875.79345703,37383552.55126953,35501644.134521484,9126975.059509277,8224757.194519043,18619466.78161621,17579294.204711914,16678440.09399414,15467492.10357666,21338151.931762695,37023437.5,13321186.065673828,8103291.5115356445,21436624.52697754,18278190.61279297,18497529.983520508,-175979.48014736176,12838567.733764648,15990959.167480469,17253274.91760254,13650066.375732422,7962533.473968506,3762142.8966522217,-3168847.5608825684,-298213.27328681946,318225.7413864136,-3066699.504852295,-7362562.656402588,-21416736.602783203,-20476005.55419922,7832327.842712402,-2332573.890686035,-2974940.061569214,-6434319.496154785,-450860.53013801575,-14165205.955505371,-19680328.369140625,-19009344.10095215,-20537523.26965332,-24135940.551757812,-23975587.844848633,-24636884.689331055,-18075197.219848633,-20366365.432739258,-21231206.8939209,-20435508.728027344,-5729337.215423584,-6647484.302520752,-18136789.321899414,-20517202.377319336,-21063446.044921875
0.265,126645584.10644531,96428794.86083984,79249504.08935547,49900150.299072266,59863288.87939453,20153129.57763672,28315507.888793945,26725154.876708984,27218116.760253906,30652761.459350586,46152572.63183594,47319038.39111328,48690853.118896484,47394683.837890625,-4563301.563262939,-1465132.1172714233,13130887.985229492,17576211.92932129,18705593.10913086,19805963.51623535,27480609.893798828,46509407.04345703,24368675.231933594,-5332295.894622803,11188866.61529541,13253168.106079102,17133485.794067383,-109825.68562030792,14910223.007202148,19171606.063842773,22205678.939819336,24543992.99621582,-5713183.879852295,-3893811.2258911133,-8043696.403503418,-359756.11209869385,239862.322807312,-3790380.7163238525,-7692920.207977295,-22524063.110351562,-21974695.205688477,-5795368.671417236,-7400281.4292907715,-7937303.066253662,-9335404.396057129,-558257.4605941772,-17169757.843017578,-21369718.551635742,-20711685.180664062,-22183788.299560547,-30057786.94152832,-29859193.801879883,-24677982.330322266,-21035333.63342285,-22257724.76196289,-22880050.659179688,-22185247.42126465,-13377014.16015625,-14297418.594360352,-21441762.924194336,-22152090.072631836,-22895406.72302246
0.27,112344764.70947266,90374961.85302734,81615127.56347656,38175464.63012695,57599151.611328125,3423347.9499816895,18775922.775268555,17388225.555419922,20479448.318481445,25941303.253173828,42769145.96557617,49193950.65307617,50634040.83251953,49764209.74731445,-15327395.43914795,-9512845.993041992,6626855.373382568,13276795.387268066,17505798.33984375,20149847.03063965,27699094.772338867,48749580.38330078,28463926.315307617,-16193017.959594727,2326930.284500122,7888025.283813477,13700624.465942383,-264290.5116081238,14859017.372131348,18744316.10107422,23112773.895263672,28481168.746948242,-16748981.475830078,-9615064.62097168,-10753510.475158691,-561895.7281112671,-176672.51825332642,-4434164.524078369,-8640646.934509277,-22659248.35205078,-22373262.405395508,-16666311.264038086,-9978011.131286621,-10505261.421203613,-9420459.747314453,-808964.9081230164,-19001989.364624023,-21738182.067871094,-21058776.85546875,-22540159.225463867,-30500654.220581055,-30124929.428100586,-20932136.53564453,-20231657.028198242,-22770795.822143555,-23114509.58251953,-22655237.197875977,-12694902.420043945,-13471806.526184082,-20782146.453857422,-22495088.577270508,-23280956.268310547
0.275,96395606.9946289,77974647.52197266,73054573.05908203,28804288.864135742,52525539.39819336,-5631867.408752441,13593098.640441895,12600844.383239746,15392280.578613281,21855230.3314209,39492897.033691406,46656753.54003906,48188060.76049805,47250762.939453125,-20254341.12548828,-13882150.650024414,3425248.384475708,7729763.507843018,16040622.71118164,18342887.87841797,25176200.86669922,46683212.28027344,26840734.481811523,-21376911.163330078,-1831309.3185424805,4922631.740570068,10858496.66595459,-671791.9111251831,13880939.483642578,16617656.707763672,19983314.514160156,26767719.268798828,-21815748.21472168,-13335554.122924805,-12884808.540344238,-882837.4147415161,-660923.8982200623,-5486297.607421875,-10756078.720092773,-25399129.86755371,-24983848.571777344,-21601293.563842773,-11928689.002990723,-12409698.486328125,-9098678.588867188,-1139581.799507141,-21265630.7220459,-24213253.021240234,-23549303.05480957,-25072904.586791992,-30239831.924438477,-29674713.134765625,-19927137.37487793,-20790742.874145508,-25230588.912963867,-25579454.42199707,-25139997.482299805,-8774441.719055176,-9387749.671936035,-21232992.17224121,-25081497.192382812,-25647226.333618164
0.28,87072120.6665039,71138496.39892578,67941719.05517578,26557384.490966797,51768287.658691406,-8028658.866882324,13374397.277832031,12668179.512023926,14712594.985961914,22512479.782104492,41056991.57714844,46562808.990478516,48026813.50708008,46788398.74267578,-21992847.442626953,-17243463.51623535,2815478.563308716,3793282.2704315186,16508291.244506836,17652105.3314209,24685522.079467773,46106910.705566406,24902290.34423828,-23183244.705200195,-2976969.003677368,3399788.3796691895,9830158.233642578,-995160.1028442383,14108125.686645508,16756938.934326172,17524864.196777344,24842039.108276367,-23406673.431396484,-16792049.407958984,-16543930.053710938,-1252092.719078064,-874975.4428863525,-6208529.949188232,-11994353.294372559,-29556024.5513916,-28910383.224487305,-23136484.146118164,-15642873.764038086,-16004880.905151367,-10892705.917358398,-1432013.2732391357,-22691202.16369629,-27931949.615478516,-27288000.106811523,-28930124.282836914,-34238079.07104492,-33615394.592285156,-25463756.561279297,-24969701.766967773,-28861560.821533203,-29412094.116210938,-28826599.12109375,-8569273.948669434,-9213311.195373535,-25179527.282714844,-29000339.50805664,-29319541.931152344
0.285,79694465.63720703,68224105.83496094,66197212.21923828,26585819.244384766,52165985.107421875,-7392269.611358643,14162357.330322266,13449956.893920898,15540127.754211426,24489059.448242188,42830230.712890625,47539894.104003906,48737625.12207031,47416599.27368164,-21781383.514404297,-19447656.631469727,2181270.3609466553,2352574.586868286,17430652.618408203,18282077.78930664,25998462.677001953,47230079.650878906,25070182.80029297,-22784107.208251953,-3537383.794784546,1460991.1441802979,9872105.598449707,-992877.1257400513,15555147.171020508,19983724.59411621,19451452.255249023,25063013.076782227,-23020753.860473633,-18787322.998046875,-19897840.49987793,-1525707.0064544678,-826101.4819145203,-5373560.905456543,-9801782.608032227,-29195096.969604492,-28633478.16467285,-22731931.686401367,-19226608.276367188,-19549623.489379883,-13640870.094299316,-1609015.5839920044,-20382835.388183594,-27584045.41015625,-26839582.443237305,-28636909.48486328,-39730388.64135742,-39236667.63305664,-33582340.240478516,-28280157.0892334,-28405567.169189453,-29030754.08935547,-28429840.087890625,-12059937.477111816,-12900966.64428711,-28244161.60583496,-28708164.21508789,-28990888.595581055
0.29,67922637.93945312,61697395.32470703,59102024.07836914,23832550.048828125,47023262.02392578,-3838473.320007324,14452610.969543457,13618746.757507324,14984360.694885254,22579261.779785156,38314216.61376953,43601036.071777344,44510604.85839844,43401172.63793945,-18222991.943359375,-17266851.4251709,1267159.8196029663,2412600.517272949,15914441.108703613,17494409.561157227,24888109.20715332,45205318.450927734,25070655.822753906,-18997379.302978516,-3585328.8173675537,-588755.190372467,9650480.270385742,-815567.4934387207,15890835.762023926,22604682.92236328,23378120.42236328,25045015.335083008,-19454076.766967773,-16591156.005859375,-18990154.266357422,-1564405.083656311,-768550.5151748657,-3252905.84564209,-5000018.59664917,-21860292.434692383,-21625207.901000977,-19214183.807373047,-18490243.911743164,-18951227.18811035,-13600419.998168945,-1627647.9959487915,-14250350.952148438,-20812877.655029297,-19884248.733520508,-21716949.462890625,-39129646.30126953,-38857772.82714844,-35557525.634765625,-25305242.53845215,-21485656.73828125,-21968139.6484375,-21560426.712036133,-13649193.76373291,-14532703.399658203,-25137098.31237793,-21723215.103149414,-22114385.6048584
0.295,55314559.93652344,52072566.986083984,47329406.73828125,20109218.59741211,37910934.44824219,2227815.1512145996,15703418.731689453,14893822.66998291,14061614.990234375,17645341.873168945,29621318.817138672,35281204.22363281,36078208.923339844,35200820.92285156,-12631298.065185547,-11607915.878295898,1525806.5462112427,2695510.3874206543,12262060.165405273,14403115.272521973,20137170.791625977,38485198.974609375,22904972.076416016,-13272838.592529297,-2726315.73677063,-1357011.6758346558,8915613.174438477,-690169.4536209106,13914990.425109863,21257673.263549805,23881223.678588867,22777757.64465332,-13857230.186462402,-11664247.512817383,-14247774.124145508,-1351973.533630371,-777803.361415863,-1693746.6859817505,-1635056.972503662,-13262905.12084961,-13167701.721191406,-13773387.908935547,-13810021.40045166,-14410127.639770508,-9978001.594543457,-1433730.6022644043,-8300396.919250488,-12656587.600708008,-11685685.157775879,-13337336.540222168,-31420490.264892578,-31301109.313964844,-29138965.606689453,-18031438.82751465,-13213205.337524414,-13540665.626525879,-13327489.852905273,-11126976.96685791,-11744187.355041504,-18005479.81262207,-13289998.054504395,-13726787.567138672
0.3,49454360.96191406,46216644.287109375,40711315.1550293,19418859.481811523,32514083.862304688,6636726.379394531,17726190.5670166,17096950.53100586,15113168.716430664,15070487.022399902,24627317.428588867,29676036.834716797,30532526.01623535,29715990.06652832,-9373099.327087402,-8060143.47076416,3107434.5111846924,3124175.786972046,10063857.078552246,11834968.566894531,15502397.537231445,31340528.48815918,19978174.209594727,-9901762.962341309,-1886687.994003296,-886525.4521369934,8779285.430908203,-569374.0844726562,11531252.86102295,17111618.041992188,19467329.025268555,19782636.642456055,-10411826.133728027,-9130424.499511719,-11029644.966125488,-1013572.096824646,-678293.6453819275,-1879777.6699066162,-2323491.096496582,-10779620.170593262,-10499348.640441895,-10477976.79901123,-10669407.844543457,-11160224.914550781,-6749487.400054932,-1036728.9781570435,-6516162.872314453,-9976532.936096191,-9202434.539794922,-10532115.936279297,-24719024.658203125,-24603408.813476562,-22553136.825561523,-14056727.409362793,-10581212.043762207,-10887049.674987793,-10719278.335571289,-8469235.42022705,-8798293.113708496,-14391615.867614746,-10572066.307067871,-10941998.481750488
0.305,48872730.25512695,44310001.373291016,41201145.17211914,20368131.637573242,31974832.53479004,6723730.564117432,18056262.969970703,17592084.884643555,17541055.67932129,16359312.057495117,24915788.650512695,28851264.95361328,29739847.18322754,28880140.30456543,-9268523.216247559,-8294628.143310547,4564533.233642578,4440715.789794922,11039249.420166016,11899928.092956543,13637185.096740723,26729467.391967773,17819412.231445312,-9651159.286499023,-1542647.0041275024,-509467.30375289917,10053325.653076172,-319591.13478660583,10922307.968139648,13612426.7578125,13670449.256896973,17658161.163330078,-10079926.490783691,-10342174.530029297,-11954506.874084473,-704923.9277839661,-406890.72012901306,-2899559.97467041,-5177960.395812988,-14172301.292419434,-13718224.52545166,-10115346.908569336,-11719737.05291748,-11894650.45928955,-7132471.561431885,-606575.3102302551,-8284531.593322754,-12967794.418334961,-12440984.725952148,-13460577.964782715,-24355596.5423584,-24142171.85974121,-22663110.733032227,-15954165.4586792,-13727271.08001709,-14055171.012878418,-13869858.741760254,-8520198.822021484,-8848153.114318848,-16483396.530151367,-13754840.850830078,-14044946.670532227
0.31,43726909.63745117,37305679.32128906,37649196.62475586,17599285.125732422,28063003.540039062,5924049.377441406,15936488.151550293,15548934.936523438,18079738.61694336,16476764.678955078,23024845.123291016,25582775.115966797,26300186.157226562,25435615.53955078,-7779407.978057861,-6998162.746429443,4813740.7302856445,6462247.848510742,12066397.666931152,12194198.608398438,11849055.290222168,21567468.643188477,14371469.497680664,-8082420.349121094,-461259.3650817871,-930647.9096412659,11557958.602905273,-60294.33012008667,11178447.723388672,11712068.557739258,9537725.448608398,14259946.823120117,-8566569.328308105,-10460045.81451416,-12597616.195678711,-479257.196187973,-180816.4119720459,-3106923.5801696777,-6439118.385314941,-16277498.245239258,-15959891.319274902,-8404939.651489258,-12423813.819885254,-12391903.8772583,-8594904.899597168,-345533.4007740021,-9182370.18585205,-15206345.558166504,-14798802.375793457,-15594057.083129883,-24220645.904541016,-23899536.1328125,-23937463.760375977,-17037216.186523438,-15959245.681762695,-16243608.474731445,-16105731.964111328,-7733554.363250732,-8201954.8416137695,-17301225.662231445,-16085567.474365234,-16329814.910888672
0.315,29703613.28125,19920152.66418457,21682519.912719727,9625702.857971191,15438353.538513184,8369038.5818481445,13661412.239074707,13321906.089782715,14963685.035705566,10956520.080566406,13537421.226501465,14369861.602783203,14761767.387390137,13990828.514099121,-2213996.648788452,-609137.3562812805,4047099.5903015137,7653817.176818848,9354452.133178711,9139607.429504395,6677680.015563965,12526455.879211426,6560908.794403076,-2565739.154815674,2018810.0337982178,-1615507.6026916504,11169899.940490723,-23165.31352698803,9768322.944641113,9703862.190246582,6348919.39163208,6420719.146728516,-3119564.5332336426,-5860405.445098877,-8140391.3497924805,-277843.8627719879,-177988.61861228943,-2206228.017807007,-5175491.809844971,-12709703.44543457,-12690254.211425781,-2806727.170944214,-7913776.397705078,-7971620.082855225,-6585744.380950928,-265856.5044403076,-6327559.947967529,-12222155.570983887,-11883101.463317871,-12523790.35949707,-16306701.66015625,-15940858.840942383,-17239719.39086914,-10935312.271118164,-12659151.077270508,-12889285.08758545,-12834803.581237793,-2255241.870880127,-2670005.0830841064,-10731748.580932617,-12859086.036682129,-13056972.50366211
0.32,14845986.366271973,188703.2389640808,1003426.6710281372,1289795.994758606,662003.0403137207,11845065.116882324,13131654.739379883,12798938.751220703,10051435.470581055,2332539.0815734863,1574790.2393341064,1050141.3345336914,1208398.1037139893,611162.3644828796,3538789.0338897705,5857808.1130981445,2963902.235031128,6697487.831115723,3903015.613555908,3554787.6358032227,-12015.772052109241,2991769.313812256,-4012467.861175537,3120798.349380493,4202769.2794799805,-1775719.2850112915,8770108.222961426,-174518.00405979156,6576806.545257568,6962851.047515869,2643052.339553833,-4181452.2743225098,2656180.8586120605,-77133.08185338974,-1242456.1977386475,-78024.92380142212,-275194.9727535248,-1327016.5920257568,-3908134.698867798,-7302323.818206787,-7390215.3968811035,2922078.6094665527,-933896.3627815247,-1232794.8808670044,-1662315.4878616333,-232992.9620027542,-1757429.838180542,-7064612.38861084,-6846242.904663086,-7407022.476196289,-4670896.053314209,-4369193.077087402,-6015448.570251465,-1524766.206741333,-7066618.4425354,-7332511.901855469,-7278822.898864746,4424213.886260986,4205663.204193115,-1178580.9993743896,-7257671.83303833,-7420703.411102295
0.325,10337086.67755127,-8241156.578063965,-8853836.059570312,-2056816.577911377,-5410834.789276123,11265167.236328125,13536797.523498535,13024283.409118652,6271843.433380127,-3231400.0129699707,-3550012.3500823975,-3925431.489944458,-3699521.30317688,-4149058.3419799805,4732175.350189209,5437572.956085205,2091305.9711456299,3732368.230819702,56152.570992708206,-294768.63145828247,-3090571.880340576,-235770.8066701889,-10736878.395080566,4326775.550842285,4483303.070068359,-1141009.6883773804,6766725.540161133,-276272.38631248474,4220813.274383545,5301746.368408203,-276628.91149520874,-10792409.896850586,4072109.2224121094,1333545.0887680054,1454985.1417541504,-21170.26410996914,-286594.56968307495,-1483078.3605575562,-4728016.8533325195,-6240145.683288574,-6159275.054931641,4161417.007446289,1827041.506767273,1366659.164428711,1316937.804222107,-227871.70112133026,331476.5393733978,-5565326.690673828,-5389159.202575684,-6014794.34967041,-890226.423740387,-743515.1934623718,-2537908.3156585693,1997479.2003631592,-5329264.163970947,-5719066.619873047,-5542191.505432129,5945515.155792236,5716373.443603516,2078164.1006469727,-5437098.026275635,-5647103.786468506
0.33,18620876.31225586,-798591.9713973999,-1964802.7420043945,-189343.36304664612,-533991.0984039307,6893792.629241943,13227912.902832031,12285977.363586426,4107509.6130371094,-3790508.985519409,225014.790892601,1574443.3403015137,2139970.302581787,1616401.9107818604,2390248.5370635986,-969424.2477416992,1504675.8651733398,-335958.71925354004,-620962.5601768494,-569811.999797821,-952620.804309845,4448798.656463623,-8438602.447509766,1992906.093597412,3901499.2713928223,-156293.55609416962,6815442.085266113,-281261.29508018494,4425662.040710449,6427103.519439697,232105.0465106964,-8282601.356506348,1874397.1586227417,-1312018.9905166626,-1205848.9322662354,-282712.9364013672,-261174.2913722992,-2554859.399795532,-6381767.749786377,-9588126.182556152,-9287495.613098145,1836133.9569091797,-717025.9356498718,-1218587.1601104736,613852.5009155273,-362367.2425746918,-1214938.759803772,-8236924.171447754,-7886976.718902588,-8769579.887390137,-7132603.168487549,-7103952.407836914,-8754581.451416016,-2129023.313522339,-8063125.6103515625,-8624111.17553711,-8261948.585510254,3330100.7747650146,2830433.8455200195,-2262853.6224365234,-8098546.981811523,-8444378.852844238
0.335,33442516.326904297,14950052.261352539,14153076.171875,3315074.682235718,8649553.298950195,3471968.412399292,12056507.110595703,10623440.742492676,1925706.5057754517,-2636747.360229492,7272801.399230957,11101605.415344238,12054433.822631836,11132725.715637207,3218.483878299594,-6770299.911499023,734267.3540115356,-4777316.570281982,-642513.5731697083,618663.9666557312,3514842.987060547,12650146.484375,1446362.2570037842,-480001.86681747437,4106562.614440918,122924.75253343582,7544301.986694336,-352958.2619667053,6211313.724517822,9961693.76373291,4633223.533630371,1701894.1640853882,-660612.5235557556,-3743646.1448669434,-4335486.888885498,-793671.1311340332,-311720.69907188416,-3681888.8187408447,-6172224.521636963,-12031729.698181152,-11653814.315795898,-666256.9642066956,-3640336.036682129,-4138662.815093994,-437510.1625919342,-594426.4531135559,-3779185.2951049805,-10208574.295043945,-9642023.086547852,-10918617.248535156,-13604715.347290039,-13514126.777648926,-13032731.056213379,-6863641.262054443,-10254692.077636719,-11035751.342773438,-10511580.467224121,3722085.2375030518,3011229.7534942627,-6837307.453155518,-10335462.57019043,-10816605.567932129
0.34,47838298.79760742,28981761.932373047,29364757.537841797,5731816.291809082,16538944.244384766,2063254.1179656982,10794060.707092285,9090458.869934082,-854826.8675804138,-2338309.2880249023,13070734.977722168,19922607.421875,21096454.620361328,19657281.87561035,-3132738.8286590576,-9547629.356384277,-733632.2665214539,-8732494.354248047,-1676027.0595550537,1548702.359199524,8038999.557495117,20676914.21508789,12837661.743164062,-3679569.721221924,4112583.637237549,-1202505.5885314941,6918880.462646484,-487213.73081207275,7959243.297576904,14279757.499694824,10674247.741699219,12996568.67980957,-4066688.060760498,-5395874.500274658,-5408154.9644470215,-1231535.55393219,-326779.39534187317,-4188601.493835449,-3903360.366821289,-10885035.514831543,-10543045.997619629,-3886321.3062286377,-4544100.284576416,-4995414.733886719,359191.7157173157,-661764.8005485535,-5107628.82232666,-8673721.313476562,-8123339.653015137,-9804286.003112793,-14116746.90246582,-13806311.60736084,-8786239.624023438,-7517687.797546387,-8937118.530273438,-9934868.812561035,-9331329.345703125,8725500.106811523,8003682.1365356445,-7207683.086395264,-9189112.663269043,-9720870.018005371
0.345,58783771.51489258,37704532.623291016,40076988.220214844,7101864.814758301,23252252.57873535,-913859.2481613159,10034364.700317383,8365274.429321289,-2341656.20803833,-1324741.1251068115,18346082.68737793,28955226.89819336,30126098.6328125,28405620.574951172,-9588059.425354004,-12594451.904296875,-2222425.2223968506,-10738000.869750977,-1700206.8758010864,3315801.1436462402,13122885.704040527,28341403.96118164,21028387.06970215,-10026918.411254883,2012579.6794891357,-3451361.1793518066,5699479.103088379,-449441.73097610474,9330918.312072754,17839414.596557617,15629717.826843262,21057481.76574707,-10584490.776062012,-9341008.186340332,-7228295.32623291,-1383296.7281341553,-149697.36337661743,-4148207.187652588,-2347625.255584717,-9163072.58605957,-8860081.672668457,-10166535.377502441,-6396401.405334473,-6721092.700958252,632824.5997428894,-433303.6541938782,-5954355.716705322,-6421937.942504883,-6070922.374725342,-8043417.930603027,-14082766.53289795,-13587190.628051758,-4254864.692687988,-7307685.375213623,-6857561.111450195,-7920533.180236816,-7333638.1912231445,11641672.134399414,10859228.134155273,-6986551.284790039,-7257126.331329346,-7763142.5857543945
0.35,66180427.55126953,43358341.217041016,47993576.04980469,8680115.699768066,29963787.078857422,-6131671.905517578,10619463.920593262,9125158.309936523,-495046.34737968445,2668237.4477386475,24636857.986450195,38608417.51098633,39639736.17553711,37934173.583984375,-16676181.79321289,-17143295.288085938,-1880342.960357666,-9800706.86340332,1397369.2655563354,6836780.071258545,18710721.969604492,35054653.16772461,25606302.26135254,-16954730.987548828,-880457.2820663452,-4369153.4996032715,6440995.693206787,-192644.26827430725,10447308.540344238,19488361.358642578,18107501.983642578,25636835.0982666,-17490161.895751953,-15081449.508666992,-11327990.531921387,-1408994.436264038,64227.04458236694,-4314550.876617432,-3674028.6350250244,-10132958.41217041,-9850854.873657227,-16921722.412109375,-10727390.28930664,-10902678.489685059,-1676687.240600586,-145629.10795211792,-7893790.245056152,-6869530.200958252,-6624696.731567383,-8701098.442077637,-19189525.604248047,-18669988.63220215,-8067644.119262695,-9999629.974365234,-7460482.597351074,-8390202.522277832,-7868657.58895874,8506116.86706543,7443986.415863037,-9901426.315307617,-7809661.388397217,-8285479.545593262
0.355,70887290.95458984,48112655.63964844,54325386.04736328,10954968.452453613,35054363.25073242,-9076943.397521973,13521060.943603516,12160889.625549316,3997001.6479492188,8486479.759216309,30466922.760009766,45290023.80371094,46192302.70385742,44465518.951416016,-18196359.634399414,-19336584.091186523,1157995.8200454712,-6797424.31640625,6058407.306671143,10353637.6953125,22465620.040893555,38119689.94140625,28425882.33947754,-18528682.708740234,-876315.712928772,-2551034.688949585,9510912.895202637,-11266.500689089298,10881063.461303711,18985214.233398438,18341201.782226562,28526021.95739746,-18887849.807739258,-17412973.403930664,-14006782.531738281,-1576299.6673583984,22798.337042331696,-5418936.729431152,-6761568.546295166,-12622789.38293457,-12365712.16583252,-18319278.717041016,-13650422.096252441,-13758342.742919922,-4098538.875579834,-99790.84134101868,-10474074.363708496,-9054464.340209961,-8779996.871948242,-10785749.435424805,-25003232.955932617,-24530040.740966797,-15317884.44519043,-13405477.523803711,-9804378.509521484,-10593154.907226562,-10107230.186462402,4820368.766784668,3494398.1170654297,-13407948.49395752,-9927819.25201416,-10425536.155700684
0.36,73916114.8071289,51236911.77368164,58005458.83178711,13087849.617004395,36951782.2265625,-7572731.971740723,17951778.411865234,16670015.335083008,8010924.339294434,12764309.883117676,33794456.481933594,46757164.001464844,47661003.11279297,45631938.93432617,-13729097.366333008,-16911386.489868164,5078888.893127441,-4026938.9152526855,9059713.363647461,11839747.428894043,23205821.990966797,37110820.77026367,30771078.10974121,-14324155.807495117,2723950.8628845215,498008.131980896,12329081.535339355,-104268.55087280273,10546241.760253906,17850130.081176758,17886270.52307129,30846080.780029297,-14588215.827941895,-14145660.400390625,-12094214.43939209,-1826840.7583236694,-204461.57455444336,-7302051.544189453,-8842709.5413208,-13902873.039245605,-13631447.792053223,-14099599.838256836,-11794954.299926758,-11941576.957702637,-3549414.1578674316,-258801.54967308044,-12152523.040771484,-10112131.118774414,-9878400.802612305,-11778804.779052734,-24584865.57006836,-24082321.166992188,-16494363.784790039,-13973023.414611816,-11003533.363342285,-11840620.040893555,-11328513.145446777,6973286.151885986,5680908.203125,-13814190.864562988,-10964315.414428711,-11537101.745605469
0.365,75372108.45947266,51014526.3671875,57708049.77416992,13419305.801391602,36825927.734375,-6036769.866943359,20828346.252441406,19624259.94873047,8769361.49597168,13558749.198913574,34809268.951416016,45902542.11425781,46943996.42944336,44570060.72998047,-10242329.597473145,-13772930.145263672,6988601.207733154,-3275392.0555114746,9408471.10748291,11659544.944763184,22996128.08227539,35832820.892333984,32752544.403076172,-10997471.809387207,6183544.158935547,1918121.337890625,12882051.467895508,-256382.97200202942,10214483.261108398,18266645.431518555,18391622.54333496,32710983.276367188,-11409488.677978516,-9971437.454223633,-8454824.447631836,-1830854.2966842651,-229376.6587972641,-8866606.712341309,-8892832.75604248,-14268288.612365723,-13890689.849853516,-10979309.08203125,-7992473.125457764,-8246039.390563965,-1477495.551109314,-347228.080034256,-12700756.072998047,-10136323.928833008,-10034909.24835205,-11983467.102050781,-20180191.040039062,-19599185.943603516,-12579243.659973145,-13018682.479858398,-11085723.876953125,-12072213.172912598,-11515408.515930176,12314257.621765137,11273991.584777832,-12648114.204406738,-11125242.233276367,-11774093.627929688
0.37,73898651.12304688,46930358.88671875,53197620.3918457,10545105.934143066,35676776.88598633,-8550252.914428711,19754308.700561523,18572910.30883789,5762106.895446777,11054371.83380127,33982341.76635742,45577873.22998047,46770099.63989258,44408683.77685547,-12323163.986206055,-14380294.799804688,6136287.212371826,-4561229.705810547,8133626.937866211,10902045.249938965,23463325.50048828,36702175.14038086,33610614.77661133,-12970819.473266602,6456240.653991699,1061712.8610610962,12101061.820983887,-199760.16879081726,10037834.167480469,20182836.532592773,19480598.44970703,33511425.018310547,-13620973.587036133,-9802577.97241211,-7888466.358184814,-1472788.8107299805,53535.543382167816,-9246784.210205078,-8465552.33001709,-15954762.45880127,-15460825.92010498,-13220952.033996582,-7225735.664367676,-7642100.3341674805,-1432956.337928772,-260906.04066848755,-13088900.566101074,-11504838.943481445,-11394873.61907959,-13572620.391845703,-19541364.669799805,-18971912.384033203,-11757024.765014648,-13852913.856506348,-12385154.724121094,-13375100.135803223,-12816351.890563965,13376022.338867188,12526192.665100098,-13432439.804077148,-12617215.156555176,-13276391.02935791
0.375,68270057.67822266,39640636.4440918,44954967.4987793,4481110.572814941,31585437.774658203,-12247641.563415527,15910063.743591309,14580661.77368164,433378.30901145935,6059080.600738525,30048988.342285156,43517257.69042969,44752769.470214844,42715339.66064453,-15999975.204467773,-17101390.838623047,4479624.271392822,-6509066.581726074,5791193.008422852,9131050.109863281,22695266.723632812,36443084.716796875,32066761.016845703,-16508481.979370117,5086688.51852417,193484.76827144623,11904757.499694824,-48133.75324010849,8941229.820251465,20933290.481567383,18686880.111694336,32019886.016845703,-17186300.27770996,-12159940.719604492,-10319699.28741455,-1034032.4640274048,285647.2432613373,-8818043.70880127,-9370210.647583008,-19035722.732543945,-18590715.408325195,-16823867.797851562,-9650377.27355957,-10258067.13104248,-3463146.209716797,-147551.0597229004,-13727542.877197266,-14550121.307373047,-14245311.737060547,-16616798.400878906,-24068241.119384766,-23621637.34436035,-15762102.127075195,-15967004.776000977,-15315546.035766602,-16141923.904418945,-15629711.151123047,8639335.632324219,7818385.124206543,-15625111.57989502,-15567583.084106445,-16139190.673828125
0.38,59664646.14868164,30543525.69580078,34476661.682128906,-2976125.0019073486,23242914.1998291,-12423268.31817627,12362157.821655273,10751684.188842773,-5115660.667419434,-81102.95236110687,22812879.56237793,36872318.267822266,38071235.65673828,36207015.99121094,-15844133.377075195,-17531126.022338867,3751239.776611328,-7737072.944641113,2556140.899658203,6036847.5914001465,18753818.51196289,31285541.534423828,27670896.530151367,-16464887.619018555,4911130.905151367,1081385.612487793,12387633.323669434,-66569.52202320099,6738232.135772705,18887689.5904541,14724881.172180176,27678009.033203125,-16905630.111694336,-12806759.83428955,-12090067.863464355,-820035.1595878601,205616.01221561432,-8627023.696899414,-11419984.817504883,-21389028.549194336,-21187471.389770508,-16549802.780151367,-11617191.314697266,-12331068.03894043,-4582849.979400635,-115750.40221214294,-14317880.630493164,-17040706.634521484,-16650461.196899414,-18973764.419555664,-28110601.4251709,-27766162.872314453,-19049957.275390625,-16667022.705078125,-17815099.716186523,-18561614.990234375,-18087512.969970703,3480996.84715271,2618010.997772217,-16382286.071777344,-17849681.854248047,-18266473.7701416
0.385,51868240.35644531,22617444.99206543,25439765.93017578,-8895804.405212402,14494598.388671875,-10243380.546569824,10381829.261779785,8589278.221130371,-8971017.837524414,-4814697.265625,16028694.152832031,28996738.43383789,30199533.462524414,28145566.940307617,-13368260.383605957,-15745251.655578613,3376535.8924865723,-7979838.3712768555,-255065.4113292694,3554214.0007019043,14203116.416931152,24005250.930786133,22302560.806274414,-14250996.589660645,5527990.341186523,2433064.6991729736,12232797.622680664,-180335.55150032043,5404750.347137451,16136632.919311523,10068610.191345215,22295536.041259766,-14444989.204406738,-11608792.304992676,-11895177.841186523,-802798.9864349365,48488.3189201355,-8989111.90032959,-12754557.609558105,-21944595.336914062,-21962692.260742188,-14018889.427185059,-11562273.979187012,-12204950.332641602,-3588952.06451416,-87617.85179376602,-14773414.611816406,-17544282.913208008,-17366979.598999023,-19494272.232055664,-27955396.65222168,-27602828.979492188,-18660816.192626953,-15845128.059387207,-18483409.881591797,-19379941.940307617,-18880844.116210938,2524767.8756713867,1619094.1333770752,-15534125.328063965,-18302747.72644043,-18574254.989624023
0.39,49385265.3503418,20535518.646240234,23053022.384643555,-10495651.245117188,11960137.367248535,-10037877.082824707,9075160.026550293,7366094.11239624,-10013203.620910645,-5766274.929046631,14535109.519958496,26911668.77746582,28185022.354125977,25915258.407592773,-13715903.282165527,-15720737.45727539,2105441.093444824,-8128887.176513672,-1093865.3945922852,3817842.0066833496,13742313.385009766,21469539.642333984,19474388.122558594,-14668600.082397461,4801255.702972412,1961134.433746338,11024188.995361328,-66822.3723769188,6627455.234527588,16123678.207397461,8769364.356994629,19460611.34338379,-14820974.349975586,-11656053.54309082,-11557576.179504395,-768348.6342430115,153984.4423532486,-9183647.155761719,-11905338.287353516,-21460239.41040039,-21447452.545166016,-14330718.994140625,-11086027.145385742,-11576158.52355957,-2064315.7958984375,18550.45184493065,-15035709.381103516,-16718906.40258789,-16823143.005371094,-18906507.49206543,-25370437.622070312,-24948070.526123047,-16649478.912353516,-15036984.44366455,-17773998.260498047,-18881374.35913086,-18302894.592285156,5537427.90222168,4612490.177154541,-14667582.511901855,-17582267.76123047,-17806388.85498047
0.395,53679817.19970703,26230291.36657715,29242835.998535156,-7347338.676452637,17305328.369140625,-11991230.010986328,7753262.042999268,6275553.7033081055,-8763994.216918945,-3338628.5305023193,18555889.129638672,32095901.489257812,33413780.212402344,31261796.951293945,-17187149.047851562,-18714408.87451172,329677.551984787,-9041298.866271973,-297028.511762619,5880702.018737793,17772586.822509766,25507904.052734375,21010740.280151367,-17922294.61669922,3055956.6020965576,-147777.67658233643,9663863.182067871,304152.87613868713,9008299.827575684,19152114.868164062,11735663.414001465,21056783.67614746,-18166986.4654541,-13514816.284179688,-11986081.12335205,-656801.9390106201,454708.0993652344,-8625318.52722168,-9350976.943969727,-20527606.964111328,-20291399.002075195,-17741893.768310547,-11223312.377929688,-11673683.166503906,-1159803.2712936401,135149.7322320938,-14591615.676879883,-15433480.262756348,-15579800.605773926,-17876850.128173828,-23068252.563476562,-22577907.56225586,-14134258.270263672,-13760832.786560059,-16366600.036621094,-17517845.153808594,-16881631.85119629,9709338.188171387,8851917.266845703,-13382437.705993652,-16267759.323120117,-16595153.80859375
0.4,60068099.97558594,34254974.365234375,38737049.1027832,-3088456.392288208,24672178.268432617,-14044184.684753418,6313731.1935424805,4956195.35446167,-7572089.195251465,-520138.680934906,23458698.272705078,38443298.33984375,39742122.650146484,37873939.514160156,-19982862.47253418,-22262771.606445312,-968243.5393333435,-10475445.747375488,622351.1099815369,7069760.322570801,21811443.328857422,30747421.264648438,25317628.860473633,-20477725.982666016,2229009.3898773193,-1835279.5839309692,8667471.885681152,561928.9875030518,9775556.564331055,22089916.229248047,15756875.038146973,25406137.466430664,-20750415.802001953,-15120382.308959961,-12464152.336120605,-591184.7949028015,632566.511631012,-7706190.10925293,-7012337.207794189,-19206123.35205078,-18820888.51928711,-20478420.25756836,-11569246.292114258,-12130777.359008789,-653931.4985275269,138655.06649017334,-13455800.05645752,-14006869.316101074,-13984624.862670898,-16534292.221069336,-22446453.094482422,-21884727.478027344,-10984497.0703125,-11280231.475830078,-14720091.819763184,-15757065.773010254,-15148737.907409668,11857176.780700684,11158255.577087402,-10972652.435302734,-14599009.51385498,-15143306.732177734
0.405,60186416.62597656,35557762.145996094,42967861.17553711,-3242186.7847442627,27080465.31677246,-18569967.26989746,3702905.6549072266,2273387.4320983887,-8889487.266540527,364889.2045021057,25285905.838012695,40198936.462402344,41506759.64355469,39655685.42480469,-21692640.30456543,-25572038.650512695,-2680223.226547241,-11591114.044189453,1338170.5284118652,6957774.639129639,22557699.20349121,32147178.649902344,29555963.51623535,-22171964.645385742,1737065.076828003,-2675874.948501587,7442653.179168701,425613.1649017334,8723488.807678223,22537334.442138672,17497503.28063965,29586608.88671875,-22339197.158813477,-16428396.224975586,-13364733.695983887,-664488.4347915649,587712.1090888977,-7136931.896209717,-6122754.096984863,-18170396.80480957,-17840562.82043457,-22149242.401123047,-12553162.574768066,-13209148.406982422,-822944.164276123,-6851.230747997761,-12826728.820800781,-13077820.777893066,-12908520.698547363,-15530210.494995117,-24990829.467773438,-24365646.362304688,-10216590.881347656,-10038409.233093262,-13818135.261535645,-14737444.877624512,-14209074.020385742,9682631.492614746,9074296.951293945,-9809712.409973145,-13546455.383300781,-14291853.904724121
0.41,51321491.24145508,28550970.07751465,39454143.52416992,-8806151.390075684,23893819.80895996,-28065530.77697754,-571997.4040985107,-2118851.661682129,-12311606.407165527,-112107.17260837555,24422843.93310547,38124660.49194336,39519985.19897461,37374183.654785156,-25007331.84814453,-29919488.90686035,-6143031.120300293,-11987725.257873535,2561509.132385254,7337652.206420898,21325462.341308594,30458662.033081055,32230792.999267578,-25633245.46813965,-368605.94153404236,-4052742.0043945312,5831790.447235107,53356.27868771553,8177222.25189209,21450418.47229004,16816089.630126953,32190738.677978516,-25641178.131103516,-19005432.12890625,-15449545.860290527,-844628.632068634,468497.8723526001,-6977360.725402832,-5911053.657531738,-17904205.322265625,-17693946.838378906,-25434162.139892578,-14679883.95690918,-15272973.06060791,-2099997.7588653564,-228763.6548280716,-13359456.062316895,-12945735.931396484,-12729434.967041016,-15294317.245483398,-30159803.39050293,-29560798.64501953,-14599390.029907227,-12344886.779785156,-14032952.308654785,-14892152.786254883,-14389155.387878418,4793016.43371582,4080985.5461120605,-12082304.954528809,-13656201.362609863,-14468676.567077637
0.415,43339164.73388672,23756275.177001953,35607482.91015625,-12553289.413452148,20981597.900390625,-34201824.18823242,-2745269.775390625,-4357619.762420654,-13540759.086608887,595453.0835151672,23938615.798950195,36567932.12890625,38032676.696777344,35629615.783691406,-27693918.228149414,-32334285.736083984,-8892374.992370605,-11313106.536865234,4228803.1578063965,8781975.746154785,20852462.768554688,28930191.040039062,32716396.33178711,-28416532.516479492,-1805029.034614563,-5286145.6871032715,5420709.133148193,-196140.15519618988,9241558.074951172,21131078.720092773,15537240.982055664,32732292.17529297,-28324260.711669922,-20893623.35205078,-16671741.485595703,-1064076.30443573,371839.9405479431,-6883851.051330566,-4976823.806762695,-17402078.62854004,-17204200.744628906,-28126947.4029541,-15752588.272094727,-16197067.260742188,-3162586.450576782,-392494.70829963684,-13908778.190612793,-12481770.515441895,-12244636.535644531,-14803336.143493652,-32858455.657958984,-32411128.997802734,-19781286.239624023,-15276464.462280273,-13871238.708496094,-14711271.286010742,-14131067.276000977,2932405.948638916,2056890.4876708984,-14858266.830444336,-13530117.03491211,-14287115.097045898
0.42,50195285.79711914,32240322.11303711,40009220.123291016,-5673764.228820801,23709573.74572754,-22042800.903320312,3295732.259750366,1561890.959739685,-8059500.694274902,4380769.2527771,25943088.53149414,37073993.68286133,38499992.37060547,36015083.31298828,-21981517.791748047,-25365262.985229492,-5376690.38772583,-8388855.934143066,5727913.379669189,9904010.772705078,21345531.463623047,27789245.60546875,29470117.568969727,-22692907.333374023,3516016.721725464,-2733881.2351226807,8036963.46282959,-164940.6999349594,10331637.382507324,21864500.045776367,14150943.756103516,29623083.114624023,-22642976.760864258,-17067317.962646484,-13731661.796569824,-1287214.1599655151,283945.0538158417,-7069972.038269043,-3916392.3263549805,-16262210.845947266,-15989076.614379883,-22525325.775146484,-12681735.038757324,-13065617.561340332,-2359786.7488861084,-385941.89286231995,-13744716.64428711,-11267210.960388184,-11027752.876281738,-13651121.139526367,-28516223.907470703,-28239025.115966797,-18712781.90612793,-14156515.121459961,-12543570.518493652,-13456968.307495117,-12768877.029418945,7504338.264465332,6644875.049591064,-13618537.902832031,-12319819.450378418,-13008282.661437988
0.425,71876541.13769531,50205139.16015625,50576122.28393555,10562665.939331055,30531826.01928711,9588571.548461914,17633752.822875977,15626589.77508545,3028737.3065948486,10399676.322937012,29752563.4765625,36935188.29345703,38284008.02612305,35598411.560058594,-5824284.076690674,-7702462.196350098,5611986.6371154785,-2604308.3667755127,7311545.848846436,10003645.896911621,21065412.521362305,24494239.807128906,20860979.080200195,-6522266.864776611,16734609.603881836,4970095.634460449,12946611.404418945,24464.745074510574,9933223.724365234,21663850.784301758,11150883.674621582,21044616.69921875,-6670346.260070801,-7237105.369567871,-7788332.462310791,-1493385.0765228271,232081.26425743103,-8230268.478393555,-5215705.871582031,-17159664.154052734,-16826023.10180664,-6591092.586517334,-6887789.726257324,-7346059.799194336,-1106487.8702163696,-249360.17394065857,-14596978.187561035,-12012145.99609375,-11842107.772827148,-14485431.671142578,-20895545.959472656,-20668878.55529785,-13343892.097473145,-10600150.108337402,-12868268.013000488,-13994568.824768066,-13260197.639465332,13895394.325256348,13212850.570678711,-10117086.410522461,-12781977.653503418,-13446503.639221191
0.43,90312889.0991211,60977325.439453125,55334655.76171875,23565082.550048828,34060359.954833984,40802429.19921875,31112043.380737305,28855270.385742188,12273167.610168457,15029682.159423828,32247856.14013672,32777366.638183594,34096977.23388672,30893224.716186523,10837635.99395752,9865217.208862305,16827783.584594727,3719385.862350464,9224008.560180664,9779689.78881836,18881494.522094727,17660932.540893555,7927867.889404297,10098509.788513184,29698976.516723633,13054120.063781738,16795013.427734375,150623.57485294342,8690838.813781738,18896423.33984375,5419888.019561768,7976910.591125488,9699996.948242188,1348976.731300354,-4534317.0166015625,-1658598.780632019,240114.39085006714,-10354707.717895508,-9872994.422912598,-22821678.161621094,-22430799.48425293,9831796.646118164,-3989172.6970672607,-4533288.478851318,-2570366.144180298,-194395.16961574554,-18017789.840698242,-17488452.911376953,-17426610.946655273,-20017557.14416504,-18715570.4498291,-18418130.87463379,-13112307.54852295,-11156529.426574707,-18079305.64880371,-19420772.552490234,-18703668.59436035,14527009.010314941,13914366.722106934,-10839509.010314941,-18139699.935913086,-18778833.389282227
0.435,88963645.9350586,54445293.42651367,46559413.90991211,23202093.12438965,28934402.465820312,51959194.18334961,34892753.60107422,32696468.353271484,13276084.899902344,14729653.358459473,30170703.887939453,24153974.533081055,25410934.448242188,21679330.825805664,16716979.98046875,15627388.000488281,19857683.181762695,6609597.682952881,9957623.481750488,9033899.307250977,14794901.847839355,8657458.305358887,-5066251.754760742,15948464.393615723,33717948.91357422,15465325.355529785,17167066.57409668,72422.10954427719,7680629.253387451,14255294.799804688,-1749337.3155593872,-5162389.755249023,15387084.007263184,2443134.069442749,-6552224.636077881,-1739579.9160003662,204513.7733221054,-12259029.388427734,-15234146.118164062,-30457715.98815918,-29940622.329711914,15560639.381408691,-6260098.457336426,-6784134.864807129,-6357830.52444458,-364741.83201789856,-21592453.002929688,-24921630.859375,-24927494.049072266,-27486581.802368164,-23390352.249145508,-23017463.68408203,-19840404.510498047,-16906127.9296875,-25636512.756347656,-26976566.314697266,-26297658.920288086,9217762.94708252,8451590.538024902,-16694654.46472168,-25787567.138671875,-26366880.416870117
0.44,71908142.08984375,38729610.443115234,30403465.270996094,13817604.064941406,17871078.491210938,46556537.62817383,31372245.78857422,29528730.392456055,8223730.087280273,9875654.220581055,23402133.94165039,14034395.217895508,15077523.231506348,11252234.45892334,13348459.243774414,11659841.537475586,15494662.284851074,5241583.347320557,7818061.351776123,6396034.240722656,9346076.965332031,100677.32632160187,-13675484.657287598,12616789.817810059,30426729.202270508,12753245.35369873,15430951.118469238,-168939.4861459732,6426322.460174561,10038391.11328125,-7495407.581329346,-13785538.673400879,12005908.966064453,-766727.6263237,-8997558.59375,-1649757.981300354,51532.7975153923,-12759616.85180664,-17558782.57751465,-33305099.487304688,-32630390.167236328,12148866.653442383,-8696638.107299805,-9147350.311279297,-7914778.709411621,-610354.0062904358,-21138954.162597656,-27574726.104736328,-27606281.280517578,-30187458.038330078,-26146986.00769043,-25774858.474731445,-23244060.516357422,-20385511.39831543,-28531604.766845703,-29650615.692138672,-29051694.869995117,5695566.177368164,4777248.382568359,-20163860.321044922,-28614091.873168945,-29161348.342895508
0.445,56766689.30053711,28519819.259643555,19145896.911621094,7967795.372009277,8562919.616699219,43530242.919921875,30477098.46496582,28905195.236206055,5223165.512084961,4807491.779327393,15772755.62286377,6255630.016326904,7030840.873718262,3538234.9491119385,12223214.149475098,10400717.735290527,12496757.507324219,3436083.7936401367,4107399.9404907227,2255440.4735565186,3816339.9696350098,-6012256.622314453,-16904048.919677734,11553052.90222168,29061429.977416992,11385540.008544922,14833334.922790527,-364579.7073841095,4208760.738372803,7784195.423126221,-10280755.996704102,-16943996.42944336,10933315.27709961,-200490.25118350983,-6086152.55355835,-1325978.8751602173,-55776.484310626984,-12031422.61505127,-16407201.766967773,-29408887.86315918,-28664638.51928711,11052520.751953125,-5620286.94152832,-6093182.563781738,-4773871.421813965,-656224.6680259705,-16889902.114868164,-23624715.80505371,-23660047.53112793,-26230695.724487305,-20358270.6451416,-20030736.923217773,-16363849.639892578,-16056768.417358398,-24531368.255615234,-25451265.335083008,-25015260.696411133,8867151.260375977,8041769.981384277,-15783905.982971191,-24423402.786254883,-25027544.021606445
0.45,52149959.564208984,27102523.803710938,17071439.743041992,10287154.197692871,5234965.801239014,50692390.44189453,35886657.71484375,34244579.31518555,8109169.960021973,3089533.0905914307,11492031.09741211,2397598.5050201416,3075288.2957458496,-46205.57650923729,18549831.39038086,17197359.085083008,15778351.783752441,4798355.579376221,2353330.8506011963,-375939.63742256165,167461.1270427704,-9111944.198608398,-17430891.036987305,17906528.47290039,33519500.732421875,14744189.262390137,16226011.276245117,-323493.24226379395,2208045.00579834,6948747.634887695,-11389216.423034668,-17437402.725219727,17315023.42224121,5714090.347290039,443688.45224380493,-855712.4733924866,87523.23687076569,-11270010.948181152,-14999061.584472656,-25083160.400390625,-24397241.592407227,17457406.997680664,1054888.129234314,451978.6834716797,-511986.55366897583,-462913.6919975281,-14092258.45336914,-19576463.69934082,-19543426.513671875,-21995885.848999023,-11442847.25189209,-11108352.661132812,-7584314.346313477,-8974182.12890625,-20096843.719482422,-21017536.163330078,-20749008.178710938,14163747.787475586,13562721.252441406,-8652775.764465332,-19880746.841430664,-20570608.139038086
0.455,51294361.11450195,26875976.5625,18926561.35559082,13735542.297363281,5783390.045166016,57086189.27001953,40834178.92456055,38989940.64331055,12378893.852233887,4010540.008544922,11367046.356201172,1476343.9893722534,2251893.0435180664,-700298.0709075928,24511280.059814453,23724893.56994629,20514354.705810547,8035781.8603515625,3994489.6697998047,653459.6085548401,-322416.7227745056,-9694896.697998047,-18178695.678710938,23851110.458374023,37553199.768066406,18502113.342285156,17305521.01135254,-66098.96570444107,2476955.4138183594,6149167.537689209,-12846068.382263184,-18202136.993408203,23390409.469604492,9963692.665100098,3147423.267364502,-456417.11354255676,390307.9926967621,-11087363.243103027,-16067836.76147461,-26914422.9888916,-26357328.414916992,23512989.044189453,3799006.223678589,3137456.4170837402,-219723.1650352478,-245299.74162578583,-16206104.278564453,-21980705.26123047,-21796798.706054688,-24069654.46472168,-9842101.097106934,-9383379.936218262,-9704614.639282227,-8318064.6896362305,-22117778.778076172,-23169506.072998047,-22904361.724853516,14152585.983276367,13550596.237182617,-7919855.59463501,-22004281.997680664,-22692461.013793945
0.46,47291343.688964844,23974020.00427246,20346143.72253418,11960026.741027832,7100086.212158203,52061927.795410156,38908851.623535156,37117153.16772461,12532231.330871582,5033617.01965332,13549638.748168945,2431868.553161621,3290489.673614502,368146.27051353455,20964376.44958496,20945966.720581055,20003107.07092285,9190884.590148926,6808145.046234131,3776331.1862945557,1711561.5606307983,-8348980.903625488,-19327194.213867188,20241537.09411621,34420627.59399414,16950872.42126465,16261604.309082031,216746.9710111618,4869420.051574707,5178403.377532959,-14426344.871520996,-19357639.31274414,19952304.84008789,6738142.490386963,-1457626.3427734375,-265119.2247867584,571877.1815299988,-10924894.332885742,-18788902.282714844,-33168518.06640625,-32756687.16430664,19997652.053833008,-863681.4951896667,-1394849.0619659424,-4004472.255706787,-145173.3112335205,-20364358.90197754,-28683784.48486328,-28401508.331298828,-30560844.42138672,-17263107.299804688,-16595228.19519043,-21781106.94885254,-14915816.307067871,-28734937.66784668,-29895259.857177734,-29443145.751953125,8630736.351013184,7663044.9295043945,-14417498.588562012,-28809358.596801758,-29407533.645629883
0.465,43620140.075683594,22882246.017456055,22504774.09362793,8342748.641967773,9186319.351196289,40841556.549072266,33226329.803466797,31754032.135009766,9809723.854064941,5925071.716308594,16520360.946655273,5053610.801696777,5853549.003601074,2890969.2764282227,10700923.919677734,11983462.3336792,15268584.251403809,7404937.744140625,8120079.040527344,5639183.99810791,4073756.694793701,-5756919.384002686,-19512872.69592285,9865455.627441406,26750484.466552734,11147322.654724121,14429785.72845459,360885.97774505615,6510935.7833862305,4758817.195892334,-14320036.888122559,-19534568.786621094,9585234.642028809,-728033.0657958984,-8466662.406921387,-220475.74818134308,557013.0348205566,-10310031.89086914,-20507251.739501953,-36687686.920166016,-36386348.724365234,9666560.173034668,-7959383.487701416,-8321005.821228027,-7475476.7417907715,-96441.1273598671,-21571201.32446289,-32085521.697998047,-31886184.692382812,-34075805.6640625,-24898494.720458984,-24071155.548095703,-30302360.53466797,-20392601.013183594,-32306434.631347656,-33507144.927978516,-32895317.07763672,4594885.82611084,3167249.4411468506,-19825738.90686035,-32426860.809326172,-32972904.205322266
0.47,45401371.002197266,25965379.71496582,25618291.8548584,9257359.504699707,12102972.984313965,36041324.615478516,31098857.879638672,29831466.674804688,9357264.518737793,7974711.4181518555,19286489.486694336,7873868.465423584,8587241.172790527,5488856.792449951,5134727.478027344,7272158.145904541,12907320.022583008,5848556.5185546875,7774156.57043457,4935903.072357178,4582639.694213867,-3658802.5093078613,-18997682.571411133,4218759.059906006,23078531.26525879,7498520.374298096,14221003.532409668,310103.6846637726,5109155.654907227,4719831.466674805,-12532987.594604492,-19020824.432373047,3715668.4398651123,-4421704.292297363,-10794220.924377441,-198036.46206855774,497794.3003177643,-9881264.686584473,-20109725.952148438,-34242797.8515625,-33918804.16870117,4052814.483642578,-10317736.625671387,-10683141.708374023,-7677258.014678955,-44710.65476536751,-19209955.2154541,-29057846.069335938,-29052326.202392578,-31338964.462280273,-24647140.502929688,-23827953.338623047,-27174049.377441406,-18388793.9453125,-29469263.076782227,-30648956.298828125,-30120849.609375,7106748.104095459,5485056.8771362305,-17785619.735717773,-29434299.46899414,-30055828.094482422
0.475,48888130.18798828,27624462.127685547,25409227.37121582,13512175.559997559,12873068.809509277,40700988.76953125,33553215.02685547,32136531.829833984,11953392.028808594,10275833.129882812,20025032.04345703,8051206.588745117,8782922.744750977,5562333.583831787,9431046.485900879,10627063.751220703,15475935.935974121,6923637.866973877,7224433.898925781,3255039.2150878906,2891864.29977417,-3869759.0827941895,-19425554.275512695,8613011.360168457,26569023.13232422,9248627.662658691,15591867.446899414,65729.57336902618,2085143.3277130127,4139521.598815918,-11289480.209350586,-19423954.010009766,7862309.455871582,-1536990.1657104492,-7569688.79699707,-183477.20801830292,423311.91897392273,-10419873.237609863,-18550764.083862305,-29137205.123901367,-28625549.31640625,8512811.660766602,-7059134.483337402,-7530756.950378418,-6187043.190002441,-80569.14061307907,-16922746.658325195,-23556364.059448242,-23681785.583496094,-25939468.383789062,-18158943.17626953,-17464033.126831055,-18915220.260620117,-12185704.231262207,-24041166.305541992,-25105592.727661133,-24821556.091308594,13186193.466186523,11682533.264160156,-11539256.09588623,-23797609.329223633,-24564193.725585938
0.48,46509315.490722656,22768417.358398438,19974010.467529297,14005770.683288574,9165266.990661621,46162612.91503906,35032562.255859375,33325252.532958984,12808837.890625,9986984.252929688,17525135.040283203,5464690.685272217,6276329.040527344,3183125.2574920654,16167385.10131836,15641109.466552734,18476879.119873047,8902000.427246094,7177865.982055664,2722198.009490967,1190693.8552856445,-5159364.700317383,-20243955.612182617,15618780.136108398,31343734.741210938,12733546.257019043,16152677.536010742,-284936.5472793579,1260937.9291534424,3643577.0988464355,-11240810.39428711,-20149795.532226562,14822600.364685059,2745815.0386810303,-4396911.144256592,-220725.73006153107,199265.30122756958,-11313222.885131836,-16873735.427856445,-25316181.182861328,-24630701.065063477,15621454.238891602,-3844758.0337524414,-4274780.750274658,-6228844.165802002,-247172.63877391815,-17196216.583251953,-20017347.33581543,-20154872.89428711,-22175508.499145508,-13548985.481262207,-12921667.098999023,-16321115.493774414,-9399035.453796387,-20473499.298095703,-21355449.676513672,-21169061.6607666,15927745.819091797,14580677.98614502,-8747517.585754395,-20147628.784179688,-20989494.32373047
0.485,37796989.44091797,14470480.918884277,14453817.367553711,7797775.2685546875,3596508.026123047,43919063.568115234,31789060.592651367,29985534.66796875,8490111.351013184,6344698.905944824,13491884.231567383,4113831.9969177246,4977142.810821533,2252395.3914642334,15428686.141967773,15122132.301330566,17037878.036499023,8367518.424987793,6969883.918762207,3575637.8173828125,2013802.5283813477,-3618053.197860718,-18582408.905029297,15074414.253234863,30418144.22607422,12811634.063720703,14458209.991455078,-517136.8718147278,4098127.3651123047,5299639.2250061035,-9998405.456542969,-18410287.857055664,14404279.708862305,2438392.8775787354,-5777935.50491333,-257820.7552433014,-104577.70526409149,-11095919.609069824,-15281352.043151855,-23033636.09313965,-22421478.271484375,15184562.683105469,-5157681.465148926,-5417572.021484375,-8253968.238830566,-398413.12170028687,-18548149.10888672,-18425594.329833984,-18514913.55895996,-20291074.752807617,-15054829.597473145,-14383821.487426758,-20521642.684936523,-11856199.264526367,-18779466.62902832,-19571481.704711914,-19203636.169433594,13374615.669250488,11985364.91394043,-11329984.664916992,-18555606.842041016,-19313615.798950195
0.49,29590045.928955078,9071450.233459473,14141903.8772583,-273959.57708358765,710865.85521698,34475444.79370117,26125207.901000977,24438179.01611328,1534780.8599472046,1837284.4457626343,10889655.113220215,6630411.624908447,7545938.014984131,5081222.057342529,7587124.824523926,9460865.97442627,12049991.607666016,4576863.2888793945,5460736.274719238,3965090.9900665283,4702137.9470825195,1675190.4487609863,-14113280.296325684,7152123.45123291,24194456.100463867,9503364.562988281,11772248.268127441,-424811.39302253723,7302795.41015625,9004245.75805664,-6303639.4119262695,-14011644.36340332,6591896.057128906,-1678181.8866729736,-9397452.354431152,-169788.1519794464,-139633.23831558228,-9589615.821838379,-13970870.971679688,-21014560.69946289,-20682678.22265625,7311274.528503418,-8571245.193481445,-8864738.464355469,-9268346.786499023,-378680.34839630127,-18077772.14050293,-16777994.15588379,-16796747.2076416,-18599695.205688477,-18143568.03894043,-17460662.841796875,-23275289.53552246,-13886125.564575195,-16963109.970092773,-17877313.6138916,-17276473.999023438,11215632.438659668,9610416.412353516,-13556449.890136719,-16943056.106567383,-17485843.658447266
0.495,27732456.20727539,8390726.089477539,17024335.861206055,-3881525.754928589,1034098.744392395,25192770.00427246,22368431.091308594,20787033.081054688,-2979271.411895752,-1192893.2666778564,10051975.25024414,9663541.793823242,10687973.022460938,8149300.575256348,2378032.2074890137,4582103.252410889,8259645.462036133,148196.38431072235,2122111.5589141846,1925256.609916687,5422233.581542969,5670199.394226074,-11052860.260009766,1730667.8295135498,19346902.84729004,7388067.722320557,10357532.501220703,-58914.85884785652,6345269.680023193,11070311.546325684,-3277266.74079895,-11137375.831604004,1202400.0883102417,-3175585.985183716,-9092300.415039062,89316.39790534973,257410.10904312134,-8443842.887878418,-13564120.292663574,-19420465.46936035,-19266485.2142334,1827030.1818847656,-7957050.800323486,-8595964.431762695,-6243693.3517456055,-204786.85200214386,-15090118.408203125,-14915110.58807373,-14865527.153015137,-16924467.086791992,-15247599.601745605,-14682749.74822998,-18293262.481689453,-10231235.50415039,-14937045.097351074,-16079820.63293457,-15484831.809997559,15784515.380859375,13958628.65447998,-9958542.823791504,-15069082.260131836,-15395601.272583008
0.5,32083194.732666016,10283468.246459961,18047092.43774414,-1755014.0619277954,1605098.9627838135,22470487.594604492,22119358.06274414,20552801.13220215,-3142664.4325256348,-2796203.374862671,8968116.760253906,8597140.312194824,9727506.637573242,7023551.464080811,6202251.434326172,4578557.49130249,8435640.335083008,-1985003.7097930908,-1966512.2032165527,-2113106.7276000977,2239149.332046509,3773763.418197632,-12237568.855285645,5508788.585662842,20618286.1328125,9421109.199523926,11009432.792663574,314016.10374450684,1074880.1231384277,8763541.221618652,-4335712.432861328,-12422008.514404297,5038497.9248046875,1941975.5935668945,-2820683.240890503,424621.58203125,756283.6408615112,-9058802.604675293,-14249911.308288574,-18773311.614990234,-18525966.64428711,5475752.830505371,-1550676.1074066162,-2472456.932067871,36798.059940338135,22296.937182545662,-11781381.607055664,-13800269.12689209,-13762522.69744873,-15945374.488830566,-5523282.527923584,-5067111.015319824,-8460494.995117188,-2854440.689086914,-13778720.85571289,-15043887.1383667,-14667268.753051758,25464117.0501709,23526798.248291016,-2407901.7639160156,-13907875.061035156,-14158277.51159668
