time,Fp1,Fpz,Fp2,AF3,AF4,F7,F5,F3,F1,Fz,F2,F4,F6,F8,FT7,FC5,FC3,FC1,FCz,FC2,FC4,FC6,FT8,T7,C5,C3,C1,Cz,C2,C4,C6,T8,TP7,CP5,CP3,CP1,CPz,CP2,CP4,CP6,TP8,P7,P5,P3,P1,Pz,P2,P4,P6,P8,PO7,PO5,PO3,POz,PO4,PO6,PO8,CB1,O1,Oz,O2,CB2
0.0,7921284.6755981445,9196157.455444336,9739838.600158691,-322133.4218978882,6095605.373382568,835031.3901901245,2583848.476409912,2589432.47795105,2728005.1708221436,3423536.0622406006,3336843.0137634277,2911135.196685791,3007733.8218688965,3203433.2752227783,82368.47817897797,1005356.5502166748,1707016.2296295166,1533021.6884613037,1712393.879890442,1524379.4918060303,1720008.0156326294,2424416.0652160645,1011842.8468704224,-938798.725605011,9468.18571537733,-160231.18793964386,189126.05941295624,47251.34000182152,1139430.8805465698,508199.5129585266,403653.5322666168,864054.5010566711,-682294.1899299622,-428079.15806770325,-306371.45042419434,364759.1769695282,178437.78431415558,640536.904335022,501372.8737831116,515548.5272407532,761223.316192627,-1116358.0417633057,-241080.73115348816,507367.90895462036,753927.9460906982,23722.30961918831,631273.8060951233,749142.7659988403,537106.454372406,638962.8052711487,-595536.3512039185,-662139.8329734802,-66024.83987808228,-12977.411970496178,584299.0875244141,641290.4262542725,745934.0691566467,-1832099.199295044,52764.225751161575,199282.40776062012,473851.20391845703,417564.9881362915
0.005,7988268.3753967285,10205169.677734375,8745404.243469238,-3041118.860244751,11154499.053955078,4421752.9296875,8771155.35736084,8418776.512145996,9638135.91003418,10867622.375488281,10554383.277893066,3831851.2439727783,4673272.132873535,2810677.0515441895,2073826.0746002197,2658253.6697387695,6283535.957336426,8095777.51159668,7780362.606048584,7246947.765350342,4351280.212402344,1691850.5430221558,964603.066444397,-4766021.251678467,1240334.7492218018,2390384.9124908447,3565213.441848755,1040264.8448944092,3238427.4005889893,1257489.4428253174,446089.65516090393,276707.7386379242,-4471872.806549072,-2248641.2525177,860068.9768791199,475670.81451416016,2276213.4075164795,847411.4537239075,979753.7326812744,809858.1433296204,418960.0348472595,-7658235.0730896,-3943139.3146514893,-190149.84369277954,826537.6687049866,714366.9724464417,1027702.2123336792,998946.9647407532,-443039.4172668457,223863.33346366882,-3106372.117996216,-3285907.26852417,-1188529.9682617188,659967.839717865,910736.9184494019,525576.8895149231,1270721.9123840332,-4703989.028930664,1856181.6215515137,-2472255.229949951,850770.890712738,467878.90791893005
0.01,8350869.178771973,14809052.467346191,15323453.903198242,-4506342.41104126,16426984.786987305,-619971.2157249451,10177881.240844727,9820609.092712402,11688344.00177002,14785685.539245605,14256647.109985352,6706073.28414917,7913422.584533691,9540974.617004395,-2153832.197189331,774420.7382202148,6963381.767272949,10195660.591125488,10231809.616088867,9491399.765014648,6584898.948669434,4011856.5559387207,2484241.008758545,-9567125.32043457,-430961.10224723816,2579710.7219696045,4856837.749481201,1228227.4961471558,4753481.388092041,2848993.5398101807,1625434.5178604126,1407768.2495117188,-7529487.133026123,-3778764.009475708,1055343.0318832397,769078.0162811279,2983861.6847991943,1479897.379875183,2081297.6360321045,1866415.023803711,1622634.4108581543,-11075098.991394043,-5589803.218841553,-598606.9440841675,1732508.4209442139,956595.9572792053,1697597.2652435303,2128772.020339966,44539.958238601685,1095913.290977478,-4666870.594024658,-4934683.799743652,-2135484.6954345703,851138.710975647,1738139.3909454346,1313773.9896774292,2448088.4075164795,-7245637.893676758,2219372.9877471924,-2284533.5006713867,1596130.37109375,1107303.6193847656
0.015,9921667.098999023,22441749.572753906,27838624.954223633,-4649126.5296936035,22024309.158325195,-11304724.69329834,7608641.147613525,7500531.196594238,9540021.896362305,15893122.673034668,15158417.701721191,11664310.455322266,12898847.579956055,21171037.673950195,-10624203.6819458,-3548793.077468872,4268610.954284668,8226242.0654296875,9496240.615844727,8669400.215148926,8825124.740600586,9138688.087463379,5323107.2425842285,-14843955.039978027,-4164035.7971191406,395357.07235336304,3716079.2350769043,766305.5658340454,5737856.864929199,5309487.819671631,3988061.4280700684,4119369.5068359375,-9280604.362487793,-4836027.6222229,227858.61790180206,814676.4636039734,2486782.0739746094,2642267.4655914307,3843827.486038208,3687217.7124023438,4186878.204345703,-12336893.081665039,-5550523.75793457,-1031174.3021011353,2766122.579574585,794680.0589561462,2770351.4099121094,4113259.792327881,2002502.44140625,3180409.4314575195,-5404485.702514648,-5786688.327789307,-2272455.930709839,629597.0678329468,3167179.822921753,3038730.1445007324,4347532.749176025,-8212120.056152344,1824239.4924163818,1289255.7382583618,2868508.815765381,2532016.5157318115
0.02,12440402.98461914,28682647.705078125,37589878.08227539,-4301397.800445557,27038753.509521484,-17855281.829833984,5269084.453582764,5313367.84362793,7323348.9990234375,17141473.7701416,16233457.565307617,16728063.583374023,17969705.58166504,29052112.579345703,-16514850.616455078,-6406186.103820801,1805974.6026992798,6060888.290405273,8704940.795898438,7833056.926727295,11440255.165100098,13969971.656799316,7937922.954559326,-18780757.904052734,-6795865.535736084,-2165244.3408966064,1775216.817855835,449818.55154037476,6615141.39175415,7807189.94140625,6487709.045410156,6816113.471984863,-9907798.767089844,-5399899.005889893,-774910.6287956238,147269.8599100113,2006099.7009277344,4066311.836242676,5761073.589324951,5663341.999053955,6622586.727142334,-14218113.899230957,-5808284.282684326,-2032457.8285217285,2536164.0453338623,571047.6636886597,4141195.774078369,6177370.548248291,4233169.5556640625,5371322.154998779,-6031416.416168213,-6550010.681152344,-1555823.802947998,415877.64024734497,4866908.550262451,5012063.980102539,6418660.1638793945,-6705356.597900391,2363470.7927703857,6092617.034912109,4508000.373840332,4429439.067840576
0.025,13796180.725097656,30148181.915283203,39216541.2902832,-4070057.3921203613,29746664.04724121,-16641143.798828125,4953709.602355957,4976914.405822754,6957268.714904785,19147264.48059082,18160240.173339844,19635345.458984375,21003646.850585938,28768808.364868164,-17128860.473632812,-6164047.718048096,1618580.8181762695,5975148.2009887695,9362691.879272461,8491926.193237305,13746301.651000977,16072694.778442383,9474493.026733398,-19831199.645996094,-6851485.252380371,-3332433.7005615234,988410.0556373596,655284.8815917969,7516065.1206970215,9492317.199707031,8116234.77935791,8428896.9039917,-10138092.041015625,-5417872.905731201,-1027178.4067153931,-809470.2363014221,2124206.066131592,5400987.148284912,7393682.00302124,7365396.022796631,8040232.6583862305,-16360340.118408203,-7105341.911315918,-3393467.664718628,1043701.0526657104,460969.9249267578,5568895.8168029785,7756192.207336426,5855266.571044922,6979890.823364258,-6507691.860198975,-7031768.798828125,-1103082.0608139038,409182.3101043701,6450224.876403809,6701138.019561768,8085364.34173584,-3726944.4465637207,4063946.24710083,9321367.263793945,6192221.641540527,6279252.052307129
0.03,12878513.33618164,28272192.001342773,35913661.95678711,-3932665.5864715576,29689125.061035156,-12665709.495544434,5151253.223419189,5224797.248840332,7121669.292449951,20094944.00024414,19169450.759887695,20141876.220703125,21591497.42126465,24344058.990478516,-15526161.193847656,-4577785.015106201,2592079.8778533936,6812761.7835998535,10189876.556396484,9379660.606384277,14838324.546813965,16130836.486816406,10514587.40234375,-18137687.68310547,-5477908.134460449,-2932660.8180999756,1580484.2710494995,1006690.0253295898,8233680.725097656,10400011.06262207,8978370.666503906,9413129.806518555,-9995443.344116211,-4692136.287689209,-381863.20662498474,-1087725.7585525513,2362594.6044921875,6538213.729858398,8831350.326538086,8926168.441772461,9003131.866455078,-15669749.25994873,-8014871.597290039,-4025861.7401123047,-105531.63290023804,444142.7290439606,6901179.313659668,9023300.170898438,7106385.231018066,8329585.075378418,-5942115.306854248,-6247592.926025391,-1538533.9260101318,472798.9435195923,7837945.461273193,8167466.163635254,9340570.449829102,-1327672.839164734,5541201.591491699,9977123.260498047,7731079.578399658,7799123.287200928
0.035,11753097.534179688,27279792.78564453,34022243.49975586,-3767207.622528076,28807260.513305664,-10936559.677124023,4814722.061157227,5087814.3310546875,6807371.616363525,19465955.73425293,18698320.388793945,20192642.211914062,21524007.79724121,21932691.57409668,-14814867.973327637,-3680145.025253296,2993732.213973999,6802115.440368652,9989591.598510742,9192831.039428711,15139842.987060547,16626317.977905273,11799490.928649902,-15662789.344787598,-4212141.990661621,-1917004.942893982,1979236.8412017822,1016436.9344711304,8730242.729187012,11286846.160888672,9973697.662353516,10647014.617919922,-8845111.846923828,-3453880.3100585938,314541.16106033325,-551274.3592262268,2209584.951400757,7531428.813934326,10351177.215576172,10526087.760925293,10326597.213745117,-11764433.860778809,-7269989.967346191,-3328128.3378601074,148349.8066663742,505887.9256248474,8065588.95111084,10317403.793334961,8498132.705688477,9816969.871520996,-4229200.839996338,-4278563.499450684,-1855318.9039230347,444886.5354061127,9081361.770629883,9553538.32244873,10511020.66040039,-708198.4281539917,5639485.836029053,9165638.92364502,9017910.957336426,8957317.352294922
0.04,12817445.755004883,28824947.357177734,35340835.57128906,-3742139.5778656006,29188146.591186523,-11397250.175476074,4735552.3109436035,5054303.6460876465,6724209.785461426,18972909.927368164,18351497.650146484,21362894.05822754,22478624.34387207,22519708.63342285,-15256941.795349121,-3877558.2313537598,2624094.7246551514,6015408.515930176,9488317.489624023,8542181.968688965,15824445.724487305,18455354.690551758,12893044.471740723,-14919717.788696289,-3717892.1699523926,-1308284.1634750366,950205.0876617432,660279.8104286194,9176019.668579102,12325788.497924805,11237539.291381836,11875182.151794434,-7249743.938446045,-2875793.218612671,-1137.1970176696777,-234935.41777133942,1815791.7261123657,8197793.006896973,11615151.405334473,11698680.877685547,11589760.780334473,-8892862.319946289,-5898840.427398682,-2288925.6477355957,936955.5115699768,591972.2318649292,8783434.867858887,11285475.730895996,9612648.010253906,10892104.148864746,-2953192.949295044,-2985957.622528076,-1161141.276359558,301498.53229522705,9857479.095458984,10417609.214782715,11420683.860778809,-1877543.2109832764,4383515.83480835,8351762.771606445,9670164.108276367,9543780.326843262
0.045,15296902.656555176,30700983.04748535,37133853.912353516,-4061031.3415527344,30487863.540649414,-12403441.429138184,5288650.035858154,5278198.2421875,7250825.881958008,19624015.80810547,19076213.836669922,22735841.751098633,23740064.62097168,22463582.99255371,-16633256.912231445,-4853912.353515625,2226994.514465332,5503595.82901001,9669734.001159668,8494961.738586426,16709869.384765625,19663030.62438965,12592143.058776855,-16978502.27355957,-4389987.468719482,-1580685.1387023926,-741251.9454956055,237497.56813049316,9443838.119506836,12348178.86352539,11395483.016967773,11784652.709960938,-7300047.397613525,-4075297.3556518555,-1302174.687385559,-906960.1893424988,1557562.1128082275,8025114.059448242,11592525.482177734,11510110.855102539,11420384.407043457,-10813363.075256348,-5955116.271972656,-2443674.325942993,921515.703201294,526480.7343482971,8503398.895263672,10976089.477539062,9260450.36315918,10443231.582641602,-3757857.322692871,-4000718.116760254,-555894.3748474121,56140.84750413895,9444603.91998291,9917490.005493164,11175792.694091797,-4603663.444519043,2319169.521331787,7938783.168792725,9044084.548950195,9000796.3180542
0.05,17394395.82824707,31545009.61303711,38282459.2590332,-4577886.581420898,31418411.254882812,-13555929.183959961,5819087.028503418,5394767.284393311,7814012.52746582,20551809.310913086,20035949.70703125,22518367.767333984,23547695.15991211,19662733.07800293,-19123104.095458984,-6105740.070343018,2356807.231903076,5680047.512054443,10082063.674926758,8822648.048400879,16299932.479858398,18117448.806762695,10530929.565429688,-20325368.881225586,-6270333.766937256,-2400271.8925476074,-1310817.837715149,-23924.080654978752,9127274.513244629,10205918.312072754,9210132.598876953,9707406.044006348,-9851499.557495117,-6377021.312713623,-2182476.758956909,-1862129.807472229,1488200.5453109741,6734782.2189331055,9738196.37298584,9659931.182861328,9286542.892456055,-15850545.883178711,-7694436.550140381,-3823843.240737915,314388.9307975769,262829.39314842224,6959728.240966797,8987788.200378418,6990238.189697266,8205647.4685668945,-6182307.243347168,-6566846.84753418,-1641417.384147644,-248399.94311332703,7536533.355712891,7820321.083068848,9223999.977111816,-8500185.9664917,-49522.11678028107,7491204.261779785,6990171.909332275,7049787.521362305
0.055,20143018.72253418,33706562.04223633,41301799.77416992,-4787822.246551514,32718887.329101562,-13779001.235961914,6570645.332336426,6108061.790466309,8598684.310913086,21260158.53881836,20782388.68713379,21245416.64123535,22301773.071289062,16723302.841186523,-21120780.94482422,-6434494.0185546875,3230422.4967956543,6384496.688842773,9940718.650817871,8842992.782592773,14368620.872497559,14790688.514709473,7921014.785766602,-22050338.745117188,-8181963.920593262,-2877389.907836914,-307451.12895965576,-68266.63762331009,8242004.39453125,6882450.103759766,5847733.974456787,6818133.83102417,-12686987.87689209,-7668221.473693848,-1567669.6300506592,-1886210.322380066,1453958.8689804077,4864301.2046813965,7112704.277038574,7222687.721252441,6490147.590637207,-19208705.90209961,-9355720.520019531,-4937758.445739746,289159.05952453613,72935.22357940674,4789432.525634766,6303804.397583008,4077394.485473633,5426841.259002686,-8152062.41607666,-8435873.985290527,-3843122.959136963,-445627.0635128021,4984485.626220703,5160382.270812988,6446743.965148926,-12240069.389343262,-2103050.708770752,6504447.937011719,4468614.101409912,4443820.476531982
0.06,24767040.252685547,38382900.23803711,46566455.84106445,-4184660.9115600586,35514255.52368164,-11336725.234985352,8252695.083618164,8104123.115539551,10099871.635437012,22184484.481811523,21760732.650756836,21215866.088867188,22199096.6796875,17305892.944335938,-19976131.439208984,-5060585.975646973,4347126.007080078,7218104.362487793,9492377.281188965,8718755.722045898,12720246.315002441,12891180.038452148,6425938.606262207,-20660039.9017334,-8633660.316467285,-2640749.931335449,676800.787448883,54951.39956474304,7251360.893249512,5065894.12689209,4228223.80065918,5152060.985565186,-13095989.227294922,-7163300.99105835,-552635.3716850281,-1149997.353553772,1358667.1352386475,3456042.2897338867,5609756.4697265625,5802288.53225708,4956045.150756836,-18898288.72680664,-9692504.8828125,-4975733.757019043,805481.5530776978,186946.94340229034,3216215.133666992,4574576.854705811,2525622.606277466,3834189.6533966064,-8494199.752807617,-8580018.043518066,-4985726.356506348,-373998.9995956421,3284432.4111938477,3545278.549194336,4594745.635986328,-13750017.166137695,-3197325.2296447754,4667687.892913818,2934471.1303710938,2645321.1307525635
0.065,26975099.563598633,40133872.985839844,47908283.23364258,-2761117.2199249268,36816772.4609375,-7938168.525695801,8993869.78149414,9051174.16381836,10380325.317382812,21903278.350830078,21568702.697753906,22233160.0189209,23051412.58239746,20631832.122802734,-16348306.655883789,-3691980.8387756348,3946662.425994873,6983282.566070557,8917912.483215332,8526131.629943848,12260570.526123047,13443350.791931152,6367675.78125,-17574329.376220703,-7976238.250732422,-2600089.3115997314,-183254.00352478027,191037.1035337448,6089951.515197754,5900985.7177734375,5451318.264007568,5366996.288299561,-11356125.831604004,-6731271.266937256,-1427674.0550994873,-1121328.2346725464,1112155.9143066406,3007195.234298706,5773864.269256592,5773166.656494141,5126933.574676514,-16973155.975341797,-9314137.45880127,-4892366.409301758,517325.758934021,382641.88170433044,2860030.174255371,4433327.674865723,2978180.6468963623,3927263.021469116,-7854138.8511657715,-7838036.060333252,-4300980.567932129,-124571.17438316345,3100884.9143981934,3589668.035507202,4419363.975524902,-11725964.546203613,-3113695.6214904785,2108061.3136291504,2911096.3344573975,2434575.319290161
0.07,20002614.974975586,31715049.743652344,38672191.61987305,-1229600.191116333,31108203.887939453,-8562170.028686523,5307738.304138184,5264031.887054443,6212544.4412231445,17157951.35498047,16987262.725830078,20666326.52282715,21261440.27709961,21809583.66394043,-14392423.629760742,-5108969.211578369,678376.8534660339,4354207.515716553,7236616.611480713,7212933.540344238,11148490.905761719,13590636.253356934,6391735.076904297,-15298768.043518066,-7980598.449707031,-3765644.7887420654,-2718986.749649048,164828.53889465332,3991747.3793029785,7226028.919219971,7071840.763092041,5963703.155517578,-9687568.664550781,-8205276.4892578125,-4433198.45199585,-2318619.728088379,643626.868724823,2924424.886703491,6025365.352630615,5782417.774200439,5524072.170257568,-15451461.791992188,-8991782.188415527,-5575629.234313965,-899804.0556907654,275679.91614341736,3033909.320831299,4807273.387908936,3998623.1327056885,4495240.688323975,-6985914.23034668,-6949172.9736328125,-3094345.0927734375,28334.882110357285,3534428.834915161,4215782.642364502,4815629.959106445,-6981641.2925720215,-2068537.4736785889,-322237.87903785706,3412986.7553710938,3010093.6889648438
0.075,5893175.12512207,15869492.530822754,22724802.017211914,-539580.225944519,19114397.048950195,-14325243.949890137,-1832619.309425354,-1960123.6581802368,-1111628.0555725098,8515173.91204834,8536458.015441895,15085876.46484375,15434612.274169922,18564586.639404297,-15906150.817871094,-8793121.337890625,-3411419.153213501,446120.88799476624,4242061.138153076,4422214.031219482,7981895.923614502,10896740.913391113,5283154.010772705,-14577724.45678711,-8837271.690368652,-5256585.121154785,-4667414.18838501,9922.640398144722,1090378.999710083,6390294.075012207,6281033.992767334,5252458.095550537,-8567364.692687988,-10298974.990844727,-6726608.2763671875,-3164659.023284912,167172.6405620575,2358223.4382629395,4767924.785614014,4521797.180175781,4722170.829772949,-13869855.880737305,-8077758.7890625,-6059384.822845459,-1764350.6526947021,-58318.41379404068,2645106.315612793,4320837.97454834,3855646.3718414307,4114880.084991455,-5530178.546905518,-5470045.08972168,-2455704.4506073,-10495.638474822044,3268039.2265319824,3957100.1529693604,4331901.550292969,-2295196.533203125,-387134.8798274994,-1541841.745376587,3146730.899810791,2948629.856109619
0.08,-1952309.012413025,7074828.624725342,14667258.262634277,-976544.0821647644,11239668.846130371,-19249214.17236328,-5276869.773864746,-5185345.649719238,-4407310.009002686,3323131.322860718,3396512.508392334,10628985.404968262,10829388.618469238,15529351.234436035,-17625387.19177246,-10507717.13256836,-3719039.6785736084,-803741.0378456116,2526756.763458252,2578369.8558807373,5447556.972503662,7864341.735839844,3855389.11819458,-14364143.371582031,-8596307.754516602,-4828598.976135254,-3974179.267883301,-15876.79423391819,-553639.4715309143,4116786.479949951,3941969.394683838,3774346.8284606934,-6687768.936157227,-10172628.402709961,-5767058.849334717,-2001409.5306396484,131258.56220722198,1513573.6465454102,2833048.105239868,2746151.4472961426,3373682.0220947266,-11635428.428649902,-5900774.955749512,-4946876.049041748,-612238.347530365,-141456.57420158386,1770170.5694198608,3224564.31388855,2772074.4609832764,3023342.3709869385,-3301799.0589141846,-3272266.8647766113,-2134311.4376068115,-49661.35695576668,2343143.2247161865,2926098.346710205,3240365.982055664,-635542.1543121338,1437912.3449325562,-1325162.2915267944,2187168.836593628,2071420.9079742432
0.085,6777015.686035156,16531129.837036133,24905397.415161133,-1901840.8060073853,17060377.12097168,-18036725.997924805,147942.73674488068,545208.6329460144,1293203.592300415,8420279.502868652,8305509.567260742,13739147.186279297,14063838.958740234,18856241.22619629,-16919195.1751709,-8056192.398071289,1229829.9074172974,2968513.7271881104,4907016.277313232,4573812.961578369,7596529.483795166,9257472.038269043,4184141.159057617,-14508944.511413574,-6699431.419372559,-2114177.942276001,-1192696.9289779663,223294.4816350937,1040560.0070953369,3596625.804901123,3428250.312805176,3763937.7117156982,-4597693.44329834,-7902850.151062012,-2910485.26763916,351866.2750720978,673219.0251350403,1589602.5896072388,2675400.0186920166,2622411.4894866943,3473693.370819092,-10381752.014160156,-3886296.510696411,-3042852.6401519775,1632149.9347686768,206060.0370168686,1724139.8096084595,3189317.9416656494,2613487.720489502,2906477.928161621,-1687815.1893615723,-1805322.1702575684,-2030670.8812713623,74625.1791715622,2164922.9526519775,2776475.667953491,3244587.8982543945,-2837312.936782837,2531468.391418457,-431009.1733932495,1921900.3915786743,1716793.2987213135
0.09,25050071.716308594,37463783.264160156,46277091.97998047,-2535924.196243286,32509841.918945312,-14181061.744689941,9716752.052307129,10146683.692932129,11116150.856018066,20517425.537109375,20118585.58654785,22992315.2923584,23715223.31237793,27319120.407104492,-16850383.758544922,-5133554.935455322,6663479.328155518,8664523.124694824,9967686.653137207,9321658.13446045,13663495.063781738,15150883.674621582,6741448.879241943,-16689558.029174805,-5935770.511627197,34667.68562793732,884134.05418396,517665.0285720825,4902979.850769043,5797364.234924316,5649532.794952393,6010246.276855469,-5328706.741333008,-7077782.154083252,-1956177.3538589478,1335273.7426757812,1351772.0699310303,3129095.5543518066,5059026.718139648,4879745.4833984375,5561164.855957031,-12123517.036437988,-4568353.652954102,-2863747.1199035645,2805281.162261963,585096.5976715088,3228273.630142212,4927727.222442627,4215596.1990356445,4572077.27432251,-2499825.4776000977,-2734970.5696105957,-3082476.6159057617,251317.3222541809,3502719.8791503906,4372008.800506592,4979450.702667236,-6998821.258544922,1911821.6037750244,315692.36516952515,3113025.903701782,2795802.354812622
0.095,35591587.06665039,51509445.19042969,60903842.92602539,-2775803.327560425,43380870.8190918,-15327490.80657959,13683756.828308105,13934539.794921875,15321295.738220215,28730892.181396484,28206504.821777344,29739257.8125,30856847.763061523,33000961.303710938,-21520505.905151367,-6507925.033569336,6898500.442504883,10892837.524414062,13029013.633728027,12325313.568115234,18112415.313720703,20080127.716064453,9356524.467468262,-21593435.287475586,-8683391.571044922,-961420.4168319702,446531.38518333435,595915.1387214661,7821821.689605713,7989326.953887939,7703936.576843262,8472225.189208984,-10001602.172851562,-9870135.307312012,-4142481.803894043,17859.5632314682,1650053.2627105713,4968594.074249268,7836081.027984619,7601641.1781311035,7705317.974090576,-16135723.114013672,-8260104.179382324,-5198077.201843262,2281831.741333008,566734.9696159363,5127333.641052246,6909829.139709473,6025196.552276611,6580141.067504883,-5712547.302246094,-5851697.4449157715,-5693204.879760742,271018.02825927734,5200332.6416015625,6322445.392608643,6828389.1677856445,-10722623.825073242,-880587.8758430481,473630.9349536896,4642446.994781494,4275335.311889648
0.1,31876163.482666016,50128456.115722656,60768573.76098633,-3021781.4445495605,42522602.08129883,-22068828.582763672,9615709.30480957,9825997.352600098,11490303.039550781,27664087.295532227,27246742.248535156,29158645.629882812,30379373.55041504,31959403.99169922,-28605010.986328125,-10920779.22821045,2803606.2717437744,8826698.303222656,12217694.282531738,11525321.006774902,17937414.169311523,20402660.369873047,10009817.123413086,-26537851.333618164,-12657999.992370605,-3535972.5952148438,-1037889.5998001099,509314.9542808533,8289115.905761719,7895535.469055176,7345427.0362854,9045266.151428223,-15080982.208251953,-13490909.576416016,-6422091.484069824,-1571679.1152954102,1567773.699760437,5614823.341369629,8791471.481323242,8659737.586975098,8096938.133239746,-19412158.966064453,-11989842.414855957,-7634080.88684082,1458944.9167251587,239332.00538158417,5804627.418518066,7397332.668304443,6284408.5693359375,7115255.355834961,-9188734.05456543,-9134425.163269043,-8380439.758300781,124207.71270990372,5717111.110687256,6849579.811096191,7132870.674133301,-13477803.230285645,-5243229.866027832,-134771.6599702835,4989362.2398376465,4592322.826385498
0.105,24951667.78564453,43654922.48535156,56002140.045166016,-3445242.404937744,37857677.4597168,-27107913.970947266,4904083.728790283,5282060.146331787,6961802.959442139,23363739.013671875,23128894.805908203,26373582.83996582,27466840.744018555,29830902.099609375,-31690286.63635254,-12636469.841003418,522313.4160041809,6931513.786315918,10795052.528381348,9973245.620727539,16651052.474975586,19397827.1484375,9864418.983459473,-28082796.096801758,-13378820.419311523,-3824125.051498413,-792246.9973564148,518629.0144920349,8213821.4111328125,7190499.782562256,6463759.899139404,8788029.670715332,-16297973.6328125,-13591447.830200195,-5550628.185272217,-1169683.6948394775,1481556.5347671509,5447515.487670898,8659053.802490234,8611730.575561523,7844795.703887939,-20078220.36743164,-12569848.06060791,-7424429.893493652,1682634.2344284058,14379.268512129784,5603903.770446777,7202261.924743652,5831920.623779297,6792936.325073242,-10624891.28112793,-10599310.874938965,-9100403.785705566,-12909.007258713245,5555130.0048828125,6611454.010009766,6885806.083679199,-15703848.838806152,-9298121.452331543,-883739.0542030334,4649034.9769592285,4247096.538543701
0.11,26809303.283691406,45743236.54174805,59488658.9050293,-3805866.479873657,39913623.80981445,-26162382.125854492,5725173.9501953125,6194591.999053955,7873691.082000732,23644041.061401367,23496437.072753906,28402791.97692871,29477888.107299805,33344451.904296875,-29708812.713623047,-9934677.124023438,2646612.8826141357,8158299.446105957,11923455.238342285,10975004.196166992,18662212.371826172,22214004.516601562,11823036.193847656,-26736900.329589844,-10567584.037780762,-1278692.0070648193,1272283.0772399902,687204.8377990723,9786994.934082031,8837004.661560059,8091980.934143066,10604592.323303223,-14129542.350769043,-10251697.540283203,-2491250.514984131,670325.8752822876,1589217.185974121,6427200.794219971,9899611.473083496,9814438.819885254,9653045.654296875,-19180753.707885742,-10152659.41619873,-4938118.934631348,2797290.325164795,91427.97440290451,6592370.986938477,8855373.38256836,7199945.449829102,8108833.312988281,-9417506.217956543,-9697143.5546875,-7479892.253875732,-7999.4043335318565,6844126.224517822,8083778.381347656,8666090.01159668,-16343713.760375977,-10657158.851623535,34707.728773355484,5802638.053894043,5500455.379486084
0.115,34272468.56689453,54873123.16894531,69041572.57080078,-3901227.7126312256,46896217.346191406,-24039287.567138672,8697411.53717041,9027328.491210938,10874121.66595459,27099946.975708008,26898187.6373291,33729896.545410156,35051151.275634766,39903160.095214844,-28889123.916625977,-7926345.8251953125,4625313.758850098,9771801.948547363,13876878.73840332,13066709.518432617,22474407.196044922,27922288.89465332,16046672.821044922,-26872440.338134766,-9040948.867797852,113542.86968708038,2185372.3526000977,822366.8336868286,12142967.224121094,12237202.644348145,11459309.577941895,14730263.710021973,-13233877.182006836,-8234905.242919922,-1250084.0425491333,1424754.8580169678,1752754.807472229,9195151.329040527,12857036.590576172,12749362.94555664,13688246.726989746,-19223518.37158203,-8057685.852050781,-3200859.0698242188,3836291.551589966,303032.87506103516,9471444.129943848,12721466.064453125,10777232.17010498,11670242.309570312,-7085774.4216918945,-7609598.636627197,-5169431.209564209,105355.32236099243,10115242.958068848,11756984.71069336,12706327.438354492,-13901880.264282227,-8694066.047668457,3646572.8282928467,9077115.058898926,8934783.935546875
0.12,35444515.228271484,58017215.728759766,71639915.4663086,-3812470.9129333496,48381614.685058594,-27060733.795166016,7013950.824737549,7188945.293426514,9215589.52331543,26566099.166870117,26197589.874267578,34802444.45800781,36380367.279052734,40926143.646240234,-33789321.89941406,-11290556.907653809,1750350.1176834106,8055075.645446777,13082703.590393066,12564051.628112793,23020591.735839844,30415000.915527344,18828445.434570312,-31239887.237548828,-12322733.879089355,-2764452.2190093994,63373.51351976395,798752.3674964905,12766602.516174316,13636006.355285645,12678879.737854004,17524921.417236328,-16749649.047851562,-11016660.690307617,-3883979.558944702,27605.218812823296,1802512.0496749878,11577574.729919434,14849347.114562988,14838589.668273926,16481742.858886719,-21742309.5703125,-9152497.291564941,-4336716.651916504,4198780.536651611,388586.5807533264,11948469.161987305,15571458.81652832,13480402.946472168,14495232.582092285,-6255556.583404541,-6683858.871459961,-4288013.935089111,189918.48826408386,12772891.998291016,14556459.426879883,15652372.360229492,-10322633.743286133,-6171440.601348877,7564046.859741211,11856313.705444336,11735550.880432129
0.125,27660232.543945312,49971275.329589844,62807281.494140625,-3681465.6257629395,41168571.47216797,-33578674.31640625,1115490.198135376,1346868.395805359,3386125.087738037,20855724.334716797,20275352.478027344,29286003.11279297,30826328.27758789,34226100.92163086,-40645797.72949219,-17492805.48095703,-3694347.858428955,4458897.590637207,10025774.002075195,9565073.013305664,19313467.025756836,26744829.177856445,17040027.618408203,-37249641.41845703,-17862039.56604004,-7689524.173736572,-3066828.0124664307,698205.8882713318,11316777.229309082,11220668.79272461,10055770.874023438,15863313.674926758,-22849626.541137695,-16494606.018066406,-8211972.236633301,-1910244.8225021362,1736712.098121643,11075083.73260498,13622043.60961914,13689219.47479248,14995067.596435547,-26053867.34008789,-12835640.907287598,-7406093.120574951,3842879.295349121,250878.4830570221,11364140.510559082,14303639.41192627,12332935.333251953,13417363.166809082,-8433031.08215332,-8580739.974975586,-5645255.565643311,111523.15139770508,11990730.285644531,13369585.037231445,14404645.919799805,-10402230.262756348,-6853699.684143066,7622100.830078125,11149231.910705566,10836786.270141602
0.13,20791807.174682617,40593551.63574219,53248416.900634766,-3539026.2603759766,33969314.57519531,-36342185.974121094,-1952882.6475143433,-1565015.7928466797,440147.4893093109,16948656.08215332,16234998.70300293,23458368.3013916,24750888.82446289,27404331.20727539,-42516819.00024414,-20113765.716552734,-5584938.049316406,3766255.8555603027,8824117.660522461,8118288.993835449,15878091.812133789,20953891.75415039,12373816.49017334,-40013370.513916016,-20371904.373168945,-9933954.238891602,-3884828.567504883,602621.4361190796,10082162.857055664,7510255.813598633,6290717.124938965,11356019.973754883,-27075044.631958008,-19723699.56970215,-10652958.869934082,-2420177.936553955,1632632.2555541992,8221783.638000488,10393444.061279297,10360507.96508789,10637210.845947266,-29662519.454956055,-15853650.093078613,-9819800.37689209,3060171.127319336,-23758.49336385727,8267131.805419922,10121797.561645508,8388920.783996582,9347898.483276367,-12175744.05670166,-12212268.829345703,-8064659.118652344,-176210.04581451416,8467239.379882812,9227033.615112305,10191119.194030762,-15551301.956176758,-10834253.311157227,3209373.950958252,7553163.051605225,7036538.124084473
0.135,22862337.112426758,40830207.82470703,54026149.74975586,-3407427.7877807617,35129726.40991211,-32213111.877441406,1454190.6118392944,1837043.4045791626,3949508.1901550293,20035984.03930664,19350542.068481445,23546464.920043945,24732013.702392578,27799968.719482422,-37952423.095703125,-16929508.209228516,-2295354.8431396484,7346938.133239746,11403792.381286621,10525777.816772461,16375518.798828125,18587223.052978516,9484115.600585938,-37744152.0690918,-18140777.587890625,-8152579.307556152,-1979104.3996810913,475449.0852355957,10647612.571716309,5922604.560852051,4796316.146850586,8535927.772521973,-26610696.79260254,-18531414.031982422,-9999100.685119629,-1437562.9425048828,1559916.9731140137,6067492.485046387,8311372.756958008,8092281.341552734,7718629.837036133,-29964492.797851562,-15760831.832885742,-10061061.85913086,2513067.0070648193,-261181.11610412598,5902978.897094727,7324832.916259766,5620101.9287109375,6436701.29776001,-14074315.071105957,-14257946.014404297,-9247206.687927246,-552591.5026664734,5827789.783477783,6295422.554016113,7260805.130004883,-20634649.2767334,-13797270.774841309,-1036032.4382781982,4791092.872619629,4271730.422973633
0.14,30221048.35510254,48838733.6730957,62545536.041259766,-3335016.7274475098,42181972.50366211,-25009963.989257812,7499427.795410156,7691621.780395508,9963372.230529785,26795400.619506836,26202619.552612305,28284965.51513672,29623159.408569336,33921298.98071289,-31154479.98046875,-11412298.202514648,2035398.7216949463,11766047.477722168,15260831.832885742,14516101.837158203,19351877.212524414,20385974.884033203,10540585.5178833,-32612373.35205078,-13843538.284301758,-5090963.363647461,342542.8867340088,342843.8603878021,12005831.718444824,6826072.216033936,5820641.040802002,9518281.936645508,-22042764.66369629,-14931702.613830566,-7708629.131317139,-153767.52614974976,1591199.0404129028,6434489.727020264,8666768.074035645,8399478.912353516,8426792.14477539,-26375585.556030273,-13089990.615844727,-8630225.18157959,2958019.256591797,-312611.6394996643,6262815.475463867,8217741.012573242,6259871.482849121,7147144.794464111,-12299673.080444336,-12676937.103271484,-7845405.101776123,-761499.3453025818,6346408.367156982,6959566.116333008,7917459.011077881,-19911109.924316406,-12213900.566101074,-672230.8993339539,5272962.57019043,4882108.211517334
0.145,34768115.99731445,54741275.787353516,68210800.17089844,-3277891.6358947754,46952404.0222168,-19349653.244018555,11258571.62475586,11291089.057922363,13564202.308654785,30733356.475830078,30129459.381103516,32184913.635253906,33684707.64160156,39206089.01977539,-25689809.799194336,-7191507.339477539,3985378.0269622803,13940989.49432373,17310594.55871582,16721527.099609375,21425605.77392578,23083675.384521484,13348657.608032227,-27359060.287475586,-10235614.776611328,-3103650.5699157715,1599254.6081542969,362439.24498558044,12488031.387329102,8119002.342224121,7231435.298919678,12187547.68371582,-16247922.897338867,-11744380.950927734,-5533129.2152404785,872672.8558540344,1728108.8829040527,8074281.692504883,9915933.609008789,9803537.368774414,10910268.783569336,-20981851.57775879,-10086005.210876465,-6855361.9384765625,4421087.741851807,-165999.94897842407,8078763.961791992,10878048.89678955,8703427.3147583,9800240.516662598,-8567075.729370117,-9010319.709777832,-4835090.160369873,-632349.7891426086,8642763.137817383,9522054.672241211,10428627.014160156,-14379938.125610352,-7722730.1597595215,3095295.4292297363,7611246.585845947,7257623.195648193
0.15,35091255.18798828,54537998.19946289,67226547.24121094,-3137295.722961426,46689342.4987793,-15950531.005859375,12688544.273376465,12743205.070495605,14884449.95880127,30473100.662231445,29770326.614379883,32886322.021484375,34344692.23022461,40612800.59814453,-21932367.3248291,-4472002.983093262,4732280.731201172,14505920.41015625,17380758.28552246,16624500.274658203,21840776.443481445,24289339.065551758,14805903.434753418,-23181411.743164062,-7642063.617706299,-1622630.7153701782,2412000.4177093506,578357.1600914001,12041603.088378906,8400856.971740723,7658809.661865234,13571633.338928223,-12241877.555847168,-9727619.171142578,-4051047.8019714355,1966066.4796829224,1830304.2650222778,8864618.301391602,10214033.126831055,10318373.680114746,12317285.537719727,-16703922.271728516,-8049618.721008301,-5469257.831573486,5939567.565917969,41165.5530333519,9060647.964477539,12214125.633239746,10150417.32788086,11348576.545715332,-5817844.390869141,-6236524.1050720215,-2377399.9214172363,-283357.08379745483,9992668.151855469,11026366.233825684,11923703.19366455,-9999970.436096191,-4556005.954742432,5646770.477294922,9010938.64440918,8584895.133972168
0.155,35775096.89331055,53127361.29760742,65359794.61669922,-2982456.922531128,45597267.150878906,-13787963.8671875,14298621.17767334,14496615.409851074,16566806.79321289,29714494.705200195,28991121.292114258,32348030.09033203,33691303.25317383,40164707.18383789,-19785659.790039062,-2256322.8607177734,6613449.573516846,15337409.973144531,17059717.178344727,15966317.176818848,21996725.08239746,24265987.396240234,14396760.940551758,-20636125.564575195,-5613738.536834717,516892.55237579346,3398609.161376953,784860.7897758484,11623515.129089355,8044952.392578125,7406969.5472717285,13173875.80871582,-11274754.524230957,-8294418.3349609375,-3141531.7058563232,3181992.769241333,1765640.0203704834,8443128.58581543,9528278.350830078,9727668.762207031,12043610.572814941,-14784771.919250488,-6652224.540710449,-4396341.323852539,6551581.382751465,150249.73452091217,8695878.028869629,11591329.574584961,9843564.0335083,10972272.872924805,-4800973.415374756,-5205976.486206055,-1456939.935684204,-25389.239192008972,9577999.114990234,10729532.241821289,11684002.876281738,-9676232.33795166,-3983119.249343872,5272858.142852783,8665464.401245117,8261404.037475586
0.16,39005893.70727539,55130065.91796875,67714210.5102539,-3047349.9298095703,47403469.08569336,-13043674.46899414,16334150.314331055,16664377.212524414,18763427.734375,31246294.021606445,30594049.45373535,32609806.060791016,33990123.7487793,40107990.26489258,-19886970.52001953,-981066.7634010315,9084404.945373535,16496829.986572266,17219446.182250977,16050365.447998047,22435173.03466797,23915847.778320312,13596913.33770752,-20227518.08166504,-4587448.596954346,2559192.895889282,3930546.0453033447,792697.9660987854,11459468.841552734,7759911.53717041,7068292.140960693,12367480.278015137,-12247899.055480957,-7385067.462921143,-2698557.138442993,3966366.0526275635,1616301.6557693481,7867046.83303833,8926433.563232422,9004242.897033691,11324639.320373535,-14379254.341125488,-5434984.20715332,-3482129.5738220215,6325462.818145752,136626.67572498322,8031156.539916992,10573852.5390625,8992193.222045898,10007864.952087402,-4173801.4221191406,-4579495.429992676,-1385711.3122940063,-37483.19298028946,8600666.046142578,9918344.497680664,10873885.154724121,-10693847.65625,-3821636.199951172,4433972.8355407715,7805633.544921875,7601672.649383545
0.165,41520347.595214844,58189888.00048828,71582527.16064453,-3375159.740447998,50546138.763427734,-13992375.373840332,16898561.477661133,17282194.137573242,19389371.871948242,33888450.622558594,33219501.495361328,33265106.201171875,34783390.045166016,40153690.338134766,-21495853.424072266,-1451173.186302185,9892707.824707031,16884540.557861328,17686569.213867188,16781749.725341797,22428169.25048828,23321405.4107666,13405408.85925293,-21156328.201293945,-4913999.557495117,2930506.944656372,3449295.2823638916,684290.2302742004,11027155.876159668,7620019.912719727,6751140.117645264,12111546.516418457,-13008131.980895996,-7390127.182006836,-2648212.432861328,3974041.700363159,1562933.9218139648,7799662.5900268555,8933332.443237305,8732820.510864258,11092957.496643066,-14050197.60131836,-4604510.307312012,-2963561.534881592,6053437.232971191,108600.87722539902,7849637.985229492,10430090.90423584,8724067.687988281,9655865.669250488,-3066723.108291626,-3435701.1318206787,-1313681.6024780273,-196805.38773536682,8262040.138244629,9654169.082641602,10495706.558227539,-9781970.024108887,-2568499.5651245117,5247583.389282227,7569839.954376221,7544666.290283203
0.17,39423351.2878418,56781944.274902344,70812606.81152344,-3626100.778579712,50949382.78198242,-15304224.967956543,15180399.894714355,15529084.205627441,17582933.42590332,34730197.90649414,33910503.38745117,32825115.203857422,34340282.44018555,39274208.068847656,-22262523.651123047,-2961713.3140563965,8402958.869934082,16137966.15600586,17942039.489746094,17308832.1685791,21668292.999267578,22396606.4453125,13748886.108398438,-21142219.54345703,-5746624.946594238,1590857.1481704712,2459263.801574707,633794.903755188,10179957.389831543,7552577.972412109,6561241.149902344,12461449.62310791,-12325880.05065918,-7907828.330993652,-2904630.184173584,3561826.705932617,1574480.7720184326,8147540.092468262,9316760.063171387,8897774.696350098,11434956.550598145,-12918146.133422852,-4056950.569152832,-3082970.8576202393,6168231.48727417,153167.35208034515,8197646.141052246,11174835.205078125,9246338.844299316,10110169.410705566,-1821867.7043914795,-2117105.9608459473,-1052804.946899414,-270486.86146736145,8801056.861877441,10025073.051452637,10801336.288452148,-7050877.571105957,-1087515.4733657837,6806470.87097168,8138640.403747559,8064898.490905762
0.175,33457221.98486328,50172843.93310547,64443801.87988281,-3458183.2885742188,47571743.01147461,-15488423.347473145,12531428.337097168,12796450.6149292,14783987.998962402,32804790.496826172,31907760.620117188,31098184.58557129,32431793.212890625,38080463.40942383,-21384065.628051758,-4045794.4869995117,6080165.863037109,14774886.131286621,17517721.17614746,16941482.543945312,20923833.8470459,21799154.28161621,14638767.24243164,-18998273.849487305,-6111522.674560547,-25654.96601164341,1578651.3090133667,623296.4396476746,9438419.342041016,7877558.708190918,6914930.34362793,13541101.455688477,-10644190.788269043,-8024033.546447754,-3583344.6979522705,3311627.149581909,1447540.6408309937,8940415.382385254,9965314.865112305,9589460.372924805,12478059.768676758,-10961833.000183105,-3094911.813735962,-3631412.0292663574,6377455.711364746,229393.18418502808,9134744.644165039,12519269.943237305,10521527.290344238,11387990.951538086,-692273.4975814819,-947584.8078727722,-504182.1599006653,-197604.79032993317,10093975.067138672,11068360.328674316,11989440.91796875,-4300026.893615723,-165732.78605937958,7544352.5314331055,9455273.628234863,9189645.767211914
0.18,28858564.376831055,44261562.34741211,58556320.19042969,-3025215.8641815186,44117149.353027344,-14766805.648803711,11032258.987426758,11278285.026550293,13160510.063171387,30470621.10900879,29688884.735107422,29840229.034423828,31061437.606811523,38460899.353027344,-20850139.617919922,-4220413.2080078125,4658895.969390869,13658966.064453125,16760696.411132812,16149343.490600586,21244766.235351562,22554639.81628418,16370920.181274414,-16592300.415039062,-6283241.748809814,-835859.5371246338,839594.9602127075,547218.9784049988,9381251.335144043,8963103.294372559,8091889.381408691,15506168.365478516,-9320485.11505127,-7898649.215698242,-4802534.103393555,3478256.940841675,1185443.5205459595,10322436.332702637,11077911.376953125,10953129.768371582,14373342.514038086,-9270997.047424316,-1947424.292564392,-4238570.213317871,6270553.112030029,238677.38246917725,10681661.605834961,14311292.64831543,12469873.428344727,13474612.23602295,314954.63848114014,-1730.1656771451235,399353.5339832306,-98186.78349256516,11911517.143249512,12914797.78289795,14056891.441345215,-2599846.839904785,788975.0599861145,7629749.774932861,11351719.856262207,11007630.348205566
0.185,30477111.81640625,45324943.54248047,59650009.15527344,-2830299.8542785645,45175975.79956055,-14093237.87689209,11965924.263000488,12347442.626953125,14072602.272033691,31229257.583618164,30565334.32006836,31116418.838500977,32472591.400146484,41327205.657958984,-22374328.61328125,-3945392.370223999,4954792.9763793945,13884741.78314209,17198719.024658203,16604364.395141602,23114366.53137207,24920454.025268555,18494920.73059082,-16779354.095458984,-7047925.94909668,-895243.8831329346,452511.63840293884,477435.05239486694,10231586.456298828,10657352.447509766,9818276.405334473,17627264.02282715,-9487404.823303223,-8797387.12310791,-6095586.776733398,3989476.6807556152,1087123.155593872,11783546.447753906,12543514.251708984,12601757.049560547,16434906.005859375,-9542414.665222168,-2191690.444946289,-4864789.4859313965,5901251.792907715,171483.93392562866,12163353.91998291,15991949.081420898,14426998.138427734,15573452.949523926,469371.08039855957,13321.911916136742,1016253.3521652222,-46349.05606508255,13524060.249328613,14928671.836853027,16103595.733642578,-2626643.657684326,1906765.2225494385,7827778.8162231445,12989140.510559082,12770869.255065918
0.19,37420188.903808594,52493194.580078125,66980194.091796875,-3038191.318511963,50550418.853759766,-13521027.565002441,14713541.984558105,15269472.122192383,16986507.415771484,35381172.18017578,34657863.61694336,34554393.76831055,36152324.67651367,45067882.5378418,-24763164.520263672,-3549506.187438965,6564869.8806762695,15753906.25,19572914.123535156,18967527.389526367,25764173.50769043,27698623.657226562,19785995.483398438,-19469633.102416992,-8036809.921264648,-680643.6777114868,967741.3105964661,569886.6844177246,11633048.057556152,12227849.006652832,11342708.587646484,18636583.32824707,-11029162.406921387,-10850649.8336792,-6564716.339111328,4640456.199645996,1330662.3697280884,12459970.474243164,13760295.867919922,13786386.489868164,17471187.591552734,-11833957.67211914,-4177360.0578308105,-5473912.715911865,5728068.3517456055,132347.12183475494,12685661.315917969,16770370.483398438,15430914.878845215,16482072.830200195,-749914.4673347473,-1306088.5667800903,669601.9172668457,40792.87126660347,14109333.038330078,15925877.571105957,16967641.830444336,-4576988.220214844,2276873.5885620117,8016033.172607422,13427887.916564941,13383620.262145996
0.195,42885311.126708984,57773761.74926758,72607589.72167969,-3188666.343688965,54426376.34277344,-12855429.649353027,16626529.693603516,17129680.633544922,19188711.166381836,38505058.28857422,37691928.86352539,36663303.37524414,38346427.91748047,46561008.45336914,-25608676.91040039,-3046478.9867401123,7953776.836395264,17515560.150146484,21690185.546875,20952697.75390625,27046869.2779541,28848897.93395996,19635818.481445312,-21212440.490722656,-7828702.449798584,-361199.7067928314,2119695.1866149902,757582.9029083252,12475285.530090332,12764001.846313477,11803288.459777832,18227922.439575195,-12117083.549499512,-11834126.472473145,-5884979.724884033,5256475.925445557,1676268.9352035522,12245004.653930664,14165671.348571777,14091062.545776367,17191619.873046875,-13111645.698547363,-5192245.006561279,-5371791.362762451,6232272.148132324,208173.79653453827,12294356.346130371,16589952.46887207,15311450.004577637,16022766.11328125,-1666444.8976516724,-2204066.038131714,244080.00707626343,237741.55974388123,13756030.082702637,15577644.348144531,16609132.766723633,-6563752.6512146,2133244.276046753,8122689.247131348,12888837.814331055,12908681.869506836
0.2,41176033.02001953,54965225.21972656,70247436.5234375,-2819931.745529175,51961601.25732422,-12740785.598754883,15432704.92553711,15585093.49822998,18124414.443969727,36404899.59716797,35690551.7578125,34583610.53466797,36137241.36352539,44546127.31933594,-24391555.786132812,-2494749.3076324463,7740657.329559326,16947566.986083984,20588926.315307617,19706319.80895996,25344947.814941406,27516311.645507812,18861486.434936523,-19283689.498901367,-5766888.618469238,236147.00138568878,2715006.8283081055,800277.054309845,11710157.39440918,11977678.298950195,10950459.480285645,17508274.07836914,-10527373.313903809,-9626537.322998047,-4809486.389160156,5846395.492553711,1768356.8000793457,11883530.616760254,13747583.389282227,13664093.971252441,16588285.446166992,-10108030.319213867,-2470236.301422119,-3803374.2904663086,7519208.4312438965,364541.56041145325,11908755.3024292,16266839.981079102,14927246.09375,15335752.487182617,260207.26561546326,-214136.16836071014,1436627.984046936,440471.3213443756,13411012.649536133,14891275.405883789,16101270.67565918,-5645937.919616699,3301778.3164978027,8949152.946472168,12563231.468200684,12568532.943725586
0.205,34821804.04663086,47465919.494628906,63005111.69433594,-2213933.229446411,45827087.40234375,-13433715.8203125,12399558.067321777,12195518.493652344,14870787.620544434,31179796.21887207,30639135.360717773,30285779.95300293,31661272.048950195,41491191.86401367,-22601028.442382812,-1832397.222518921,6532253.742218018,14737213.134765625,17102325.439453125,16209383.010864258,22086639.404296875,25343437.19482422,18655136.108398438,-15179718.971252441,-2950723.886489868,1286468.8634872437,2372461.3189697266,651200.7713317871,9882375.717163086,10729846.000671387,9662936.210632324,17602087.020874023,-6381403.923034668,-5512670.040130615,-4343749.523162842,6535647.869110107,1597104.787826538,11897412.300109863,12997109.413146973,12914967.53692627,16628831.86340332,-4074995.0408935547,2413211.5840911865,-1399227.9767990112,9107600.212097168,509979.5460700989,12059381.484985352,16409023.28491211,15043463.706970215,15402241.706848145,4455216.407775879,3969154.8347473145,3952042.3412323,473249.1374015808,13637942.31414795,14906280.517578125,16160511.016845703,-1830104.3510437012,6251758.575439453,10820015.907287598,12991229.057312012,13017803.192138672
0.21,31713436.126708984,44022777.55737305,59298500.061035156,-2162486.0763549805,42970222.47314453,-13467776.29852295,11316911.697387695,11074706.077575684,13434570.3125,29067569.732666016,28489896.774291992,28528711.318969727,29826929.092407227,40633102.41699219,-21495038.986206055,-758705.0795555115,6429491.04309082,14184097.290039062,15451910.018920898,14646864.891052246,20650836.944580078,24672199.249267578,19092611.31286621,-12811670.303344727,-1036884.069442749,2626172.0657348633,2241636.5146636963,536198.6756324768,8962570.190429688,10243089.67590332,9155041.694641113,18281282.424926758,-2695119.619369507,-3240597.0096588135,-4601117.134094238,7227484.703063965,1448342.6809310913,12030715.942382812,12421319.961547852,12214958.190917969,17101915.35949707,-247753.47113609314,4855643.272399902,49602.389335632324,10268444.061279297,604447.7820396423,12348280.906677246,16692691.802978516,15416277.885437012,15872672.080993652,7058057.3081970215,6532910.346984863,5429420.948028564,330939.4419193268,13981244.087219238,15440371.5133667,16388290.405273438,1303544.8789596558,8845065.116882324,12578942.29888916,13436331.748962402,13517405.50994873
0.215,34897956.84814453,47260639.19067383,61750385.28442383,-2929845.094680786,45253852.84423828,-11478194.236755371,13638520.240783691,13624789.237976074,15660199.165344238,32011524.200439453,31192268.37158203,30457221.98486328,31776721.954345703,41756088.25683594,-21032045.364379883,651708.7817192078,8172872.543334961,16651716.232299805,17449302.673339844,16696800.231933594,22028545.379638672,25483274.459838867,19158100.128173828,-13748646.73614502,-513637.0062828064,3674467.086791992,3212685.5850219727,604515.3141021729,9921612.739562988,10591769.218444824,9458279.609680176,18360061.645507812,-2094550.8480072021,-4460906.505584717,-4835921.764373779,7555676.9371032715,1472326.8747329712,11806898.11706543,12047044.75402832,11687747.00164795,17060625.076293945,-1481669.545173645,3202967.405319214,-225796.4462041855,10728963.851928711,630120.8734512329,12171397.20916748,16415784.83581543,15240385.055541992,15705504.417419434,5842170.715332031,5412828.44543457,4903125.286102295,186615.66078662872,13701854.705810547,15485363.006591797,16068161.010742188,1171966.791152954,9311882.972717285,12927217.483520508,13046485.900878906,13103988.647460938
0.22,39233932.49511719,51099765.77758789,64776962.28027344,-3811599.4930267334,47710083.0078125,-8916424.751281738,16714374.542236328,16873882.293701172,18953495.025634766,35410705.56640625,34430072.78442383,32379108.428955078,33745677.94799805,42183391.57104492,-20798965.454101562,1613654.375076294,10111064.910888672,19555793.76220703,20067319.869995117,19292774.200439453,23535493.850708008,25645210.26611328,18165843.963623047,-15849607.467651367,-627832.5319290161,3940207.004547119,4515626.907348633,706611.156463623,11339191.436767578,10649549.48425293,9443207.740783691,17233707.427978516,-3803300.619125366,-6825719.356536865,-4558589.458465576,7402713.298797607,1516320.5862045288,11073517.799377441,11401021.003723145,11065500.259399414,16067995.071411133,-4690761.566162109,664210.3791236877,-989890.2773857117,10834936.141967773,514124.33385849,11363958.358764648,15390875.816345215,14192129.135131836,14542144.775390625,3023059.844970703,2807776.689529419,4191909.3132019043,137464.2699956894,12657052.040100098,14508893.013000488,15093165.397644043,-830912.1131896973,8571686.744689941,11885437.965393066,11896660.804748535,11824518.203735352
0.225,39651920.318603516,50615386.962890625,64133094.787597656,-3983589.8876190186,46963481.90307617,-8835871.696472168,17788991.928100586,17932949.06616211,20263572.692871094,35535610.19897461,34595123.291015625,31857395.17211914,33258285.522460938,41625881.19506836,-20959791.18347168,1417400.4793167114,10661462.783813477,20151157.37915039,20279367.446899414,19444347.381591797,23001016.61682129,24456008.911132812,16765619.277954102,-16814165.115356445,-782362.4610900879,3584270.0004577637,4989299.774169922,616832.9119682312,11419905.662536621,9913093.566894531,8717088.69934082,15703366.27960205,-5308864.593505859,-7582515.716552734,-4259865.760803223,7155810.832977295,1391573.3098983765,10023180.961608887,10198156.356811523,10046047.21069336,14734783.172607422,-5418705.463409424,287239.1641139984,-963266.4918899536,10903261.184692383,214969.26248073578,10183184.623718262,14151270.866394043,12837208.74786377,13127414.70336914,1648210.2870941162,1536098.0033874512,4615146.160125732,73122.7770447731,11352773.666381836,13080733.299255371,13967881.202697754,-2148373.84223938,8211912.155151367,10285964.965820312,10689652.442932129,10516656.875610352
0.23,37864318.84765625,48646057.12890625,62829643.24951172,-3521799.087524414,45923648.834228516,-11721531.867980957,17254486.083984375,17372409.82055664,19797037.12463379,34462875.36621094,33606464.38598633,31119272.232055664,32540191.650390625,42542682.64770508,-21918283.462524414,290198.1770992279,10245402.336120605,19002742.767333984,19164445.877075195,18235237.12158203,21807586.669921875,23746835.708618164,16267679.214477539,-17111270.904541016,-1247761.2495422363,3153279.0660858154,4719996.929168701,344147.2053527832,10421594.619750977,9337717.056274414,8334985.733032227,15157250.40435791,-5949793.338775635,-7251188.7550354,-4766052.722930908,7161435.604095459,1147227.7641296387,9166532.516479492,8930034.637451172,8901578.903198242,14112698.554992676,-3754587.173461914,984154.9396514893,-642340.5408859253,10862318.992614746,-99289.88665342331,9231111.526489258,13506731.033325195,12140245.43762207,12551226.615905762,1571032.2856903076,1368066.5493011475,4731443.881988525,-99807.52319097519,10545194.625854492,12331834.79309082,13353602.409362793,-2298393.0110931396,8230917.930603027,8966177.940368652,10074131.01196289,9955018.997192383
0.235,37587223.052978516,49237148.28491211,64218093.87207031,-3212856.5311431885,47318141.93725586,-14441221.237182617,16419752.12097168,16643768.310546875,18961904.525756836,34884452.81982422,34067646.02661133,32208522.79663086,33641716.00341797,45064208.984375,-23476041.793823242,-878598.0343818665,9803801.536560059,17961782.455444336,18876245.498657227,17838117.599487305,21866039.276123047,24522531.509399414,17099304.19921875,-18131647.10998535,-2217521.1906433105,2801894.6647644043,4390682.697296143,128037.12487220764,9788092.613220215,9639050.483703613,8900218.00994873,16042833.32824707,-6687555.78994751,-7974196.434020996,-6015455.722808838,7253684.520721436,1021946.0725784302,9199392.318725586,8413123.13079834,8347156.524658203,14665199.279785156,-3023062.4675750732,520338.11807632446,-989668.071269989,10796862.602233887,-126314.89336490631,9302849.769592285,13930927.276611328,12632181.167602539,13243887.901306152,1139754.5337677002,879577.5771141052,3315059.4234466553,-220781.1325788498,10822815.895080566,12910660.743713379,13709887.504577637,-1826504.4689178467,8338333.1298828125,8890226.364135742,10437523.84185791,10455482.482910156
0.24,37622417.44995117,50024772.64404297,64947402.95410156,-3488128.900527954,47876701.35498047,-14116777.420043945,14798645.973205566,15127710.342407227,17346586.227416992,34658580.7800293,33961868.28613281,32624011.993408203,34074825.286865234,45629158.02001953,-24714113.235473633,-1358613.0142211914,9082170.486450195,17020465.850830078,18520580.291748047,17463529.586791992,21965740.203857422,24865587.23449707,18285150.5279541,-19071277.618408203,-2878187.1795654297,2294544.6968078613,3992343.9025878906,200333.5952758789,9712678.909301758,9860060.691833496,9211584.091186523,17350891.11328125,-7132904.529571533,-9576145.17211914,-6900547.027587891,7228449.34463501,1185771.7037200928,10274072.647094727,8743722.915649414,8591745.376586914,15785897.254943848,-4181606.2927246094,-192449.07796382904,-1306948.184967041,11269979.476928711,214732.0657968521,10574278.831481934,15100350.379943848,13884636.878967285,14564442.63458252,726895.2131271362,609778.5234451294,2280921.9360351562,-49395.29672265053,12065089.225769043,14322585.105895996,14900138.854980469,-606974.3633270264,9420814.514160156,10462014.198303223,11671050.071716309,11709118.843078613
0.245,34824005.126953125,46879066.467285156,60773117.06542969,-3966898.6797332764,43982521.057128906,-11789047.241210938,12050055.503845215,12313312.530517578,14504174.23248291,31119087.21923828,30654169.0826416,29658765.79284668,31146539.68811035,42881130.21850586,-25108442.306518555,-1016247.8685379028,7826981.067657471,15569895.74432373,16414272.30834961,15492582.321166992,20138507.843017578,23132133.48388672,18656259.536743164,-18098289.489746094,-2333065.2713775635,1691952.2285461426,3337290.2870178223,566040.3966903687,9293142.318725586,8914732.933044434,8135292.053222656,17801742.553710938,-5839410.305023193,-9881352.424621582,-6618176.9371032715,7387656.211853027,1536636.233329773,11468928.337097168,9195564.270019531,9006999.969482422,16423202.514648438,-4984203.815460205,1065644.9794769287,-221135.51199436188,12473316.192626953,612268.6266899109,11980310.440063477,16072019.577026367,14849127.769470215,15390720.36743164,1669398.6654281616,1681163.7878417969,3837784.2903137207,343163.31148147583,13275588.035583496,15343806.266784668,16071432.113647461,905537.0688438416,11749361.991882324,12124937.057495117,12908888.816833496,12785539.627075195
0.25,31097770.69091797,42312740.325927734,55264301.30004883,-4103892.8031921387,39100097.65625,-10788865.089416504,10373644.828796387,10482594.49005127,12616906.16607666,27227729.79736328,26872375.48828125,25982894.897460938,27517084.1217041,40954910.27832031,-25469326.01928711,-275206.17842674255,7239156.246185303,14830250.74005127,14119527.816772461,13372858.047485352,17777606.964111328,21140567.779541016,18291307.44934082,-15787180.90057373,-1078820.9438323975,1406384.3488693237,3005535.60256958,943611.0854148865,8585470.199584961,7623061.656951904,6723952.770233154,17390596.389770508,-3545492.172241211,-8472918.510437012,-5796238.899230957,8028830.528259277,1739259.0045928955,11702864.646911621,9230778.694152832,9017931.938171387,16301010.131835938,-4126206.874847412,3472158.193588257,1772590.7564163208,13593289.375305176,690341.2938117981,12249192.237854004,16257841.110229492,14967261.31439209,15330549.240112305,3267272.472381592,3124384.641647339,6532213.6878967285,572083.055973053,13547861.099243164,15350594.520568848,16444503.784179688,1356172.2040176392,13730995.178222656,11728270.530700684,13245919.227600098,12955008.506774902
0.255,31326395.03479004,42030254.36401367,54978660.583496094,-3868961.0958099365,38969459.533691406,-11910362.243652344,11735778.80859375,11808283.805847168,13842320.442199707,27419351.57775879,26883481.979370117,25682207.107543945,27251348.4954834,42866001.12915039,-26773609.161376953,341730.4754257202,8374045.372009277,15952549.934387207,14011392.593383789,13301710.12878418,17458944.32067871,21176242.82836914,18142616.271972656,-14538532.257080078,-341384.29164886475,1545876.8606185913,3458666.8014526367,972367.4058914185,8421307.563781738,7320697.784423828,6497270.107269287,17153451.919555664,-2807189.94140625,-7266094.68460083,-5565893.173217773,8729758.262634277,1550659.8949432373,11112504.959106445,8923157.691955566,8670212.745666504,16131092.071533203,-2654500.2460479736,4367961.406707764,2879040.7180786133,13960136.413574219,472775.57849884033,11542376.518249512,16020185.470581055,14703351.974487305,15076014.518737793,4086676.1207580566,3664804.9354553223,7551995.277404785,433501.4820098877,13168938.636779785,14976222.99194336,16184629.440307617,1523995.9955215454,14656143.188476562,10254948.616027832,12898427.00958252,12629443.168640137
0.26,35249351.501464844,44632568.359375,57647605.895996094,-3605808.4964752197,41428871.154785156,-11569239.616394043,14184104.919433594,14348733.901977539,16285795.211791992,29266096.115112305,28458589.553833008,26428964.614868164,28024139.404296875,43618652.34375,-27656480.78918457,1166318.1781768799,10162015.914916992,16973701.47705078,14144479.751586914,13320232.391357422,17558719.635009766,21179691.314697266,18203517.91381836,-14232469.55871582,254472.64313697815,1949126.8396377563,3868845.7012176514,591010.2128982544,8175064.0869140625,6939174.652099609,6265319.82421875,17252599.716186523,-3307407.1407318115,-6773013.114929199,-5558424.949645996,8889619.827270508,1133238.0771636963,10640762.329101562,8089328.765869141,7841263.294219971,16230945.587158203,-789064.347743988,4225073.81439209,3187005.7582855225,14475295.066833496,339383.8107585907,11047844.886779785,15803565.02532959,14516412.734985352,15110233.306884766,5357960.224151611,4924634.93347168,7789070.606231689,203655.86876869202,12994971.27532959,14931363.105773926,15846497.535705566,4931834.697723389,16772083.282470703,11691295.623779297,12792464.256286621,12705903.053283691
0.265,37175006.86645508,42236919.40307617,53470504.76074219,-3533704.7576904297,38250152.587890625,-5544910.430908203,14316674.23248291,14513168.334960938,16281410.217285156,25896972.65625,25043264.389038086,21650207.51953125,23259675.979614258,35512924.19433594,-24651748.657226562,3612190.4850006104,10943000.793457031,15034832.954406738,10240828.514099121,9306369.78149414,13579546.928405762,16755477.905273438,16989789.962768555,-11484640.121459961,2815974.235534668,2825868.1297302246,3228389.9784088135,155589.2676115036,5992668.151855469,3893550.6343841553,3227597.713470459,16223020.553588867,-966249.3467330933,-4759839.5347595215,-4050144.1955566406,8755401.611328125,911639.3327713013,10319628.715515137,5956261.63482666,5767651.557922363,15517626.762390137,3039953.7086486816,6383597.850799561,4917914.390563965,16574863.43383789,502747.5357055664,10906636.238098145,15022424.697875977,13719397.54486084,14525416.374206543,9389531.135559082,9226878.16619873,10496584.89227295,256980.38935661316,12794447.898864746,14550658.226013184,15092757.225036621,12467933.654785156,21729007.720947266,17218812.942504883,12815374.374389648,12895970.344543457
0.27,34427215.576171875,32288669.58618164,39457405.09033203,-3659754.0378570557,27532934.188842773,5862813.949584961,12669958.114624023,12743270.874023438,14181712.15057373,16820323.944091797,16148622.512817383,10856875.4196167,12423454.284667969,19614686.965942383,-16542192.459106445,8479529.38079834,11207904.815673828,11195506.09588623,2866282.9399108887,1934368.61038208,5453150.272369385,8095991.134643555,13613470.077514648,-4738963.1271362305,8052941.32232666,4490210.056304932,2185852.05078125,39526.92449092865,1982733.3688735962,-1689237.117767334,-2468892.3358917236,13015268.325805664,6054544.448852539,-102569.85574960709,-675700.6645202637,9086563.110351562,1048545.1221466064,9183503.150939941,2541200.1609802246,2355590.1050567627,12899611.473083496,8616167.068481445,11326218.605041504,8778942.108154297,19797889.709472656,728589.2963409424,9921139.71710205,12817524.909973145,11384337.425231934,12173894.882202148,14832108.497619629,14822093.963623047,15196782.112121582,529812.5743865967,11411141.395568848,12611248.016357422,13050601.0055542,19140365.600585938,26691915.51208496,22125003.814697266,11717967.987060547,11891529.083251953
0.275,30608570.098876953,21702394.485473633,24687555.31311035,-3944714.307785034,17285549.16381836,17221397.399902344,12933887.481689453,12855559.349060059,13946876.525878906,9781132.698059082,9248164.176940918,1824880.4807662964,3256242.7520751953,6162641.525268555,-7418120.861053467,14024741.172790527,12652978.897094727,9618666.648864746,-1980374.4554519653,-2860065.9370422363,-873661.1604690552,1054501.1758804321,9698296.546936035,2521298.885345459,13294965.744018555,6286111.354827881,2247587.9192352295,189776.91233158112,-877322.7334022522,-5975965.976715088,-6807003.974914551,9144288.063049316,13380372.047424316,4448484.420776367,2172624.111175537,9881327.629089355,1239388.9427185059,7201809.406280518,-330259.0847015381,-630553.4839630127,9431141.85333252,12538296.699523926,15020298.00415039,12250969.886779785,21841850.28076172,687807.9771995544,7816161.632537842,9897946.35772705,8319201.469421387,8875830.65032959,17348396.30126953,17160638.8092041,17266851.4251709,627671.5993881226,8922307.968139648,9616187.09564209,10159914.016723633,19867410.65979004,27537240.982055664,21409950.256347656,9322745.323181152,9607249.25994873
0.28,28844867.706298828,16664787.292480469,17931926.727294922,-4251750.469207764,14296660.423278809,22843936.920166016,15810544.967651367,15696960.44921875,16674863.815307617,9982378.005981445,9405383.110046387,290456.8910598755,1553517.5800323486,2153043.270111084,-3070729.4940948486,17068822.860717773,15018493.65234375,11701807.022094727,-748333.1561088562,-1652258.5153579712,-1099339.3659591675,-220571.1305141449,7852339.744567871,5899787.425994873,15238577.842712402,6865844.249725342,3376641.7503356934,274204.40316200256,-391152.7097225189,-6039743.900299072,-6834094.047546387,7294867.515563965,15526424.407958984,5621428.489685059,2006091.1178588867,10368055.34362793,1171278.3575057983,5886539.459228516,-733236.6108894348,-1148508.4295272827,7588049.88861084,12511737.823486328,14553260.803222656,12920560.836791992,21551418.30444336,429415.91143608093,6240756.034851074,8258917.808532715,6690704.822540283,6995515.823364258,15692476.272583008,15260979.652404785,14612024.307250977,412813.9913082123,7185169.219970703,7778379.917144775,8303326.606750488,16490955.352783203,24937805.17578125,16585826.873779297,7412939.071655273,7840279.579162598
0.285,26904521.942138672,14564779.281616211,16694967.269897461,-4279101.848602295,15499379.15802002,21867609.02404785,17515342.712402344,17440622.329711914,18543870.92590332,13341497.421264648,12677598.95324707,2687284.469604492,3858622.5509643555,3619195.6996917725,-4508344.650268555,16541278.839111328,16267618.179321289,14359393.119812012,3245975.2559661865,2218039.035797119,1930868.8640594482,1556189.0602111816,8277082.443237305,5591566.08581543,14000823.974609375,6045437.812805176,4070110.321044922,197411.73088550568,1920817.6136016846,-3613351.345062256,-4445484.638214111,7772381.782531738,12956108.093261719,4073999.4049072266,-401134.55057144165,10362129.211425781,978180.9449195862,6091330.051422119,772134.2444419861,390673.2499599457,7992309.093475342,10577737.808227539,12141603.469848633,11717741.966247559,20441270.82824707,282760.888338089,6371179.103851318,8485838.890075684,7082330.703735352,7286353.588104248,13417817.115783691,12978026.390075684,10678856.84967041,165334.3141078949,7249329.090118408,8015916.82434082,8290205.955505371,14667617.797851562,23327657.69958496,13188846.588134766,7244468.688964844,7696227.550506592
0.29,22056526.18408203,10194954.872131348,13599649.429321289,-3876918.5543060303,14315181.732177734,17988405.227661133,15479909.896850586,15372725.486755371,16612537.384033203,13705059.051513672,13062706.94732666,2642614.6030426025,3810454.845428467,3082797.7657318115,-7517150.402069092,14622523.307800293,15926320.07598877,14994332.313537598,5289330.48248291,4156796.932220459,3087481.737136841,1420126.3189315796,8439408.302307129,5053833.0078125,12572626.113891602,5321970.9396362305,3890050.172805786,186020.44880390167,3147066.116333008,-2423673.391342163,-3423921.3466644287,8004287.7197265625,10485208.511352539,2863112.688064575,-2042937.5171661377,10624731.063842773,990222.0964431763,6450044.631958008,1630442.9769515991,1407894.1345214844,8369374.2752075195,9653791.427612305,11157441.139221191,10972356.796264648,20303575.51574707,357906.0435295105,6836196.422576904,8662284.851074219,7355768.203735352,7647662.63961792,13055166.244506836,12757679.93927002,8897730.827331543,102790.09491205215,7530638.217926025,8382894.515991211,8444930.076599121,15231994.62890625,23928062.438964844,12691250.801086426,7412935.733795166,7687989.711761475
0.295,16826644.897460938,5059514.999389648,8605351.448059082,-3362594.3660736084,10884382.247924805,14788236.618041992,12144670.486450195,11921303.749084473,13207304.000854492,11824435.234069824,11261534.690856934,452687.23368644714,1595497.6081848145,328590.4824733734,-8890716.552734375,13583087.921142578,15787528.038024902,14917978.286743164,5545099.258422852,4486606.597900391,2231568.8133239746,-657934.6060752869,6703618.049621582,5405250.549316406,12415493.965148926,5723444.46182251,4104255.6762695312,363691.3299560547,2957508.8024139404,-3149655.1036834717,-4277199.745178223,6260520.935058594,9828708.64868164,2497988.700866699,-1923633.4562301636,11474818.229675293,1196605.4439544678,5376141.07131958,628627.8367042542,531707.5252532959,6792190.5517578125,8961556.434631348,10901812.553405762,10676479.33959961,20588665.008544922,407978.8327217102,5715483.18862915,7087145.3285217285,5647362.70904541,6154922.008514404,12239840.507507324,11968025.207519531,7896025.657653809,67587.18937635422,6103319.16809082,6839910.03036499,7000858.783721924,13819277.7633667,23126392.364501953,11372408.866882324,5920960.426330566,5977157.115936279
0.3,15943136.215209961,4758409.023284912,7855696.678161621,-3211078.882217407,10446887.016296387,12912270.545959473,11180023.193359375,10917315.483093262,12275868.41583252,12375967.025756836,11835268.9743042,941527.4858474731,1968376.9941329956,714237.2727394104,-9909758.567810059,13035651.206970215,16769073.486328125,16100606.918334961,6805572.509765625,6030708.789825439,2806389.331817627,-801684.4391822815,4687585.353851318,4579352.855682373,11895246.505737305,6171659.94644165,5236162.6625061035,547877.6693344116,3189332.7236175537,-3470556.7359924316,-4529718.399047852,4188993.9308166504,8134756.088256836,703677.8926849365,-2195491.5523529053,11987926.483154297,1302883.9826583862,3690465.211868286,-678014.9340629578,-774639.1892433167,4562918.186187744,6003543.853759766,8628490.447998047,9132282.257080078,19666910.17150879,252862.42365837097,3709395.408630371,4948103.904724121,3268680.5725097656,4004221.9161987305,8348246.5744018555,7948020.458221436,5212362.289428711,-112507.4177980423,3854173.8986968994,4437604.904174805,4902567.386627197,9124067.306518555,19075271.606445312,7525551.319122314,3529291.3913726807,3529848.098754883
0.305,19620555.877685547,9540636.06262207,12484813.690185547,-3440695.285797119,14022295.951843262,12019205.093383789,12607844.352722168,12496833.801269531,13981907.844543457,15383777.618408203,14835556.983947754,4421704.7691345215,5316472.53036499,5116021.633148193,-12116312.980651855,11777067.184448242,17489236.83166504,17410167.694091797,8776217.460632324,8315880.77545166,5163392.543792725,1852597.951889038,4728245.735168457,2012378.9310455322,9858971.59576416,5209171.772003174,5752192.974090576,574907.8392982483,4239864.349365234,-2425820.3506469727,-3292217.254638672,4260893.34487915,4206023.693084717,-2803492.0692443848,-4355938.911437988,11344326.01928711,1259708.7621688843,3535353.183746338,-535010.7550621033,-699540.6150817871,4243056.774139404,1791771.2926864624,5143212.31842041,6699266.43371582,17859649.658203125,93075.7150053978,3270914.7930145264,4678894.996643066,2890206.5753936768,3731731.89163208,4028921.127319336,3527201.4141082764,2724163.055419922,-232343.06275844574,3362330.198287964,3875376.4629364014,4512682.914733887,5968499.660491943,15759927.749633789,4965746.4027404785,2912733.793258667,2999035.596847534
0.31,23454156.87561035,13231784.82055664,15768564.224243164,-3633489.6087646484,16599227.905273438,12976656.913757324,13959888.458251953,14068292.617797852,15545793.533325195,16282136.917114258,15802371.02508545,5736603.736877441,6580003.73840332,7680525.779724121,-13130326.271057129,10807181.358337402,16993858.337402344,16694368.362426758,8580650.329589844,8207492.828369141,5797820.091247559,3357021.5702056885,6231702.80456543,491458.05835723877,8371241.569519043,3537832.9753875732,4388466.358184814,557038.7244224548,4303169.250488281,-1950535.0589752197,-2673950.1953125,5936399.459838867,1657642.3645019531,-4682099.81918335,-6439861.297607422,10277362.823486328,1346470.832824707,5055558.681488037,365654.97517585754,168707.9519033432,5720232.963562012,298186.8386268616,4432657.718658447,6109712.600708008,17304121.017456055,219089.2994403839,4821893.692016602,6276620.388031006,4543232.440948486,5295942.306518555,4154186.248779297,3681827.5451660156,4215638.160705566,4012.73462921381,4968261.71875,5431679.725646973,5987126.350402832,8003286.361694336,17606113.43383789,7051013.469696045,4604248.046875,4751962.661743164
0.315,24349632.263183594,11937586.784362793,12986926.078796387,-3577152.967453003,15049107.551574707,16021944.046020508,14399739.265441895,14558946.60949707,15797121.047973633,13760386.46697998,13406169.891357422,2616111.7553710938,3460799.217224121,4746064.186096191,-10284228.324890137,12007350.92163086,16723335.266113281,14815321.922302246,6012903.213500977,5414621.353149414,3294980.28755188,930491.56665802,6584165.096282959,1663264.9898529053,9765895.84350586,3172725.4390716553,2478968.620300293,654744.3866729736,2547381.87789917,-3465359.2109680176,-4150713.4437561035,6486620.4261779785,3495478.630065918,-2734087.4671936035,-5795084.9533081055,10204671.859741211,1667196.7506408691,6077699.184417725,161826.90858840942,-5319.863557815552,6426529.884338379,2476549.1485595703,7587879.180908203,8470458.984375,18781911.849975586,564056.6349029541,6036681.175231934,7255517.482757568,5596160.888671875,6120841.979980469,8441966.05682373,8058934.211730957,8902428.62701416,454880.32698631287,6190320.4917907715,6564158.4396362305,6972516.5367126465,11709634.780883789,22671493.530273438,10923049.926757812,6058861.73248291,6206229.686737061
0.32,23401382.446289062,9032976.150512695,8518158.912658691,-3516784.66796875,12897170.066833496,18147525.787353516,14998972.89276123,15003174.781799316,15988128.662109375,12219071.388244629,11910553.932189941,-247109.13002490997,562289.4763946533,1098406.195640564,-6483235.3591918945,14355365.753173828,18087230.682373047,14638854.98046875,4493865.966796875,3539838.7908935547,1057307.7201843262,-2553348.5412597656,5234062.194824219,2422591.9246673584,12380455.017089844,4263182.640075684,2338885.545730591,794249.951839447,928097.6057052612,-5242810.7261657715,-5931577.682495117,5184980.869293213,6646247.386932373,96490.69607257843,-3368628.50189209,11228164.672851562,1908715.9633636475,5318474.292755127,-1112450.5996704102,-1245096.0874557495,5329730.51071167,4162166.5954589844,10486776.351928711,11129038.81072998,20399812.698364258,764028.012752533,5328154.08706665,6326356.887817383,4707681.655883789,5012845.039367676,11036904.335021973,10698726.654052734,11540033.340454102,640908.1220626831,5422548.294067383,5766036.9873046875,6120923.042297363,10978713.989257812,24698036.193847656,11067827.224731445,5346305.847167969,5513434.886932373
0.325,22701642.990112305,9525156.021118164,9499611.854553223,-3617631.9122314453,14844875.33569336,15412246.704101562,15733582.496643066,15616945.266723633,16602994.918823242,15025628.089904785,14641369.819641113,2181845.9033966064,2930281.639099121,3891337.8715515137,-7799065.113067627,14280096.054077148,19630254.7454834,16534391.403198242,6181415.08102417,4998380.661010742,2526256.799697876,-2300514.6980285645,4620360.851287842,-1355786.3235473633,12071172.714233398,4529234.409332275,3913273.0960845947,794633.8653564453,1600230.8130264282,-4695118.9041137695,-5389183.521270752,4412808.895111084,5573911.666870117,-890092.7901268005,-2838962.7933502197,11966583.251953125,1774214.0293121338,4168841.83883667,-1491179.7046661377,-1632903.9335250854,4482236.862182617,1629128.4561157227,9078018.188476562,10915637.016296387,20122718.811035156,626406.8484306335,4089540.0047302246,5209424.4956970215,3668810.3675842285,3899159.4314575195,8132098.197937012,7772824.287414551,9385236.740112305,384579.0922641754,4189022.0642089844,4697234.153747559,5025612.354278564,5560758.590698242,21266149.520874023,6874441.623687744,3837986.2308502197,4016384.6015930176
0.33,22098512.649536133,12903977.394104004,15838084.22088623,-3553687.09564209,19804508.209228516,8109625.816345215,14886137.962341309,14890610.694885254,16084903.717041016,19313890.45715332,18852691.650390625,8203485.488891602,8971039.772033691,13098433.494567871,-14980354.309082031,10444430.351257324,18701015.47241211,17576978.68347168,8933179.85534668,7748404.979705811,6437416.076660156,2078222.9900360107,6677407.264709473,-8677358.627319336,7932435.989379883,2358842.8497314453,4712894.439697266,639748.0368614197,3842749.1188049316,-1908159.0175628662,-2625235.5575561523,6226783.275604248,126605.85343837738,-5756947.5173950195,-5641178.607940674,11412095.069885254,1403379.7979354858,4575709.342956543,8925.999514758587,-141632.85493850708,5997862.815856934,-3019239.1872406006,4772889.614105225,8216020.584106445,18412740.70739746,337929.1296005249,4502649.784088135,6131356.239318848,4672091.960906982,5015647.888183594,3049431.085586548,2673283.100128174,5780019.760131836,50001.028925180435,4794335.36529541,5636163.234710693,5901142.120361328,1741401.4339447021,16929031.372070312,3389571.6667175293,4122880.9356689453,4192530.632019043
0.335,20189022.064208984,14445987.701416016,20811021.80480957,-2967771.530151367,22554094.314575195,949644.0887451172,11657670.021057129,11919413.566589355,13226633.071899414,19964427.947998047,19509727.478027344,12099331.855773926,13003524.780273438,21956289.291381836,-21661891.93725586,5779571.056365967,15176664.352416992,15572163.581848145,9364944.458007812,8339285.850524902,8891486.167907715,6516258.716583252,10389279.36553955,-14045003.890991211,3761785.5072021484,-1015828.6094665527,3129862.070083618,459701.41887664795,5040230.274200439,749337.8520011902,474.41248898394406,9798372.268676758,-3949627.39944458,-9723487.854003906,-9165868.759155273,10121795.654296875,1165630.1021575928,6575404.644012451,2121834.5165252686,2053161.62109375,9353851.318359375,-4375315.6661987305,2464298.4867095947,6216575.622558594,17393421.173095703,186404.7348499298,6675178.527832031,9070718.765258789,7569464.206695557,8119137.763977051,2009678.3638000488,1715423.345565796,5588083.267211914,51308.46053361893,7362376.689910889,8524134.635925293,8821649.551391602,4920697.212219238,17504871.368408203,4872448.921203613,6701373.57711792,6626159.66796875
0.34,17322402.954101562,12427227.020263672,20794218.063354492,-2113697.052001953,21201000.213623047,-2458312.749862671,7763654.2320251465,8150884.628295898,9309872.6272583,16628356.93359375,16163414.001464844,12035714.149475098,13104283.332824707,26010942.459106445,-22507766.723632812,3650387.5255584717,11760754.585266113,11973900.79498291,7227834.224700928,6424326.419830322,8611766.815185547,8119909.286499023,13751356.12487793,-14285621.643066406,2996425.151824951,-3234160.1848602295,451044.9469089508,363043.51687431335,4236848.831176758,1913616.7764663696,1178940.0577545166,13183648.109436035,-2694130.6591033936,-9418416.023254395,-10419775.009155273,9331613.540649414,1221495.1515197754,8947432.518005371,3494506.1206817627,3589471.5785980225,12744231.224060059,-638052.8807640076,4257960.319519043,6757941.246032715,18137744.903564453,257699.51939582825,9233518.600463867,12485978.126525879,10880805.015563965,11536554.336547852,6510815.143585205,6382801.055908203,9307601.928710938,363485.2170944214,10452126.502990723,11768459.32006836,12299093.246459961,13508114.8147583,23147287.368774414,10133914.947509766,10075818.061828613,10073907.852172852
0.345,15971023.559570312,10530704.498291016,19643297.19543457,-1606592.4167633057,19504098.892211914,-2907083.27293396,5775144.577026367,6098221.302032471,7005698.680877686,13854556.0836792,13233598.709106445,11640842.43774414,12800401.68762207,27455224.990844727,-19521749.49645996,3950837.1353149414,10746320.724487305,9953394.889831543,5324356.555938721,4719688.415527344,7923549.652099609,8227478.02734375,16356857.299804688,-12167901.992797852,4502538.204193115,-3624768.7339782715,-958341.0024642944,417271.8822956085,3243952.751159668,2492514.8487091064,1853046.2980270386,15849601.745605469,1123412.6091003418,-6847520.82824707,-9599001.88446045,9492379.188537598,1466502.4280548096,11095885.276794434,4577570.43838501,4774185.657501221,15466331.481933594,4350098.609924316,7282918.930053711,8467478.75213623,19722606.658935547,463096.58885002136,11472817.420959473,15406223.29711914,13878615.379333496,14439329.147338867,11845687.866210938,11793465.614318848,13150271.41571045,655451.6553878784,13212112.426757812,14517009.735107422,15307399.74975586,20590549.46899414,28419395.446777344,14591014.862060547,12954114.91394043,13264021.873474121
0.35,17753768.920898438,12259702.682495117,22019029.61730957,-1604624.0329742432,21147695.541381836,-2768152.952194214,6468237.400054932,6734093.189239502,7552058.219909668,14753785.133361816,13919857.025146484,14015508.651733398,15182395.935058594,29819614.41040039,-17935972.213745117,4379271.507263184,11767388.343811035,10643005.37109375,5849893.569946289,5325053.2150268555,9044551.849365234,9428216.934204102,18613660.81237793,-12246260.643005371,4906100.749969482,-3398138.2846832275,-555506.2890052795,650887.3105049133,4028260.7078552246,3710684.7763061523,3220855.712890625,18057985.305786133,2257110.595703125,-6090330.600738525,-9010217.666625977,10020748.138427734,1732594.0132141113,12953524.589538574,6312078.952789307,6449169.635772705,17542930.603027344,6000992.298126221,7725996.494293213,8954154.968261719,20620443.34411621,692103.8627624512,13357145.309448242,17498367.309570312,16256975.173950195,16670541.763305664,12753449.440002441,12559613.227844238,13582337.379455566,717262.0892524719,15373386.38305664,16608884.811401367,17443344.116210938,20926452.63671875,28642292.022705078,15193033.218383789,14852260.58959961,15367403.984069824
0.355,20821449.279785156,15635981.559753418,26249982.833862305,-1645083.6658477783,24544475.555419922,-2810201.406478882,8069465.637207031,8421187.400817871,9365081.787109375,17151840.209960938,16291337.966918945,17539268.493652344,18668960.571289062,32455047.607421875,-19027153.01513672,3812854.766845703,12701663.01727295,12171431.541442871,8032425.880432129,7439700.603485107,11339001.655578613,11719305.038452148,19784257.888793945,-15295083.999633789,3190557.4798583984,-3855238.199234009,103727.0799279213,924955.9640884399,6141100.4066467285,5280854.225158691,4928344.7265625,19098628.997802734,-336682.0514202118,-8139557.838439941,-9928054.809570312,10094626.426696777,1849638.1044387817,13820221.900939941,7991258.144378662,8021747.589111328,18248226.165771484,3782627.582550049,5162361.145019531,7490204.811096191,20156133.6517334,809412.1813774109,14197437.286376953,18059274.673461914,16999332.427978516,17459375.381469727,8791414.260864258,8403607.368469238,10308369.636535645,569249.9279975891,16080102.920532227,17310029.983520508,18020998.001098633,15910125.732421875,24765487.670898438,12651565.551757812,15249116.897583008,15607921.600341797
0.36,21492717.742919922,15990400.314331055,27278009.41467285,-1346005.6781768799,25454225.540161133,-3158522.367477417,8102387.428283691,8584424.97253418,9660293.579101562,16967962.26501465,16340614.318847656,18832532.88269043,19895629.8828125,32760002.13623047,-20223093.032836914,2760694.5037841797,11976150.512695312,12136477.47039795,9372627.258300781,8685486.793518066,12565773.010253906,13022445.678710938,18759241.104125977,-18500579.833984375,1035841.5842056274,-5241468.42956543,-337350.5175113678,960776.0310173035,7442231.65512085,6000412.940979004,5710047.721862793,18023832.321166992,-3423336.5058898926,-10754204.750061035,-11784410.47668457,9452526.092529297,1674681.9019317627,12873560.905456543,7936948.776245117,8006154.0603637695,16865625.381469727,404372.57289886475,2178815.8416748047,5182825.565338135,18755552.291870117,656456.8877220154,13131100.65460205,16600210.189819336,15409376.14440918,16094839.096069336,3760238.8858795166,3412962.6750946045,5691739.559173584,304332.4649333954,14596151.351928711,15949993.133544922,16611240.38696289,11382831.573486328,21491170.88317871,9818216.323852539,13837827.682495117,13890580.177307129
0.365,19132175.44555664,13123188.972473145,24850828.170776367,-913398.7426757812,23306840.896606445,-4430411.338806152,6300983.905792236,6805788.993835449,7830125.331878662,13839093.208312988,13484631.538391113,17519748.68774414,18491847.99194336,31088867.1875,-20163393.020629883,1847433.6862564087,10115647.315979004,10461520.195007324,8570347.785949707,7919264.793395996,11617223.739624023,12274360.656738281,16198551.177978516,-19636133.193969727,-120456.70300722122,-6794362.0681762695,-1299079.2989730835,676338.4342193604,6798778.057098389,5275967.597961426,4965667.247772217,15571064.949035645,-4528744.697570801,-12107949.256896973,-13431481.36138916,8653933.52508545,1285366.6543960571,10684441.566467285,5952393.054962158,6193970.680236816,14361416.816711426,-1957071.6619491577,987435.5792999268,3555572.509765625,17515085.220336914,241331.96473121643,10777578.353881836,14115300.178527832,12706108.093261719,13482708.930969238,1175450.8018493652,1073179.3642044067,2639945.5070495605,32834.46654677391,11894220.352172852,13455124.855041504,14186826.705932617,10795212.745666504,21601100.92163086,8672047.61505127,11522133.827209473,11477542.877197266
0.37,17533496.856689453,11678149.223327637,23506286.62109375,-776270.2703475952,21431007.385253906,-5550051.689147949,5319363.117218018,5704158.782958984,6609922.409057617,11219634.056091309,10939572.33428955,15565529.823303223,16451604.843139648,29453388.214111328,-19556854.248046875,1766398.9067077637,9431186.67602539,9409861.56463623,6698424.816131592,6197539.329528809,9112763.404846191,10055603.981018066,13927986.145019531,-18700344.08569336,6753.323134034872,-7173474.311828613,-1170851.1114120483,370239.82405662537,5040696.144104004,3326944.589614868,2988222.83744812,13471883.773803711,-3991266.7274475098,-12271116.256713867,-13812078.475952148,8682618.141174316,1027421.5936660767,8818667.4118042,3564778.0895233154,3890748.5008239746,12470508.575439453,-2787280.797958374,1794378.638267517,3650593.7576293945,17576118.46923828,-123913.25831413269,8829803.466796875,12231826.782226562,10835924.14855957,11365150.451660156,1611538.8870239258,1608669.400215149,2828503.370285034,-72203.82243394852,9853537.559509277,11538390.159606934,12272961.616516113,12204450.607299805,23742906.57043457,8878288.269042969,9741917.610168457,9799776.077270508
0.375,19745838.165283203,13490849.494934082,24142564.77355957,-1002570.9867477417,20932376.861572266,-3113071.6800689697,7500985.622406006,7621680.25970459,8664400.100708008,11081368.446350098,10701072.692871094,13114928.245544434,13931448.936462402,26636898.040771484,-17935869.216918945,3660035.1333618164,11605674.743652344,10636203.76586914,5463595.390319824,5051784.992218018,5936724.662780762,6687272.548675537,12291419.02923584,-16155717.849731445,1806621.5515136719,-5501032.35244751,402899.1460800171,355761.25979423523,3349747.4193573,468453.7649154663,171816.1553144455,11950556.755065918,-2403201.5800476074,-11545762.062072754,-12156189.918518066,9970475.196838379,1142504.6920776367,7790578.365325928,1765226.7217636108,1960877.0608901978,11259545.32623291,-1727239.6087646484,3872626.781463623,5669372.081756592,19230285.64453125,-91717.13888645172,7829503.536224365,11094967.84210205,9901609.420776367,10037151.336669922,3845433.235168457,3658086.7767333984,5706001.281738281,90403.20664644241,8829799.65209961,10397738.456726074,10979372.97821045,12650840.759277344,25629642.486572266,9052126.88446045,8682135.581970215,8774698.257446289
0.38,23127367.01965332,13724085.807800293,21194242.477416992,-1327530.860900879,18177659.98840332,3938502.550125122,11160101.890563965,10834935.188293457,12371007.919311523,10879009.246826172,10415220.260620117,8106569.290161133,8821233.749389648,19180686.950683594,-13736470.222473145,7457278.251647949,15194972.038269043,12738003.730773926,4872473.71673584,4397871.017456055,2311871.290206909,1840072.2742080688,9990222.930908203,-12207644.46258545,5342361.927032471,-2777057.647705078,1801657.795906067,515128.0164718628,1800985.9323501587,-2926347.255706787,-3146239.5191192627,9697052.001953125,718428.7309646606,-9752773.28491211,-9042031.288146973,11695360.18371582,1423862.4572753906,6668660.640716553,-1686.3604541867971,-21912.97896206379,9336861.610412598,1523592.472076416,6554066.181182861,8549736.976623535,21430065.155029297,285925.35853385925,6763162.136077881,9482158.660888672,8428323.745727539,8356217.384338379,6758529.186248779,6422959.804534912,8867946.62475586,352505.80310821533,7554564.476013184,8795976.638793945,9193877.220153809,12864426.612854004,27229873.657226562,8915841.102600098,7358612.060546875,7395674.705505371
0.385,22833957.67211914,8190785.4080200195,11672804.832458496,-1576025.2475738525,10833575.248718262,11003505.70678711,12056379.318237305,11210859.298706055,13255905.151367188,7420807.838439941,6965577.602386475,657476.9020080566,1194824.457168579,8130876.541137695,-8102536.201477051,10635989.18914795,16694072.723388672,12812685.012817383,3546053.647994995,2967163.0859375,-1373384.3564987183,-3411865.234375,6872578.6209106445,-8296383.857727051,8715677.261352539,-1459689.3787384033,1358839.511871338,469613.07525634766,138119.02701854706,-5848272.800445557,-6085278.9878845215,6598812.580108643,4669828.89175415,-7651067.25692749,-6803545.4750061035,12461044.311523438,1472044.4679260254,5023547.649383545,-2056595.3254699707,-2199177.9804229736,6628590.106964111,5449542.999267578,8839706.420898438,10330011.367797852,22668798.446655273,569997.0126152039,5194475.173950195,7195679.664611816,6174585.342407227,6156496.524810791,9388335.227966309,9228449.821472168,10031130.79071045,400573.9092826843,5638632.297515869,6556580.066680908,6849358.081817627,14817684.173583984,29387945.1751709,9353164.672851562,5622825.145721436,5745482.444763184
0.39,19439756.393432617,1306669.7120666504,2403665.30418396,-1767752.1705627441,3415218.1148529053,12880990.982055664,9153980.255126953,8060246.467590332,10180064.20135498,2186228.036880493,1748914.8378372192,-4976089.954376221,-4629972.9347229,535574.1381645203,-4839320.182800293,10928118.705749512,14943773.26965332,10433822.631835938,1292055.2492141724,705689.1322135925,-3763218.879699707,-6130349.636077881,4944081.3064575195,-6855738.162994385,9448606.491088867,-2570892.572402954,-417626.5299320221,146107.36072063446,-916302.4425506592,-6984889.507293701,-7361594.200134277,4653529.167175293,6789959.907531738,-6956854.820251465,-7286460.399627686,11880360.60333252,1239520.54977417,3959552.28805542,-3204706.1920166016,-3372688.5318756104,5090666.770935059,7197471.141815186,9539385.795593262,10008631.706237793,22605264.66369629,471683.3829879761,4310615.539550781,5824543.9529418945,4855569.839477539,4992355.823516846,10606713.29498291,10730628.967285156,9127434.730529785,162500.41127204895,4514176.845550537,5277266.502380371,5541209.697723389,16799215.31677246,31157266.61682129,10467839.241027832,4740796.5660095215,5080118.656158447
0.395,18595245.361328125,1026062.9653930664,2193520.3075408936,-1875844.8362350464,2468011.3792419434,10804821.968078613,6474767.208099365,5662140.846252441,7354417.80090332,-90498.93915653229,-540534.496307373,-5114807.605743408,-4847153.186798096,1255060.7919692993,-5120040.8935546875,9797554.016113281,13025074.95880127,8491044.044494629,-76898.28425645828,-583216.0711288452,-3758518.2189941406,-4812750.339508057,5526703.834533691,-8194958.686828613,8127252.578735352,-3960464.9543762207,-1358923.316001892,-105934.35913324356,-458401.8886089325,-6236825.942993164,-6721734.046936035,5176847.9347229,6011385.917663574,-7836951.732635498,-9309228.897094727,11030207.633972168,1064675.8079528809,4400310.99319458,-2546495.6760406494,-2726740.1218414307,5846136.569976807,6208954.334259033,8847414.016723633,8982256.889343262,22391212.463378906,217810.86921691895,4999040.603637695,6390254.497528076,5460981.369018555,5735249.996185303,10343683.242797852,10463529.586791992,8267561.912536621,-70512.93551921844,5151151.657104492,5870560.646057129,6217709.064483643,15498775.482177734,31041704.177856445,11063964.84375,5424252.986907959,5773340.225219727
0.4,22027875.900268555,6511308.670043945,8453474.044799805,-1735452.1751403809,7014204.025268555,10493129.73022461,7567791.46194458,7357928.276062012,8454779.624938965,1959723.3533859253,1545474.7676849365,-1995368.5998916626,-1660413.0268096924,5740546.226501465,-5245111.465454102,10767394.065856934,14232951.164245605,9336497.30682373,772364.9740219116,339180.20129203796,-2451166.3913726807,-2193692.207336426,6815935.6117248535,-9274650.573730469,8306818.008422852,-2903461.456298828,-364033.69903564453,-5124.512128531933,707992.1960830688,-5428763.389587402,-5858404.159545898,6449376.106262207,5267930.507659912,-8065180.778503418,-9931298.25592041,11031002.99835205,1161142.7068710327,5300107.955932617,-1618002.8915405273,-1778226.9716262817,7068833.827972412,5628120.899200439,8755348.205566406,9550949.096679688,23052686.69128418,213871.74725532532,6008515.357971191,7406928.539276123,6386436.939239502,6749462.127685547,10340310.096740723,10201516.151428223,9287278.175354004,-8615.88679254055,6173937.797546387,6785062.789916992,7370249.271392822,12407243.728637695,30025045.39489746,10577280.044555664,6375533.103942871,6417772.7699279785
0.405,24128963.470458984,8057305.335998535,9409158.706665039,-1271537.0655059814,9028793.334960938,13761786.460876465,10477557.182312012,10677948.951721191,11360052.108764648,4401494.50302124,4112611.2937927246,-1365673.4228134155,-932456.7914009094,5088799.953460693,-1951207.160949707,14204623.222351074,17505674.362182617,11702857.971191406,2689693.2125091553,2286370.277404785,-2397594.213485718,-2571172.4758148193,5932633.876800537,-7572181.224822998,11561561.584472656,53829.1297852993,1310418.725013733,306192.9941177368,562347.1736907959,-6588419.437408447,-6904739.856719971,5687951.564788818,7609066.963195801,-6174143.314361572,-8365386.009216309,11686720.848083496,1355778.5749435425,4787706.37512207,-2895448.4462738037,-2935333.9672088623,6133692.741394043,8088679.313659668,10546576.499938965,11840553.283691406,24075046.53930664,469356.9839000702,5352967.262268066,6581763.744354248,5449385.643005371,5785133.838653564,11956676.483154297,11681943.893432617,11462379.455566406,268781.8706035614,5527338.027954102,5896482.467651367,6701861.381530762,12914156.913757324,30562166.213989258,10166805.267333984,5793051.719665527,5606604.57611084
0.41,20603300.094604492,1405552.2680282593,991109.1327667236,-669733.7627410889,4706140.995025635,16475084.30480957,10969894.409179688,11129073.143005371,11697107.315063477,3951276.3023376465,3786603.2123565674,-4699506.2828063965,-4254952.907562256,-2149214.744567871,2470607.5191497803,16420473.098754883,19140743.255615234,12946029.663085938,3849534.034729004,3446500.539779663,-4231901.168823242,-6196455.001831055,2850798.8452911377,-4999995.708465576,14733352.661132812,1619528.4128189087,1896961.9274139404,516919.97051239014,-1210981.2498092651,-9341756.820678711,-9698963.165283203,2810659.646987915,11039361.953735352,-4215956.211090088,-7011816.024780273,12010109.901428223,1412983.775138855,2759682.1784973145,-6196074.00894165,-6069498.538970947,3166527.509689331,11226074.21875,12447238.92211914,13305869.102478027,24154214.85900879,613417.92345047,3081740.8561706543,3948551.1779785156,2903724.6704101562,3076736.9270324707,13503793.716430664,13325618.743896484,12097694.396972656,441607.8329086304,3306989.6697998047,3418275.5947113037,4141452.3124694824,17577379.22668457,32354850.76904297,10612274.169921875,3747446.5370178223,3759440.6604766846
0.415,16015539.169311523,-4800662.517547607,-6210549.354553223,-249967.24724769592,160556.53989315033,15502166.748046875,9077011.108398438,8980108.261108398,9698794.3649292,2716159.3437194824,2583217.8592681885,-7064245.700836182,-6677237.033843994,-7655394.077301025,3389455.0800323486,14900070.190429688,18284883.499145508,12978515.625,4429266.452789307,3978119.6117401123,-5393283.843994141,-8556082.725524902,542697.7872848511,-5554490.089416504,14069983.48236084,243170.70841789246,1357412.576675415,569160.6402397156,-2299658.5369110107,-10993531.227111816,-11531984.329223633,601814.1508102417,10557946.20513916,-5280559.062957764,-7966743.946075439,11704518.31817627,1377150.297164917,1104350.5668640137,-8407338.14239502,-8211426.734924316,922427.6542663574,10196722.030639648,11555841.445922852,11987080.574035645,23099451.065063477,472801.6257286072,1315187.5734329224,1923553.3475875854,1067320.2276229858,1121487.021446228,11892686.84387207,11764462.4710083,9673541.069030762,377509.4449520111,1586969.7332382202,1594275.3553390503,1983853.3401489258,19530883.7890625,32104667.66357422,10402769.088745117,2022840.7382965088,2399717.5693511963
0.42,17489791.870117188,-1306956.8872451782,-1969077.8255462646,-206808.00080299377,2244810.8196258545,13592819.213867188,8778825.759887695,8578780.174255371,9586863.51776123,4185555.4580688477,4028732.7766418457,-4354588.985443115,-4010961.0557556152,-4535561.561584473,1068955.1830291748,12175350.189208984,17905685.424804688,13761707.305908203,5645097.255706787,5085372.447967529,-3671966.314315796,-6356970.78704834,1072671.5326309204,-9074805.25970459,10763855.934143066,-1747655.0340652466,965872.4069595337,644389.2121315002,-928532.7196121216,-9849248.886108398,-10441684.72290039,1030630.350112915,5741586.685180664,-8694889.068603516,-10028841.018676758,11436678.886413574,1426480.770111084,1208925.9624481201,-7504801.273345947,-7375824.451446533,1217755.5561065674,4803882.122039795,8232672.691345215,9361119.270324707,22215175.62866211,341841.51887893677,1477746.9635009766,2159624.8149871826,1255871.4151382446,1430239.7966384888,7396254.539489746,7136174.201965332,6052956.581115723,270549.11851882935,1640496.015548706,1748200.8934020996,1974875.9269714355,14049109.45892334,28652130.126953125,7829756.736755371,1802149.0573883057,2185867.7864074707
0.425,23870800.018310547,7544015.884399414,8008087.158203125,-459178.3583164215,7943797.588348389,15217832.565307617,11626004.219055176,11537083.625793457,12740279.197692871,6994346.618652344,6833935.737609863,320716.35127067566,623107.6717376709,2997334.2418670654,1105772.0184326172,12668308.25805664,20067440.032958984,15590538.97857666,6910411.834716797,6270920.276641846,-888347.3873138428,-2255774.2595672607,3017083.8832855225,-10332084.655761719,9799579.620361328,-1331321.2394714355,1308763.5040283203,813735.7234954834,1292591.2141799927,-7620437.6220703125,-7991336.345672607,2800624.8474121094,2761854.887008667,-10077274.322509766,-10428782.46307373,11747103.691101074,1540556.9076538086,2261044.2638397217,-5317916.393280029,-5284857.749938965,2803576.2310028076,988914.6089553833,6506864.070892334,8763402.938842773,22624204.635620117,516960.084438324,2615721.9409942627,3523146.152496338,2302592.2775268555,2743054.8667907715,4388527.870178223,4078081.1309814453,4726856.708526611,326503.5152435303,2523245.334625244,2816071.5103149414,3253633.975982666,6355552.673339844,25565093.994140625,4216135.9786987305,2416413.0687713623,2423339.605331421
0.43,27625652.313232422,10101033.210754395,10108303.07006836,-727263.5698318481,8970420.837402344,20248321.533203125,14557949.06616211,14580335.61706543,15713593.482971191,6900417.327880859,6720830.917358398,879330.575466156,1058260.6792449951,5234275.817871094,6763338.565826416,16921176.91040039,22978460.31188965,16475481.033325195,6368012.90512085,5808596.134185791,-723166.1677360535,-1300288.5580062866,3639414.3104553223,-5884862.899780273,13424565.315246582,1300279.8557281494,1760571.5990066528,900825.3216743469,1494397.521018982,-7265434.741973877,-7365288.734436035,3366984.1289520264,6699603.080749512,-6887492.656707764,-8606021.881103516,12331920.623779297,1518864.0356063843,2616358.757019043,-4923436.164855957,-4914172.649383545,3346241.7125701904,3566553.831100464,9017976.760864258,11275229.454040527,23871707.916259766,801609.5161437988,2988185.167312622,3878309.0114593506,2424917.697906494,3015841.007232666,5872022.1519470215,5797876.834869385,6703568.935394287,468649.2681503296,2713483.0951690674,3098137.140274048,3783129.6920776367,4935501.575469971,26420337.677001953,2836612.9398345947,2606449.842453003,2345921.9932556152
0.435,26490179.06188965,5374875.068664551,3492683.4106445312,-777623.1169700623,5081021.785736084,23873395.919799805,14817518.23425293,14808826.446533203,15758330.345153809,4151276.5884399414,3837824.3446350098,-2515623.3310699463,-2512286.424636841,603388.7267112732,13470056.533813477,20767955.780029297,23803096.771240234,15427877.426147461,4312585.830688477,3991724.0142822266,-3136341.5718078613,-3614985.466003418,2614176.7501831055,155577.60000228882,17928922.653198242,3191520.6909179688,1682752.8476715088,721040.7257080078,-107935.54037809372,-8818623.542785645,-8938323.020935059,2412675.8575439453,14086540.222167969,-2193363.904953003,-6857900.619506836,12489258.766174316,1279722.3329544067,2102662.3249053955,-6298358.44039917,-6246737.480163574,2539744.3771362305,9555544.85321045,13015400.886535645,14342308.044433594,24604448.318481445,740831.3155174255,2462963.819503784,3031728.744506836,1595081.2101364136,2190255.641937256,9095266.342163086,9301304.817199707,9041957.85522461,453158.34879875183,2175918.5791015625,2515112.6384735107,3132581.949234009,9519559.860229492,29430406.57043457,4465658.187866211,2247480.869293213,2103269.577026367
0.44,26034057.6171875,4748050.689697266,2053760.051727295,-618266.0460472107,5264352.798461914,21467256.546020508,13456044.19708252,13365115.16571045,14352304.458618164,3933464.527130127,3396856.7848205566,-2974907.875061035,-3021567.3446655273,-1694296.4792251587,13400652.885437012,20004394.53125,22243734.35974121,13881800.651550293,3482509.6130371094,3387513.1607055664,-3813588.1423950195,-3769165.277481079,2326344.0132141113,135415.1964187622,17887113.571166992,2217834.47265625,1062776.4463424683,351801.5444278717,-328007.7874660492,-9065618.515014648,-9513607.025146484,2132760.2863311768,16456958.770751953,-1315969.8247909546,-7411149.501800537,11848409.652709961,995644.4501876831,2098125.93460083,-6413645.7443237305,-6309465.408325195,2317156.3148498535,11540237.426757812,13416468.620300293,14820879.936218262,24210700.98876953,275147.2592353821,2500155.210494995,2878349.0657806396,1428332.4480056763,2091590.6429290771,9013447.761535645,9182976.722717285,8328393.936157227,222445.38366794586,2201014.518737793,2524293.6611175537,2944757.2231292725,11842858.31451416,29820201.873779297,6294564.247131348,2361820.2209472656,2409896.1353302
0.445,29476007.46154785,14395726.203918457,14028423.309326172,-441686.15341186523,14275970.458984375,12338044.166564941,12375854.4921875,12297393.798828125,13594290.733337402,8498108.863830566,7829368.114471436,3637858.6292266846,3773502.826690674,6023609.161376953,4771712.303161621,14638449.668884277,19901212.692260742,13096470.832824707,5136559.009552002,5087801.933288574,-104360.22281646729,1888568.40133667,4658706.6650390625,-7706110.000610352,12329302.787780762,-934272.7065086365,-15480.207279324532,77756.14410638809,2304291.009902954,-5829807.758331299,-6579278.945922852,4257010.459899902,10832178.115844727,-5550387.382507324,-10038766.860961914,10581940.650939941,912376.0461807251,3551724.672317505,-3525248.7659454346,-3395588.159561157,4250248.908996582,6960599.422454834,9262117.385864258,12460995.6741333,23219526.290893555,-137555.8227300644,4071172.7142333984,4799424.648284912,3098324.775695801,3953430.8910369873,5140635.013580322,5004100.322723389,4953731.060028076,1577.6819782331586,3678805.112838745,4202486.038208008,4688006.87789917,8056400.299072266,26807859.420776367,6101799.964904785,3757671.117782593,3694907.4268341064
0.45,31741254.806518555,25354560.85205078,29537843.704223633,-379227.8468608856,24845617.294311523,-173658.47527980804,10885621.070861816,10900437.355041504,12462904.930114746,13333235.740661621,12756338.119506836,12790926.933288574,13208717.346191406,19646821.975708008,-6091302.394866943,8253364.562988281,17677738.189697266,12317969.32220459,7148478.984832764,6973628.997802734,5087797.64175415,10060020.446777344,8574580.192565918,-16955297.470092773,5349113.464355469,-4123691.0820007324,-1517200.5891799927,83955.0569653511,5277492.046356201,-1018703.6991119385,-1766523.3612060547,7839243.412017822,3042749.8817443848,-11074348.449707031,-12840982.437133789,9266120.910644531,1103941.798210144,5711921.215057373,415758.1329345703,521161.37742996216,7555742.7406311035,840784.9669456482,4755676.26953125,9616963.386535645,22261602.4017334,-100366.83082580566,6363784.7900390625,7829443.454742432,5909196.853637695,6891513.347625732,1893481.969833374,1551919.8179244995,2407718.1816101074,5438.011605292559,6036723.1369018555,6925062.17956543,7669653.415679932,3824608.564376831,24634296.417236328,5122492.790222168,5999949.4552612305,5627009.391784668
0.455,27177429.19921875,25981746.673583984,34004364.013671875,-375940.6507015228,27273303.985595703,-11205716.133117676,7601833.820343018,7654792.308807373,9228029.251098633,13557725.90637207,13216424.942016602,17107824.325561523,17674827.575683594,28661258.697509766,-12393840.789794922,4050282.0014953613,15522818.565368652,10730750.08392334,7307540.416717529,6994823.932647705,7172548.770904541,14500134.468078613,11262866.973876953,-20975517.27294922,1168288.8269424438,-6026300.90713501,-2936698.9135742188,269508.3022117615,5621347.427368164,1677100.0623703003,1152446.6276168823,10337856.29272461,-236177.2507429123,-14016539.573669434,-14511332.511901855,8564160.346984863,1410263.5383605957,6996916.2940979,2239761.8293762207,2271483.1829071045,9889544.486999512,-1272601.0084152222,3556276.321411133,8113242.149353027,21293607.711791992,263999.5217323303,7672111.034393311,9707834.243774414,7927080.154418945,8888647.079467773,2030083.6563110352,1757398.1285095215,2461318.9697265625,154053.85196208954,7740231.513977051,8889966.011047363,9679207.801818848,5043650.6271362305,26051467.895507812,5244032.382965088,7663423.538208008,7170866.012573242
0.46,18591337.203979492,17739263.5345459,27175418.853759766,-371371.38843536377,22066225.051879883,-17640226.364135742,3785564.661026001,3766525.2685546875,5267104.148864746,10664357.18536377,10483888.626098633,15308495.52154541,15820637.702941895,28970674.514770508,-13967650.413513184,2283097.982406616,13804286.003112793,9386165.618896484,6504009.72366333,6178527.83203125,5741900.92086792,13472126.960754395,11171781.539916992,-20236429.21447754,172035.8282327652,-6832621.097564697,-3556803.9417266846,407278.6569595337,3832794.666290283,1074675.7984161377,718645.0958251953,10368827.819824219,596230.9837341309,-14598414.421081543,-15198546.409606934,8674372.673034668,1576310.8730316162,6706814.289093018,1208014.965057373,1167992.7110671997,9813642.501831055,-38036.45074367523,4422728.538513184,7576473.712921143,20056339.263916016,547133.2669258118,7205173.015594482,9327911.376953125,7884007.453918457,8843218.803405762,3009628.0574798584,2881273.2696533203,3007994.6517944336,185901.13520622253,7687409.400939941,8844087.600708008,9401304.244995117,8997412.68157959,28190336.227416992,5511218.547821045,7616491.317749023,7303227.90145874
0.465,13672860.145568848,11468094.825744629,20844249.725341797,-496497.15423583984,17457620.62072754,-19831903.4576416,1855794.1913604736,1754062.6525878906,3296968.698501587,9333773.612976074,9109208.106994629,12137783.05053711,12523218.154907227,25845884.323120117,-15108914.375305176,1326834.797859192,13088700.294494629,9376552.58178711,6681691.1697387695,6434805.393218994,4079000.949859619,10760820.388793945,9475087.16583252,-19675655.364990234,47397.442162036896,-7424960.136413574,-3594896.3165283203,426350.2359390259,2554545.4025268555,-839153.5878181458,-1204709.6490859985,8980358.123779297,515761.49463653564,-15357180.59539795,-15592486.381530762,9017019.271850586,1473589.6587371826,5675475.597381592,-703756.7496299744,-757365.4055595398,8256605.14831543,72986.1930012703,4007505.8937072754,6904757.976531982,18793470.38269043,569632.887840271,5883996.486663818,7827693.462371826,6501316.547393799,7563276.767730713,1457233.5481643677,1326363.3251190186,1640100.121498108,33995.57247757912,6357851.028442383,7417321.681976318,7842442.512512207,9148788.452148438,27067687.98828125,4031238.079071045,6289702.892303467,6193397.045135498
0.47,14835997.581481934,11896151.542663574,21624185.56213379,-932761.013507843,17367721.557617188,-20266664.505004883,1557710.6475830078,1473480.8206558228,3064421.4153289795,10148000.717163086,9753025.05493164,11287718.772888184,11624345.779418945,25391332.626342773,-17797935.485839844,177558.69030952454,12827894.21081543,9503954.887390137,7352896.690368652,7105630.874633789,4072971.820831299,10197896.003723145,8716658.592224121,-21432018.280029297,-821355.1044464111,-8435771.942138672,-4233678.340911865,443676.05447769165,2661989.212036133,-1803682.9233169556,-2253965.6162261963,8407025.337219238,-2423161.9834899902,-17093832.01599121,-16035272.598266602,8800767.89855957,1222514.9869918823,5401213.645935059,-1368625.4024505615,-1396304.726600647,7557604.3128967285,-2457121.1338043213,1977644.2050933838,6103842.735290527,18039134.979248047,484466.8507575989,5453821.182250977,7386884.2124938965,5897491.931915283,6995305.061340332,-1545252.9191970825,-1780158.4005355835,-550738.6922836304,-67721.76176309586,5612201.21383667,6701499.938964844,7274260.997772217,5134323.1201171875,23632837.295532227,1927605.390548706,5556629.657745361,5501528.263092041
0.475,17370910.64453125,13859546.661376953,25102655.4107666,-1590482.3541641235,18314506.53076172,-21123416.900634766,371718.1086540222,373742.40159988403,1881055.474281311,9886836.051940918,9386496.543884277,12244096.755981445,12630876.541137695,28082010.26916504,-20498407.3638916,-1030728.2209396362,11744711.875915527,7909094.81048584,6701004.505157471,6272203.44543457,4599839.687347412,11900784.492492676,10238870.620727539,-23820871.353149414,-2458682.5370788574,-9983611.106872559,-5977912.902832031,519519.9251174927,2832471.6091156006,-1335107.684135437,-1828967.6904678345,9803770.065307617,-5646462.917327881,-18577453.61328125,-16644710.540771484,7948725.22354126,1069237.1129989624,6566371.440887451,-374818.0866241455,-409712.67223358154,9048152.923583984,-5128914.356231689,798355.1025390625,5798890.590667725,17885353.088378906,453839.9279117584,6740199.089050293,9033780.097961426,7397193.431854248,8368041.038513184,-2482382.7743530273,-2751059.055328369,-786687.6125335693,70317.47698783875,6849650.859832764,8106481.552124023,8827900.886535645,2389534.4734191895,22012783.05053711,2064657.211303711,6821372.509002686,6697662.830352783
0.48,16922218.322753906,12716611.862182617,26131200.790405273,-2085662.3649597168,17387639.99938965,-23298242.568969727,-2300238.847732544,-2253664.970397949,-787368.8340187073,7915545.463562012,7491446.495056152,13499586.10534668,13963556.289672852,31204601.287841797,-22384656.90612793,-2209987.6403808594,9801963.806152344,5359394.073486328,5187951.564788818,4530182.838439941,4616783.142089844,13957750.32043457,12819333.07647705,-25842702.865600586,-4606820.583343506,-11717615.127563477,-7637447.357177734,528935.9092712402,2387307.643890381,-199605.16691207886,-711009.9792480469,12065702.438354492,-7116655.8265686035,-19258445.739746094,-17540729.522705078,7200949.668884277,1120003.8194656372,8224114.418029785,1194342.2555923462,1094332.9334259033,11521966.934204102,-6162238.597869873,1402779.221534729,5803587.436676025,17947628.021240234,433085.0541591644,8632058.143615723,11475812.911987305,9856916.427612305,10741181.373596191,-1022937.1786117554,-1233955.74092865,981520.4739570618,273849.1892814636,9153472.900390625,10538146.97265625,11190913.200378418,3206591.3677215576,23053997.039794922,4110739.7079467773,9123159.408569336,8947606.086730957
0.485,14461995.124816895,10469061.851501465,25682380.67626953,-2124107.3608398438,16431566.23840332,-26239742.279052734,-3840227.8423309326,-3804963.8271331787,-2143760.6811523438,7367401.599884033,7146068.096160889,14700192.45147705,15200213.432312012,32869956.970214844,-24276517.868041992,-3283074.6173858643,8755002.975463867,4658455.371856689,5143431.186676025,4470268.726348877,4704401.969909668,15047092.43774414,13698807.716369629,-28055410.385131836,-6749680.042266846,-12723083.49609375,-7632524.013519287,363980.17406463623,2172499.418258667,523665.3685569763,-37903.68512272835,12721182.823181152,-7492107.86819458,-19713581.085205078,-18362009.048461914,7294053.077697754,1234854.9365997314,8475804.328918457,1777909.755706787,1604227.5428771973,12210627.555847168,-6542536.25869751,2141559.839248657,5524165.153503418,18066085.815429688,309324.0261077881,8943858.14666748,12094239.234924316,10527424.812316895,11513026.237487793,-113429.10677194595,-317187.96491622925,2109680.17578125,207116.961479187,9821542.739868164,11182539.939880371,11745911.598205566,3996611.3567352295,23472888.946533203,4377089.500427246,9761976.24206543,9524368.286132812
0.49,13516969.680786133,10126923.561096191,25417001.724243164,-1848449.3494033813,16911050.79650879,-27075967.78869629,-1851097.583770752,-1776577.7111053467,73883.0640912056,9537904.739379883,9492930.41229248,14856382.369995117,15329381.942749023,31671363.830566406,-24643463.134765625,-2766597.9862213135,10370499.610900879,6846296.787261963,6881301.403045654,6469068.0503845215,4874395.847320557,14415508.270263672,11205286.979675293,-28736373.901367188,-6920484.0660095215,-11672962.188720703,-5863541.126251221,151771.03877067566,2419844.86579895,-304005.35464286804,-919494.7481155396,10265134.811401367,-6717580.318450928,-19344619.750976562,-17982103.34777832,8344609.260559082,1218718.2903289795,6304367.0654296875,281057.5067996979,77842.13870763779,9554130.554199219,-6658112.049102783,2288657.6652526855,5527400.970458984,18559171.676635742,121943.43656301498,6627001.762390137,9458916.664123535,7931796.550750732,8960163.116455078,-853381.335735321,-1180147.7670669556,1483991.9805526733,-150905.26640415192,7272228.240966797,8508301.734924316,9160322.189331055,2250890.4933929443,21632936.477661133,1499539.852142334,7260549.545288086,6903968.334197998
0.495,15649344.444274902,10466465.950012207,23025659.561157227,-1684793.5914993286,16311296.463012695,-21586677.55126953,2852832.555770874,3079208.6124420166,4697203.159332275,11379497.528076172,11384569.16809082,11902378.08227539,12310392.379760742,26037830.352783203,-19286567.68798828,1546737.1940612793,14553023.338317871,9941051.483154297,7930368.900299072,7781224.727630615,3469954.252243042,11297180.17578125,6369997.978210449,-24028041.83959961,-2914227.7240753174,-7924883.3656311035,-3632425.546646118,120330.75094223022,1811975.4791259766,-3280730.962753296,-3868775.8445739746,5652584.552764893,-2659416.675567627,-16274303.436279297,-15546805.381774902,9981101.036071777,1060374.2599487305,2700478.3153533936,-3180828.094482422,-3354987.382888794,4806447.0291137695,-4458516.597747803,3595406.7707061768,7203463.077545166,19609689.712524414,42681.0197532177,2924572.467803955,4816117.763519287,3464702.844619751,4185158.7295532227,-927143.5141563416,-1399017.4531936646,906538.188457489,-444737.3151779175,2880545.6161499023,3970295.6676483154,4689486.026763916,849412.9180908203,20247585.29663086,-1075161.4570617676,3071206.3312530518,2658076.524734497
0.5,19611793.518066406,9402611.73248291,17040561.67602539,-1824045.181274414,12617845.53527832,-8909222.602844238,7509274.959564209,7925489.42565918,8945453.643798828,10237699.508666992,10182582.85522461,5792374.610900879,6149255.275726318,16724260.330200195,-7531121.730804443,9287911.415100098,19436225.89111328,11816332.817077637,6730033.874511719,6522481.918334961,-361691.1172866821,5937859.535217285,1758708.8346481323,-13920546.531677246,4342782.497406006,-2793161.153793335,-2032046.7948913574,289976.8352508545,-516806.960105896,-7615153.3126831055,-8071695.327758789,1272007.1077346802,4904419.898986816,-10511831.283569336,-11769154.54864502,11668701.171875,922150.1350402832,-344444.8113441467,-7286745.071411133,-7379825.592041016,625560.9393119812,1082347.3930358887,7130268.096923828,10589699.745178223,20843194.96154785,171527.59432792664,-11500.963009893894,753979.8021316528,-269341.20059013367,-13872.428797185421,1162294.3878173828,678929.6865463257,1779527.0681381226,-394009.41133499146,-671897.5901603699,247472.46503829956,767101.4070510864,2997098.207473755,21862852.096557617,-57077.556848526,-210141.70348644257,-470976.1440753937
0.505,23179573.05908203,8447602.272033691,11534556.38885498,-1989612.340927124,8674914.360046387,5278479.099273682,10477925.300598145,11020224.571228027,11586916.92352295,7931671.619415283,7771807.670593262,-21959.634497761726,331629.6935081482,8088706.016540527,4609540.4624938965,16517766.952514648,23053459.16748047,12601833.34350586,4845454.692840576,4271133.4228515625,-4693703.174591064,466818.54128837585,-956093.0132865906,-4383230.686187744,10549009.323120117,975101.888179779,-1109161.9729995728,464593.44029426575,-3381429.91065979,-11487805.366516113,-11762024.879455566,-1300338.5066986084,12052146.911621094,-5084632.873535156,-8429595.947265625,12849213.600158691,952017.1284675598,-1745834.5890045166,-10453465.461730957,-10459617.614746094,-1491125.8220672607,7120851.516723633,10937048.91204834,13820359.230041504,21798839.569091797,435294.35992240906,-1250021.9345092773,-1297115.9219741821,-2092472.791671753,-1971411.2281799316,3593956.708908081,3216585.397720337,3085635.4236602783,-100436.38944625854,-2191352.8442382812,-1508945.7035064697,-1255271.9116210938,6893359.661102295,24871692.657470703,3085153.818130493,-1568208.8136672974,-1559648.3945846558
0.51,24570102.69165039,9928707.122802734,11155426.979064941,-1830138.8025283813,8403936.386108398,12976987.838745117,11894574.165344238,12465709.686279297,13012883.186340332,7682734.489440918,7401709.55657959,-2068397.2835540771,-1685972.9290008545,4361291.885375977,10586093.90258789,19589590.072631836,24655605.31616211,13331143.379211426,4369309.902191162,3446541.3093566895,-6806061.267852783,-2482833.14704895,-1761268.3773040771,-821539.044380188,12497509.956359863,1627230.2865982056,-557330.4891586304,531699.2402076721,-4908506.870269775,-13484608.65020752,-13581890.106201172,-2049213.8862609863,14986581.802368164,-2607633.113861084,-6573038.101196289,13161184.310913086,1159302.4730682373,-1762178.5402297974,-11766659.7366333,-11774751.663208008,-1824166.7747497559,10052035.331726074,12650424.003601074,15333079.33807373,22435180.6640625,696947.6938247681,-1268723.1302261353,-1656681.6568374634,-2502420.9022521973,-2088685.7509613037,4555477.142333984,4227492.809295654,3877189.874649048,188573.4349489212,-2239953.2794952393,-1852582.8123092651,-1559680.700302124,8803627.014160156,26416187.286376953,4935338.973999023,-1639166.1167144775,-1526503.6821365356
