time,Fp1,Fpz,Fp2,AF3,AF4,F7,F5,F3,F1,Fz,F2,F4,F6,F8,FT7,FC5,FC3,FC1,FCz,FC2,FC4,FC6,FT8,T7,C5,C3,C1,Cz,C2,C4,C6,T8,TP7,CP5,CP3,CP1,CPz,CP2,CP4,CP6,TP8,P7,P5,P3,P1,Pz,P2,P4,P6,P8,PO7,PO5,PO3,POz,PO4,PO6,PO8,CB1,O1,Oz,O2,CB2
0.0,2954.1875701397657,301445.6033706665,692984.1637611389,-211748.79372119904,305498.6894130707,9560.203179717064,-171831.98034763336,-173317.0449733734,-206797.07825183868,-78824.37855005264,-62793.98500919342,-101381.1007142067,-98304.3760061264,52889.12728428841,369585.4842662811,-265682.48867988586,-139133.5427761078,76345.3021645546,-34729.886800050735,-57901.035994291306,-206571.3107585907,25396.53889834881,79346.77600860596,-372549.23582077026,-937507.8082084656,-300528.31768989563,-91038.23453187943,43867.047876119614,26106.104254722595,-112010.9036564827,-106643.27442646027,74171.67723178864,-434404.55198287964,-781992.495059967,-246475.65186023712,173287.65988349915,19383.614882826805,46875.84936618805,-258176.83339118958,-284582.1976661682,54232.679307460785,-274005.8898925781,-232363.11972141266,243772.04477787018,-33864.84831571579,-13809.852302074432,83086.15535497665,45873.839408159256,80793.38818788528,22867.022082209587,-108107.42527246475,-161858.32023620605,113112.46454715729,8739.96876180172,74511.8036866188,83579.1826248169,50871.606916189194,-304629.1768550873,203999.75776672363,-10097.812861204147,78189.32831287384,110804.78876829147
0.005,-4394315.242767334,-3812650.680541992,-136983.08169841766,-5015719.890594482,-569625.6160736084,-1859649.0621566772,-5512158.8706970215,-5488721.84753418,-6436397.552490234,-2031359.4341278076,-1167464.6139144897,-4064071.6552734375,-3896825.7904052734,-2818590.4026031494,10275362.014770508,-6889198.780059814,-3383047.8191375732,-1812971.1151123047,-2393862.724304199,-2676558.73298645,-6504589.557647705,-6808337.688446045,-2455335.855484009,790007.5316429138,-14912034.98840332,-4969213.008880615,948801.9347190857,1284025.5498886108,-5157071.590423584,-7334114.074707031,-6595761.299133301,-2678803.2054901123,9957260.131835938,-9877752.304077148,-4566362.8578186035,-1007107.8538894653,880429.9235343933,-2584471.7025756836,-5319854.259490967,-6193958.759307861,-2629929.542541504,4015429.4967651367,584268.6891555786,-2539111.1373901367,201736.59920692444,-335820.64509391785,-1923313.021659851,-2632456.064224243,-1804905.7722091675,-3486958.2653045654,4601246.356964111,3250628.709793091,5953162.670135498,205134.76431369781,-1737011.9094848633,-1787609.2195510864,-2727231.740951538,496665.74597358704,5107256.889343262,1438039.3028259277,-1655430.9129714966,-597090.2442932129
0.01,-5564849.853515625,-4848738.193511963,87068.5800909996,-6980258.941650391,-1691183.8054656982,-1115973.711013794,-8693623.542785645,-8594433.784484863,-9900704.383850098,-4086310.386657715,-3092764.139175415,-6345685.005187988,-6198095.798492432,-3427332.878112793,14012105.941772461,-10641448.974609375,-6073097.705841064,-4096181.869506836,-4738740.44418335,-5313709.259033203,-9840476.989746094,-9959760.665893555,-3602347.6123809814,1288929.2240142822,-21845336.9140625,-7649994.373321533,303437.14356422424,1955184.9365234375,-7667777.061462402,-10339445.114135742,-9259649.276733398,-3961122.2743988037,13189314.842224121,-13826217.651367188,-6674898.624420166,-1625958.5618972778,1372625.5893707275,-3714477.300643921,-7575443.744659424,-8663219.451904297,-3946919.9180603027,5320165.634155273,-228251.99365615845,-4131784.9159240723,515451.25246047974,-104778.10353040695,-2683002.9487609863,-3838220.8347320557,-2836285.5911254883,-4893222.808837891,6981343.746185303,5169404.50668335,9217726.707458496,633323.4906196594,-2500255.346298218,-2826808.214187622,-3943660.4976654053,1951897.5019454956,8963130.950927734,3227026.2241363525,-2282968.044281006,-843953.4902572632
0.015,-6310141.086578369,-5670534.133911133,-1143724.799156189,-6429793.357849121,-3895515.4418945312,-849220.6335067749,-10393689.155578613,-10277830.123901367,-11395386.695861816,-6224526.405334473,-5700766.563415527,-7298151.969909668,-7240580.5587768555,-3513284.206390381,10887907.981872559,-12239277.839660645,-8375069.618225098,-6514974.594116211,-6312123.2986450195,-7089033.126831055,-9912091.255187988,-9789009.094238281,-3685809.850692749,-239960.98339557648,-22671461.10534668,-8741870.880126953,-1586002.3498535156,2030568.5997009277,-7414651.393890381,-9304622.650146484,-8314826.965332031,-4017258.1672668457,9384822.845458984,-13660308.837890625,-7021251.678466797,-1922130.2270889282,1416303.1578063965,-3534416.675567627,-6918231.010437012,-7644402.503967285,-4120262.622833252,3258137.2261047363,-2856103.6586761475,-4859925.746917725,373616.7848110199,369767.09961891174,-2456704.3781280518,-3779990.6730651855,-3108481.6455841064,-4614785.671234131,5999798.29788208,4506577.968597412,8951093.673706055,1007632.3747634888,-2505087.13722229,-3154942.274093628,-3872218.8472747803,2686721.8017578125,10056624.412536621,4144719.123840332,-2124416.5897369385,-903866.4698600769
0.02,-10274919.509887695,-9619829.177856445,-5269354.343414307,-5829341.888427734,-6831908.226013184,-4502783.77532959,-12195496.559143066,-12227999.687194824,-13063414.573669434,-7816752.4337768555,-7665333.271026611,-7842902.183532715,-7745367.050170898,-5257036.209106445,5679269.313812256,-14048189.163208008,-10403670.310974121,-8045068.740844727,-6269805.908203125,-7041437.149047852,-8468888.282775879,-8904710.76965332,-3576203.5846710205,-3841639.0419006348,-23180566.787719727,-9866885.1852417,-2861868.6199188232,1849266.6482925415,-6155847.072601318,-7394538.879394531,-6670584.201812744,-3763910.0551605225,4064210.4148864746,-14099319.458007812,-7626498.699188232,-2432753.562927246,1165891.8857574463,-3086176.1569976807,-5280932.903289795,-5644270.420074463,-4000413.8946533203,-240029.63304519653,-6263330.459594727,-5968611.240386963,-810600.757598877,336652.7855396271,-2205054.521560669,-3439919.4717407227,-3028447.389602661,-4259851.932525635,2621184.1106414795,1528082.251548767,6188460.350036621,856766.4623260498,-2515588.5219573975,-3141010.9996795654,-3593256.711959839,804332.971572876,7720945.835113525,2803089.8571014404,-1994278.073310852,-1062762.8564834595
0.025,-13953994.750976562,-12751260.757446289,-7644660.472869873,-6447502.136230469,-7625644.207000732,-8184650.421142578,-12931567.192077637,-13157108.306884766,-13944162.368774414,-7443649.2919921875,-7205021.381378174,-7159199.7146606445,-6954924.1065979,-6388123.035430908,4040895.462036133,-15553190.231323242,-10912532.806396484,-7387214.183807373,-4701198.101043701,-5357379.43649292,-6788593.769073486,-7927791.595458984,-2794678.6880493164,-6334230.422973633,-25059650.421142578,-10892120.361328125,-2397075.414657593,1627822.1607208252,-4986447.811126709,-6266667.366027832,-5731555.461883545,-2917637.825012207,1468971.9676971436,-16363481.521606445,-8767436.981201172,-2866300.106048584,810265.3622627258,-2497207.8800201416,-3938527.1072387695,-4302412.509918213,-3322856.4262390137,-2848682.165145874,-9099986.07635498,-7570262.908935547,-2525454.521179199,-318459.4213962555,-1896610.6176376343,-2752700.8056640625,-2277000.4272460938,-3855651.378631592,-678203.5827636719,-1717435.2407455444,3071891.0694122314,231102.1089553833,-2228171.1101531982,-2375753.64112854,-2985674.8580932617,-2948395.4906463623,4184273.2429504395,89274.00410175323,-1568123.698234558,-710462.2721672058
0.03,-10172146.797180176,-8195092.20123291,-2665066.0037994385,-7387644.7677612305,-3612869.2626953125,-4572498.321533203,-9609269.142150879,-9859161.376953125,-10762892.723083496,-4055158.1382751465,-3561778.0685424805,-3950520.5154418945,-3783526.1821746826,-3297413.110733032,8220643.997192383,-13470769.882202148,-8010790.824890137,-3983669.5194244385,-2486917.9725646973,-3095215.5590057373,-4920145.034790039,-5657946.586608887,-364490.270614624,-3791047.0962524414,-24349454.879760742,-9830328.941345215,-489527.73213386536,1404210.2098464966,-3722437.3817443848,-5086389.541625977,-4553679.943084717,-622110.8436584473,2338083.7440490723,-16850393.295288086,-8287276.268005371,-2208267.9271698,541547.7156639099,-1195082.664489746,-2597423.791885376,-3185375.213623047,-1262302.279472351,-2989583.969116211,-10043225.288391113,-8033235.549926758,-3198437.452316284,-905578.3748626709,-721760.3921890259,-959806.6210746765,-320755.9883594513,-2196845.769882202,-1579732.060432434,-2754257.2021484375,1524308.681488037,-278597.05686569214,-752999.1269111633,-340866.47629737854,-1162496.0899353027,-5191685.199737549,2953759.19342041,-1258993.6256408691,66390.61123132706,897845.447063446
0.035,364145.3683376312,2211879.253387451,6874662.399291992,-7563183.307647705,3260405.3020477295,5694217.205047607,-2720781.3262939453,-2834250.9269714355,-3811219.4538116455,1005688.0712509155,1515368.7000274658,379099.3392467499,387292.11688041687,2328249.216079712,15659268.379211426,-7280617.713928223,-2344687.9386901855,657064.7954940796,-663501.501083374,-1272436.499595642,-3127052.7839660645,-2682099.3423461914,2914405.107498169,3278263.807296753,-19011888.50402832,-6344305.992126465,1737967.610359192,1276477.8137207031,-2463762.5217437744,-3393994.092941284,-2680334.0911865234,2474871.873855591,5913545.13168335,-13390231.132507324,-4991578.102111816,-363363.50440979004,549977.1237373352,587688.6248588562,-881509.9596977234,-1636064.052581787,1652739.405632019,-382833.331823349,-8483696.937561035,-6248165.607452393,-1944037.5566482544,-872008.8601112366,1275451.66015625,1597988.247871399,2300746.6793060303,556661.3674163818,373751.7297267914,-869515.1805877686,2231561.8991851807,-246879.57763671875,1650039.0768051147,2262114.2864227295,1513836.145401001,-3571211.814880371,5117098.331451416,297108.85882377625,2573623.1803894043,3278654.3369293213
0.04,7282577.991485596,7748725.414276123,11517262.45880127,-7139886.379241943,7223837.852478027,12627150.535583496,2031384.9449157715,2000089.8838043213,1031851.053237915,4023736.9537353516,4312995.910644531,2367981.433868408,2343261.71875,5056656.360626221,20701154.708862305,-2047077.8942108154,1643682.0030212402,3081606.864929199,-271976.88817977905,-755625.6055831909,-2449180.1261901855,-1583316.2069320679,4918107.986450195,9188467.025756836,-13580067.63458252,-3613273.859024048,2785255.193710327,1344165.0867462158,-2259364.604949951,-2377446.8898773193,-1423173.427581787,4505457.401275635,10414176.940917969,-9408132.553100586,-1382326.7221450806,963301.4798164368,829668.402671814,1855606.5559387207,644983.7684631348,-159585.32691001892,3728721.6186523438,3364508.867263794,-5741961.479187012,-3890861.5112304688,56257.84769654274,-471743.73269081116,2982141.0179138184,3513927.936553955,4272072.315216064,2662966.9666290283,3527209.758758545,2249627.113342285,4349971.294403076,141004.81569766998,3593672.037124634,4028460.5026245117,3485896.587371826,613334.2981338501,8390230.178833008,3504431.962966919,4479760.16998291,5136062.6220703125
0.045,2865553.617477417,2341226.33934021,7277212.142944336,-6781959.533691406,5192616.4627075195,8783270.835876465,-417817.085981369,-514451.38454437256,-1489991.545677185,2333488.4643554688,2450747.25151062,1038945.0788497925,1175374.8655319214,4082421.30279541,18991128.92150879,-3179799.795150757,-155961.9903564453,767861.4258766174,-1992912.769317627,-2192308.9027404785,-3112583.3988189697,-2885172.6055145264,5157039.165496826,9070766.44897461,-13690277.099609375,-4901145.458221436,1491668.8203811646,1468635.3206634521,-3642193.555831909,-2619675.1594543457,-1592477.9176712036,5001667.022705078,12642215.728759766,-9606013.298034668,-1240914.5832061768,-12548.76796156168,1068109.8699569702,2402516.6034698486,1457892.1794891357,635738.6112213135,4432141.304016113,5624063.014984131,-4542052.268981934,-3997366.189956665,683406.5318107605,-290375.79894065857,3829701.9004821777,4340109.825134277,5221990.10848999,3416536.569595337,5578245.639801025,4182406.9023132324,6185932.159423828,426987.9758358002,4484545.707702637,4735468.864440918,4250214.576721191,4252541.542053223,10161020.278930664,6132455.348968506,5266481.399536133,6129043.5791015625
0.05,-8190769.195556641,-7210077.76260376,1060095.4294204712,-6603262.901306152,843069.7917938232,-1953783.7505340576,-8119778.633117676,-8277308.464050293,-9305591.583251953,-2317141.7713165283,-2161671.8769073486,-272776.0076522827,-17189.72995877266,5223313.808441162,11535116.195678711,-9656899.452209473,-6285227.298736572,-4733795.642852783,-5014867.305755615,-4957107.067108154,-3419989.824295044,-3343641.2811279297,5671469.211578369,4246883.869171143,-18793247.22290039,-9153730.392456055,-1601162.6720428467,1412444.7107315063,-5344674.587249756,-2481858.968734741,-1649474.7400283813,5747507.095336914,10563302.040100098,-13664528.846740723,-4885981.08291626,-2723178.8635253906,964915.5735969543,3180132.6274871826,2194958.9252471924,1369796.7529296875,5220044.136047363,5271090.030670166,-6206865.7875061035,-7180612.087249756,-650652.5278091431,-438045.79973220825,4619898.319244385,5313821.315765381,6241527.557373047,4255230.42678833,5372362.6136779785,3855530.9772491455,6424886.226654053,428718.8947200775,5326359.748840332,5678124.42779541,5148374.557495117,5920249.938964844,10254377.365112305,7371516.704559326,6116326.808929443,7245113.372802734
0.055,-15021084.785461426,-10289690.017700195,1352574.7060775757,-6410340.785980225,190483.6744070053,-10226739.883422852,-14173802.375793457,-14256794.929504395,-15302000.999450684,-5273433.685302734,-4947301.387786865,1811352.3721694946,1968157.0529937744,12600750.923156738,3753779.172897339,-15414867.401123047,-11052840.232849121,-8915233.612060547,-6992402.076721191,-6859632.0152282715,-1491297.3642349243,-23325.38366317749,8271127.700805664,-135473.48976135254,-23602987.28942871,-12295047.760009766,-4284845.82901001,1207532.525062561,-5403171.062469482,-145531.0434103012,448905.5871963501,8318265.914916992,6140388.011932373,-17246986.389160156,-8785623.550415039,-4702006.3400268555,630572.7958679199,4849718.5707092285,3933238.744735718,3146398.7827301025,7485698.699951172,3684267.044067383,-9172544.479370117,-10722437.858581543,-2458177.8049468994,-552305.9368133545,6271573.543548584,7551860.332489014,8327659.606933594,6550798.8929748535,3502187.2520446777,2036222.9347229004,4974033.355712891,293503.5228729248,7166284.561157227,7839656.829833984,7364809.036254883,6458733.558654785,10081883.430480957,7885161.876678467,8103805.5419921875,9225481.986999512
0.06,-13850297.927856445,-5891108.989715576,7379770.278930664,-6256720.542907715,4053004.741668701,-12299771.308898926,-14894879.341125488,-14868203.163146973,-15843619.346618652,-4285717.964172363,-3803167.5815582275,6007441.520690918,5999618.5302734375,22126705.169677734,-191175.13298988342,-17105379.104614258,-11560648.918151855,-9312895.774841309,-6417435.646057129,-6336528.778076172,2100389.242172241,5464474.678039551,12028379.440307617,-1528610.2294921875,-25286077.49938965,-12676847.457885742,-5138637.065887451,1119763.6127471924,-3477277.5173187256,3648921.251296997,4283881.664276123,11824636.459350586,3149418.830871582,-18138250.35095215,-10098031.997680664,-4687694.549560547,466989.8450374603,6826295.375823975,6590275.764465332,5845814.228057861,10597544.67010498,2636563.0626678467,-11097309.112548828,-11922635.078430176,-3155539.7510528564,-414726.76396369934,8436141.967773438,10431650.161743164,10980833.053588867,9558408.737182617,1542832.2553634644,310387.87961006165,2892958.164215088,199093.14811229706,9571002.960205078,10547803.87878418,10183972.358703613,6872511.386871338,10340086.936950684,8395285.606384277,10621981.620788574,11486609.45892334
0.065,-10546878.814697266,-2027940.273284912,11452998.161315918,-6225522.518157959,7531104.08782959,-11657742.500305176,-13182632.446289062,-13172281.265258789,-14052749.633789062,-1811300.1585006714,-1257923.4838485718,8032828.330993652,8028005.599975586,26557647.705078125,-1047778.0103683472,-17214284.896850586,-10718703.269958496,-8024687.767028809,-4627830.028533936,-4575130.462646484,4617586.612701416,8790397.644042969,14505291.938781738,-1651341.199874878,-25666967.391967773,-12677244.186401367,-5249458.312988281,1232036.828994751,-1383063.1971359253,6270548.343658447,7205928.325653076,14061402.320861816,2422892.5704956055,-18183645.248413086,-9651338.577270508,-4087483.4060668945,638919.5919036865,8108610.153198242,8774142.265319824,8024651.527404785,12739752.769470215,2123818.6359405518,-11563331.604003906,-11070446.968078613,-2729661.703109741,-196804.12113666534,9931111.335754395,12423334.121704102,12836296.081542969,11486136.436462402,563911.7956161499,-408193.08161735535,1466762.5427246094,198257.61020183563,11236686.706542969,12385356.903076172,11981157.302856445,6830295.085906982,10549064.636230469,8878987.312316895,12249931.335449219,12959997.177124023
0.07,-10962603.569030762,-3763505.458831787,9771181.106567383,-6103244.781494141,6942334.6519470215,-11800161.361694336,-13182155.60913086,-13289443.969726562,-14135777.473449707,-1179660.5587005615,-624958.6343765259,6378300.666809082,6501163.005828857,24647298.81286621,-1684640.884399414,-18792306.900024414,-12018958.09173584,-8173861.503601074,-4070175.6477355957,-3956269.7410583496,4370692.253112793,8256072.044372559,14623925.20904541,-2334681.987762451,-26640811.920166016,-14288661.003112793,-6289336.681365967,1337604.7611236572,-1043823.7190246582,6274881.839752197,7416633.129119873,14117669.105529785,1718697.428703308,-19160890.579223633,-9578464.50805664,-4659345.1499938965,877389.6098136902,8325743.675231934,9258281.707763672,8470752.716064453,13000138.282775879,1228110.3134155273,-11672442.436218262,-10267119.407653809,-2129729.0325164795,-115407.5562953949,10071659.088134766,12786485.67199707,13129207.611083984,11648843.765258789,24193.566292524338,-809777.9750823975,1043390.2740478516,274865.68689346313,11473137.855529785,12703597.068786621,12114157.676696777,5407330.513000488,10172815.322875977,8743660.926818848,12398279.190063477,13214276.313781738
0.075,-13575025.55847168,-7440217.4949646,6329997.539520264,-5746893.882751465,4418584.34677124,-11989958.763122559,-14476520.538330078,-14654521.942138672,-15521081.924438477,-2110245.704650879,-1556689.5008087158,4031418.800354004,4169721.6033935547,21640846.252441406,-2469158.64944458,-20510082.244873047,-14092897.415161133,-9351142.883300781,-4824931.1447143555,-4605567.932128906,2625693.5596466064,6238407.611846924,13195264.81628418,-2697427.51121521,-27051172.256469727,-15705423.355102539,-7607633.113861084,1315910.2201461792,-2343199.9683380127,4627047.538757324,5702156.543731689,12770177.841186523,37180.73293566704,-19953136.444091797,-9827439.308166504,-5785968.30368042,889467.5970077515,7583199.501037598,8072698.593139648,7221717.834472656,11781522.750854492,152109.10141468048,-11849758.14819336,-10363477.70690918,-1799301.266670227,-145725.68237781525,9019835.472106934,11723959.922790527,11992859.840393066,10559324.264526367,-1618439.0783309937,-2487707.3764801025,764658.6894989014,387460.50000190735,10449287.414550781,11694200.51574707,11001324.653625488,2595593.4524536133,9214715.957641602,7365126.132965088,11354803.085327148,12298691.749572754
0.08,-13329561.233520508,-7475141.525268555,6242953.300476074,-5481141.567230225,4291030.8837890625,-10304846.76361084,-13682699.203491211,-13839988.708496094,-14693082.809448242,-1782446.3844299316,-1191721.0817337036,4064861.77444458,4045993.3280944824,21682447.43347168,-1358704.924583435,-19253715.51513672,-13134198.188781738,-8597666.74041748,-4584263.324737549,-4300382.614135742,1710799.3364334106,5332620.620727539,11315129.280090332,-1272121.6678619385,-25300027.84729004,-14139646.530151367,-6972195.625305176,1348469.4957733154,-3511890.649795532,2962434.2918395996,3942502.498626709,10979458.808898926,-705280.1251411438,-18979827.880859375,-8767568.588256836,-5398842.334747314,770377.8743743896,6100077.6290893555,6158570.766448975,5160800.933837891,9829695.701599121,137075.14107227325,-11439310.073852539,-10337601.661682129,-1467579.960823059,-145300.9694814682,7330773.830413818,9699122.428894043,9975254.05883789,8778849.601745605,-4668029.308319092,-5693391.799926758,-146896.91364765167,483912.6169681549,8656550.407409668,9799858.093261719,9178733.825683594,-30345.376580953598,8172909.736633301,5034767.627716064,9534042.358398438,10409022.331237793
0.085,-9119415.283203125,-3909227.3712158203,9405450.820922852,-5709460.258483887,7234302.997589111,-7165017.604827881,-9963674.545288086,-10081275.939941406,-10842832.565307617,648059.1893196106,1260555.9825897217,5754496.5744018555,5614065.647125244,23538446.4263916,2545305.013656616,-15338729.858398438,-8991557.121276855,-5207455.635070801,-2339540.719985962,-2101296.6632843018,2120455.741882324,5247678.756713867,9672400.47454834,1495031.476020813,-22355386.73400879,-10291202.545166016,-4074277.400970459,1614878.535270691,-3405042.4098968506,1906257.5101852417,3012687.6831054688,9378383.63647461,1136313.557624817,-17011611.938476562,-6298855.781555176,-3179399.013519287,845701.4560699463,4628944.873809814,4559940.814971924,3350398.063659668,7988490.104675293,1835048.3179092407,-10118794.441223145,-9219684.600830078,-915282.3090553284,-49453.80613207817,5883900.165557861,7648589.134216309,8102717.399597168,6968651.77154541,-6951858.043670654,-8120529.1748046875,-954577.8632164001,583012.8192901611,7004521.84677124,7933151.2451171875,7424624.443054199,-111427.82121896744,8083152.770996094,3617190.5994415283,7724976.062774658,8498098.373413086
0.09,-4495601.177215576,-708885.1928710938,12285825.729370117,-6307671.070098877,10229175.567626953,-4380308.151245117,-6171817.302703857,-6257000.44631958,-6922864.91394043,2907936.5730285645,3432605.743408203,6470505.714416504,6422049.999237061,24327810.287475586,7605056.285858154,-12115379.333496094,-5527565.002441406,-2079908.6093902588,-180693.50719451904,-82699.9768614769,2593544.4831848145,4522480.010986328,9172099.113464355,4112695.2171325684,-20304319.381713867,-7579794.406890869,-1426171.3027954102,1961223.7215042114,-2639241.6954040527,1491855.7405471802,2772658.109664917,8928973.197937012,4362277.030944824,-15800426.483154297,-4320873.737335205,-1280318.4986114502,1190293.4312820435,4475452.423095703,4103629.5890808105,2809256.076812744,7507424.354553223,4749447.822570801,-8420042.991638184,-7369204.998016357,-263824.61190223694,116939.57448005676,5818839.073181152,7179934.978485107,7856666.564941406,6456199.645996094,-6010319.709777832,-7203034.8777771,-115868.68017911911,770144.7606086731,6852073.669433594,7592163.0859375,7148329.257965088,3229785.203933716,9862010.00213623,5115942.95501709,7379225.730895996,8296950.340270996
0.095,-2583596.94480896,193082.69023895264,13048488.61694336,-6743474.960327148,11069061.279296875,-2824980.9741973877,-4906012.535095215,-4923859.119415283,-5592838.287353516,2993078.7086486816,3342429.3994903564,5733352.6611328125,5899637.699127197,23945875.16784668,11457015.991210938,-11334586.143493652,-5262134.552001953,-1858268.0225372314,-393899.6493816376,-394924.25322532654,2461728.33442688,3498189.4493103027,10502408.027648926,5851028.4423828125,-19553636.55090332,-7618110.179901123,-1218790.7695770264,2050114.631652832,-2359668.254852295,1967845.5591201782,3135994.1959381104,10346359.252929688,6602590.560913086,-15496460.914611816,-4113277.9121398926,-1515235.5432510376,1488013.744354248,6073225.021362305,5048989.295959473,3952210.6647491455,9078089.714050293,7846654.891967773,-6903824.806213379,-5781044.006347656,320754.37903404236,257834.16628837585,7451400.7568359375,9025473.594665527,9768919.944763184,8062470.436096191,-2557531.8336486816,-3709031.581878662,2372661.352157593,1008509.7551345825,8653167.724609375,9400485.038757324,9043675.422668457,7571155.548095703,12831389.427185059,8870643.615722656,9158938.40789795,10395734.786987305
0.1,-3269602.060317993,-215932.1904182434,12389801.025390625,-6715688.705444336,10272011.756896973,-2474301.57661438,-5825091.83883667,-5754823.684692383,-6523138.046264648,1530088.9015197754,1770354.8669815063,5169984.817504883,5451182.842254639,23752071.380615234,12621405.601501465,-11646729.469299316,-6629027.366638184,-3743430.1376342773,-2329442.5010681152,-2264660.120010376,2286386.489868164,3551694.869995117,12621946.334838867,6532705.783843994,-19151245.1171875,-8641165.733337402,-2727724.075317383,1769391.1790847778,-2779764.8906707764,3108991.3845062256,3925033.3309173584,12501477.241516113,7069868.087768555,-15083767.890930176,-4773053.169250488,-3061698.6751556396,1412802.3386001587,7897124.290466309,6457200.527191162,5693330.764770508,11361331.939697266,9999137.878417969,-5680833.81652832,-4905310.153961182,802853.8227081299,215258.94105434418,9311149.597167969,11435024.26147461,12097895.622253418,10374358.177185059,-149462.92340755463,-1343789.2198562622,4528792.858123779,1068197.7272033691,10728093.147277832,11699937.82043457,11455421.447753906,9035977.363586426,14759569.16809082,11497288.703918457,11398904.800415039,12789504.051208496
0.105,-4997663.497924805,-1337350.1300811768,10886391.639709473,-6417881.965637207,8811358.451843262,-3191716.6709899902,-7244931.221008301,-7140897.274017334,-8021043.77746582,-31275.920569896698,269978.1656265259,5130600.929260254,5366631.031036377,23156885.147094727,11060969.352722168,-11512623.78692627,-7145233.154296875,-5273034.09576416,-3735521.078109741,-3521113.157272339,2073076.7250061035,4204738.140106201,13149455.070495605,6067946.910858154,-18685920.71533203,-8475667.953491211,-3789954.18548584,1359013.0805969238,-3523819.923400879,3512801.170349121,4128218.650817871,12939324.378967285,6765727.0431518555,-14260532.37915039,-4700249.195098877,-3795290.70854187,1038777.8282165527,7919342.994689941,6575916.290283203,5952042.102813721,11861421.585083008,10571063.995361328,-4617944.240570068,-4371476.650238037,1265993.4759140015,-54088.73036503792,9386311.531066895,11677719.116210938,12268780.708312988,10797525.405883789,-614162.3854637146,-1944091.2008285522,5081190.586090088,832033.3957672119,10749011.039733887,11990994.453430176,11722022.05657959,7170585.155487061,14560475.34942627,11033112.525939941,11598068.237304688,12882972.717285156
0.11,-6839109.897613525,-3690996.8852996826,8258300.78125,-6196337.699890137,6499445.915222168,-4343188.762664795,-8532261.848449707,-8451879.501342773,-9434758.186340332,-1830558.0615997314,-1368808.2695007324,3877023.458480835,4069540.9774780273,20427553.176879883,8625084.87701416,-11153047.561645508,-6810538.291931152,-5800597.190856934,-4179670.810699463,-3959109.06791687,626387.0000839233,3390754.461288452,11292286.87286377,5350483.417510986,-18267763.137817383,-7149946.689605713,-3783436.7752075195,1149998.1880187988,-4641313.552856445,2013443.7084197998,2757716.655731201,10949209.213256836,7001122.47467041,-13355167.388916016,-3581588.7451171875,-3098823.5473632812,767331.0041427612,6209601.879119873,4780003.070831299,3993840.456008911,10015419.006347656,10373889.923095703,-3424966.812133789,-3557100.296020508,1933142.5428390503,-292676.32961273193,7682939.052581787,9554009.437561035,10108745.574951172,8893540.382385254,-1554044.7235107422,-2938849.925994873,5341785.907745361,573654.055595398,8776576.042175293,10117670.059204102,9623313.903808594,6371296.405792236,14098833.084106445,9908795.356750488,9752768.516540527,10955523.490905762
0.115,-8204031.944274902,-6556716.442108154,5233832.836151123,-6132422.44720459,3476768.0168151855,-4872791.290283203,-9947774.887084961,-9873115.539550781,-11000228.881835938,-4703886.985778809,-4117474.5559692383,771923.0651855469,1077343.7023162842,16367427.825927734,8256771.087646484,-11116131.782531738,-6994190.692901611,-6568744.18258667,-5150338.172912598,-5147704.601287842,-2280131.1016082764,953190.2074813843,9326297.760009766,6260323.047637939,-17419408.798217773,-5916848.659515381,-3835046.7681884766,1248912.0960235596,-6236642.837524414,-319091.40944480896,634940.9222602844,8917854.309082031,8384648.323059082,-12135672.569274902,-2274710.178375244,-2204794.16847229,854219.377040863,4995023.250579834,2739691.734313965,1715752.363204956,8269136.428833008,11224437.713623047,-1780622.959136963,-2303950.071334839,2970518.112182617,-164918.40779781342,6472283.840179443,7921967.029571533,8396160.125732422,7247739.315032959,121979.41541671753,-1133431.315422058,7023669.242858887,671203.3748626709,7489996.433258057,8701882.362365723,7983682.632446289,10353102.684020996,15799839.973449707,11747764.587402344,8639676.094055176,9997298.240661621
0.12,-8427399.635314941,-7857182.97958374,3899400.472640991,-6024735.450744629,1441315.8893585205,-5042726.993560791,-11290395.736694336,-11197793.960571289,-12460832.595825195,-7805407.0472717285,-7179870.60546875,-1750537.5146865845,-1236016.7503356934,14494194.984436035,10792010.307312012,-10977527.618408203,-7745432.8536987305,-8025094.985961914,-7040046.215057373,-7282114.028930664,-4468111.038208008,-323333.35280418396,9818527.221679688,9291624.069213867,-15745131.492614746,-5278991.69921875,-4611763.954162598,1455404.4008255005,-7493400.096893311,-1031344.7713851929,-61305.4595887661,9346109.390258789,10467493.057250977,-10332753.18145752,-1483807.921409607,-2069915.2946472168,1105750.6799697876,5741086.959838867,2571407.0796966553,1481924.295425415,8981438.636779785,13515962.600708008,-32489.534467458725,-1188574.3141174316,4043694.9729919434,250493.586063385,7326904.296875,8912197.11303711,9317023.277282715,8063753.128051758,3548748.254776001,2480478.7635803223,9119006.156921387,1048935.4133605957,8673219.680786133,9673138.618469238,8936799.049377441,16351558.685302734,19005140.30456543,15888735.7711792,10015759.468078613,11595203.399658203
0.125,-7695690.631866455,-7073702.335357666,5265011.310577393,-5711462.020874023,1933997.2734451294,-6978599.548339844,-11835193.634033203,-11779446.601867676,-12986881.256103516,-8909043.312072754,-8317494.3923950195,-1017038.2261276245,-404570.3113079071,16649961.471557617,13162063.598632812,-10384878.158569336,-7956346.51184082,-8856972.694396973,-8112580.299377441,-8394093.51348877,-3750549.793243408,1521338.4628295898,12095746.040344238,12129614.83001709,-14268347.74017334,-4962208.7478637695,-5318901.538848877,1482161.283493042,-7326572.418212891,516310.3938102722,1344997.0483779907,11435534.477233887,11859982.49053955,-8922770.500183105,-1268513.798713684,-2168182.849884033,1130305.1710128784,7231549.7398376465,4002102.851867676,3003712.1772766113,11178746.223449707,15120382.308959961,654139.8167610168,-945006.251335144,4428978.91998291,455962.1810913086,8943468.09387207,11026267.051696777,11514683.723449707,10128691.673278809,5063046.932220459,4065877.4375915527,8940931.32019043,1214500.904083252,10731323.2421875,11619980.812072754,10985301.971435547,17982873.916625977,20592983.24584961,17793659.210205078,12072033.882141113,13663722.99194336
0.13,-7023074.150085449,-5955443.382263184,7761350.631713867,-5333178.520202637,4204125.40435791,-11650124.549865723,-11113062.858581543,-11139098.167419434,-12055363.655090332,-7190237.998962402,-6711967.945098877,2006117.820739746,2497250.3185272217,20027923.583984375,12220732.688903809,-9763976.097106934,-7199841.9761657715,-7877617.359161377,-7098379.611968994,-7221987.724304199,-1180685.28175354,4343816.757202148,12969482.421875,12341378.211975098,-14241018.295288086,-4709021.091461182,-5025332.450866699,1285432.21950531,-6095351.219177246,2055213.6898040771,2756883.382797241,12113375.663757324,11414793.968200684,-9198267.936706543,-1346221.8046188354,-1629371.0470199585,851474.1659164429,7300354.957580566,4578215.599060059,3657071.590423584,11762440.68145752,14025646.209716797,-274751.4843940735,-1449071.8841552734,3958727.3597717285,175441.14589691162,8927449.226379395,11239728.927612305,11894022.941589355,10471558.570861816,3424684.524536133,2384384.870529175,6054936.408996582,930842.2207832336,10822709.083557129,11728284.83581543,11095791.816711426,13662122.72644043,19124153.13720703,15203591.346740723,11925468.444824219,13339428.901672363
0.135,-6392286.777496338,-5592278.957366943,8896914.4821167,-5185226.4404296875,5824796.199798584,-16078292.846679688,-9099740.028381348,-9109548.568725586,-9779396.057128906,-4501695.63293457,-4204118.728637695,3308406.352996826,3554843.6641693115,19684015.27404785,10051012.03918457,-8977968.215942383,-5842476.844787598,-5580272.674560547,-5220249.652862549,-5172264.575958252,-150448.5011100769,4128204.822540283,10759966.850280762,10989899.635314941,-14606157.302856445,-4045845.5085754395,-3896990.5376434326,1131656.7659378052,-5547036.647796631,1178228.735923767,1784680.6049346924,9995697.975158691,9971186.637878418,-10504325.866699219,-1168429.3746948242,-564539.1941070557,602983.9515686035,5613851.547241211,2836481.3327789307,1928711.0567092896,9479547.500610352,11594041.82434082,-1491619.2293167114,-1587468.3856964111,3495946.8841552734,-253451.8837928772,6946417.808532715,8937538.146972656,9584528.923034668,8231837.272644043,1392557.5017929077,301718.98007392883,3173264.503479004,542024.2547988892,8518164.63470459,9429269.790649414,8693162.91809082,8708732.604980469,16455614.08996582,11172473.907470703,9457106.590270996,10734885.215759277
0.14,-4046809.196472168,-4918375.015258789,7542902.46963501,-5309190.75012207,5073758.602142334,-15594590.187072754,-5981908.321380615,-5825197.696685791,-6607447.624206543,-3377780.1990509033,-3235493.6599731445,224166.8850183487,258891.19505882263,13299741.744995117,12562225.341796875,-6529780.864715576,-3817361.831665039,-3267252.9220581055,-4559400.0816345215,-4432347.297668457,-2289702.1770477295,-289875.41794776917,6927913.188934326,12022332.191467285,-12393447.875976562,-2014162.540435791,-2630904.197692871,1247908.592224121,-6730001.926422119,-1927606.225013733,-1462004.4231414795,6583277.225494385,10351863.861083984,-10287712.097167969,97266.3015127182,396815.9556388855,662848.949432373,3583137.7506256104,-95878.92144918442,-941928.2674789429,6027856.349945068,11644565.58227539,-877240.7174110413,-375113.1594181061,3991519.2127227783,-356636.5838050842,4707376.480102539,6038824.558258057,6475147.724151611,5189366.817474365,1846604.585647583,726983.0703735352,2782272.3388671875,451210.1411819458,5785654.544830322,6546833.038330078,5780519.485473633,8325858.116149902,15025114.059448242,9861320.495605469,6913203.716278076,8177709.579467773
0.145,1156658.8878631592,-3235473.155975342,4125791.549682617,-5431653.4996032715,2193997.621536255,-9177187.9196167,-2271390.914916992,-1978609.4427108765,-3151248.2166290283,-4388407.7072143555,-4283298.015594482,-5877992.630004883,-5974383.354187012,2892188.549041748,21979881.286621094,-1449777.7223587036,-724326.491355896,-1452344.0599441528,-5331899.166107178,-5179013.729095459,-5817952.632904053,-6358449.459075928,3488228.3210754395,17894836.42578125,-6366781.711578369,1745228.886604309,-1375862.717628479,1487328.1717300415,-8816822.052001953,-5370276.927947998,-5052727.222442627,3535155.773162842,14751791.954040527,-6955314.636230469,2919008.0165863037,1233478.5461425781,876251.6975402832,2006385.5648040771,-2522787.33253479,-3190059.6618652344,3195256.9484710693,16147998.809814453,2104859.8289489746,2055752.9926300049,5275915.145874023,-175085.70849895477,3188576.2214660645,3769231.7962646484,4107137.680053711,2757138.0138397217,4509688.854217529,3353056.6692352295,4532880.783081055,559494.9126243591,3835066.318511963,4286890.506744385,3608388.4239196777,11672806.739807129,15294018.745422363,11483008.38470459,5346601.0093688965,6607925.891876221
0.15,7207147.598266602,-2361288.070678711,-394311.72609329224,-5410962.104797363,-1235257.7447891235,-1417278.8858413696,923387.7658843994,1126505.3749084473,-324160.1288318634,-6084155.559539795,-5927901.744842529,-11414093.017578125,-11598223.686218262,-7232727.05078125,32923366.54663086,4519045.352935791,2806137.800216675,74839.0480875969,-6069165.229797363,-5893326.282501221,-8279821.395874023,-11189093.589782715,594075.2625465393,26439954.75769043,744318.425655365,5889575.004577637,57264.093309640884,1519718.7662124634,-10405913.352966309,-8081137.657165527,-7809595.108032227,694683.0749511719,21814308.166503906,-2045411.5867614746,6477819.919586182,2303384.0656280518,908623.1589317322,281549.24511909485,-4340801.239013672,-4825316.429138184,760449.5882987976,22788715.362548828,5731099.1287231445,4661429.882049561,6226644.515991211,-121733.25568437576,1630156.6362380981,1396529.9129486084,1968037.6052856445,398930.1025867462,7191250.324249268,6011731.6246032715,6479026.317596436,516179.9192428589,1894869.5659637451,1998027.9207229614,1379082.5605392456,14566633.224487305,16352794.647216797,13165443.420410156,3601925.849914551,4826300.144195557
0.155,10099130.630493164,-4398520.469665527,-4748021.602630615,-5513897.895812988,-3659659.6240997314,1374519.1097259521,2100039.9589538574,2064931.869506836,637171.6260910034,-7241300.106048584,-7057933.330535889,-14190768.241882324,-14427691.459655762,-13518455.505371094,37467815.39916992,7716372.013092041,4873569.011688232,978723.1087684631,-6102519.989013672,-5910597.324371338,-9394869.804382324,-14034231.185913086,-2328755.1403045654,32106643.676757812,4412782.192230225,8148672.103881836,1129245.7580566406,1304874.1817474365,-11112977.981567383,-10146848.678588867,-9831213.95111084,-2386696.3386535645,26681686.401367188,798756.4206123352,8727808.952331543,3198220.4914093018,736474.4544029236,-1856034.0404510498,-6130692.481994629,-6617379.665374756,-1959175.5867004395,26821483.612060547,7525390.148162842,6192074.298858643,5971467.971801758,-322611.15312576294,-434626.9369125366,-1527211.308479309,-612690.9852027893,-2443549.394607544,8300473.213195801,7138109.6839904785,7304121.494293213,313279.1519165039,-592925.488948822,-757755.2795410156,-1400515.5563354492,14947406.768798828,17152297.973632812,13090940.475463867,1008623.6000061035,2251766.4432525635
0.16,7672286.510467529,-8619006.156921387,-7659886.837005615,-5971945.285797119,-4845867.63381958,-3305196.762084961,123224.92152452469,-25924.68075454235,-1333651.6618728638,-8414098.739624023,-8272014.617919922,-15018147.468566895,-15255068.7789917,-15353276.252746582,33037368.774414062,5723084.926605225,3840123.176574707,138114.76528644562,-6551592.826843262,-6341780.185699463,-10504067.420959473,-15603775.978088379,-4558260.440826416,30438301.08642578,2309768.4383392334,7193922.04284668,523176.49126052856,1131891.369819641,-11371644.973754883,-11465541.83959961,-11136390.686035156,-4663485.050201416,24833597.18322754,-1067639.3508911133,7824529.17098999,2749877.452850342,628410.1605415344,-3272102.117538452,-7370906.352996826,-8093901.634216309,-4100477.2186279297,24949039.459228516,6093326.091766357,5627218.723297119,4500035.762786865,-487746.2387084961,-1846792.221069336,-3633304.1191101074,-2641462.802886963,-4618116.855621338,7213772.296905518,6052939.891815186,6621550.0831604,251673.6388206482,-2410563.9457702637,-2742115.4975891113,-3344200.611114502,13266232.49053955,16387971.878051758,11687521.934509277,-1004124.641418457,321623.65317344666
0.165,1697449.6841430664,-12435024.26147461,-9205274.58190918,-6456527.7099609375,-6167531.0134887695,-12233695.030212402,-4727906.227111816,-4738676.54800415,-6060503.4828186035,-10871814.727783203,-10773711.204528809,-16237924.575805664,-16457706.451416016,-15342690.467834473,24318655.014038086,-417263.12041282654,-94762.1762752533,-2917713.8805389404,-8512824.058532715,-8247399.33013916,-12315118.789672852,-16636848.449707031,-4859315.872192383,22324003.219604492,-3947663.5456085205,3562343.120574951,-2348884.105682373,1158855.0806045532,-11425040.245056152,-11677425.384521484,-11412615.776062012,-4838470.458984375,16822948.455810547,-6869239.807128906,3833916.187286377,532377.9582977295,680205.7027816772,-2948479.413986206,-7131819.248199463,-8144241.3330078125,-4323333.263397217,18036012.649536133,2026999.4735717773,2816728.8303375244,2318369.8654174805,-439083.2781791687,-1522033.929824829,-3572082.042694092,-2815331.9358825684,-4742005.825042725,3989398.956298828,2764205.21736145,4589592.933654785,384325.14667510986,-2289023.1609344482,-2737634.6588134766,-3151801.347732544,9942828.178405762,13035973.54888916,9743163.108825684,-995592.7133560181,333497.3454475403
0.17,-3754535.19821167,-14615270.614624023,-11026811.599731445,-6412250.04196167,-8894105.911254883,-19333515.167236328,-10050937.65258789,-9824378.01361084,-11246632.57598877,-14308204.650878906,-14182813.64440918,-18880853.6529541,-19124807.357788086,-16680036.544799805,18387983.322143555,-6766828.0601501465,-4668136.5966796875,-6665533.542633057,-11108218.1930542,-10776823.997497559,-14148203.84979248,-17520250.32043457,-3612525.224685669,14164382.934570312,-10135047.912597656,-670243.4420585632,-6013573.169708252,1188750.147819519,-11195553.77960205,-11172243.118286133,-10972868.919372559,-3486837.863922119,8744883.53729248,-12624185.562133789,-850318.0742263794,-2136472.702026367,673032.1049690247,-1599072.9331970215,-5922779.560089111,-7011321.544647217,-3039931.7741394043,10842199.325561523,-2209600.9254455566,-672072.4701881409,122290.61126708984,-385680.8841228485,-298670.82834243774,-2103598.8330841064,-1638227.4627685547,-3375221.9676971436,164367.4075603485,-1126224.7562408447,2326386.2133026123,404269.5760726929,-958461.2250328064,-1491022.229194641,-1753792.643547058,5722608.56628418,8352395.057678223,7656717.777252197,280083.8351249695,1455561.3994598389
0.175,-5271662.712097168,-15328407.287597656,-13433288.57421875,-5903101.444244385,-11634268.760681152,-20547243.118286133,-12152148.246765137,-11819861.41204834,-13267090.797424316,-16189762.115478516,-15962800.025939941,-21104850.76904297,-21391334.533691406,-19202869.415283203,18905929.565429688,-9249184.608459473,-6760902.881622314,-8241553.30657959,-11979429.244995117,-11681979.179382324,-14752663.612365723,-18011482.23876953,-2523130.416870117,12480360.03112793,-12338994.026184082,-2809467.7925109863,-7755587.577819824,1038783.4310531616,-10608630.180358887,-10704055.786132812,-10500871.658325195,-2407533.1687927246,6643748.760223389,-14306747.436523438,-3126579.0462493896,-3247999.668121338,488794.4459915161,-750645.3394889832,-5250992.774963379,-6115439.891815186,-1997449.9940872192,8284434.3185424805,-3821755.4092407227,-2126941.680908203,-1250553.846359253,-534892.201423645,180135.68222522736,-1068016.6482925415,-779164.3738746643,-2327059.268951416,-1621833.5628509521,-2900619.7452545166,1498738.8849258423,162769.30272579193,-164458.17053318024,-684833.1093788147,-1055081.4867019653,2929497.241973877,5730971.813201904,6156474.1134643555,1041596.7702865601,2022371.2921142578
0.18,-1929752.3498535156,-13845201.49230957,-13368360.51940918,-5634147.644042969,-10864330.291748047,-16864942.55065918,-8948478.698730469,-8718375.205993652,-10096487.998962402,-14081583.023071289,-13733687.400817871,-20016590.118408203,-20288515.090942383,-19283966.064453125,24066843.032836914,-6769991.874694824,-4641960.144042969,-5951918.125152588,-9758685.111999512,-9651329.040527344,-13345836.639404297,-17186771.392822266,-2378880.9776306152,17435377.12097168,-9738718.98651123,-1207331.895828247,-6218373.775482178,869405.6868553162,-9529357.91015625,-10127838.134765625,-9884194.374084473,-2279602.05078125,10339465.141296387,-11574627.876281738,-1787608.027458191,-2110866.3082122803,364626.1394023895,-775722.1460342407,-5537137.508392334,-6072746.276855469,-1946936.845779419,10853132.247924805,-2159546.375274658,-199760.302901268,-1242060.661315918,-731914.8182868958,-275152.4746417999,-1043757.9154968262,-850388.5865211487,-2320118.188858032,-381307.6615333557,-1620439.7678375244,2380240.6787872314,-66379.45771217346,-348505.79500198364,-733353.9128303528,-1391708.254814148,3057930.9463500977,6927825.927734375,5770735.740661621,877353.0125617981,1761562.466621399
0.185,4314212.799072266,-9347721.099853516,-8330461.502075195,-5961751.937866211,-5611145.496368408,-12691082.954406738,-2538253.5457611084,-2522362.232208252,-3811559.6771240234,-8879357.33795166,-8468420.98236084,-15741291.999816895,-15953166.961669922,-15409591.674804688,29200872.42126465,-2008850.09765625,248685.92619895935,-1259529.709815979,-5891196.727752686,-6009024.143218994,-10614493.370056152,-15013818.740844727,-2578931.8084716797,23129550.93383789,-5049893.856048584,3063831.329345703,-2978989.839553833,927894.3538665771,-7986645.221710205,-8990799.903869629,-8762305.25970459,-2424143.3143615723,14488811.492919922,-7819027.900695801,1479037.5232696533,74591.71861410141,523464.97774124146,-921751.6183853149,-5943128.58581543,-6323689.937591553,-2204200.9830474854,14549568.176269531,695676.0287284851,3539240.3602600098,-140199.6612548828,-696840.5842781067,-592848.7181663513,-1328410.5062484741,-1176225.7814407349,-2684059.3814849854,1913072.7052688599,662942.64793396,3380586.862564087,-824.9434176832438,-652736.1273765564,-916690.8860206604,-1734948.1582641602,4070457.935333252,9728443.145751953,5689611.434936523,601095.974445343,1482719.1829681396
0.19,9837238.311767578,-4147267.3416137695,-1968243.5989379883,-6347250.938415527,-408437.8778934479,-10579344.749450684,2263470.411300659,2107556.5814971924,872993.4096336365,-4934427.261352539,-4562735.557556152,-12661914.825439453,-12879399.299621582,-12296221.733093262,31859054.565429688,1569678.544998169,4321391.582489014,2209735.155105591,-3667557.2395324707,-3834476.947784424,-8941789.627075195,-13811573.028564453,-2935094.3565368652,25288318.634033203,-1599767.804145813,6901929.85534668,-963394.5822715759,1158838.391304016,-6881613.731384277,-8237125.396728516,-8127806.663513184,-2712332.010269165,16084308.624267578,-5843337.059020996,4085450.6492614746,1674618.9594268799,787704.8254013062,-966456.6516876221,-6224488.735198975,-6699756.145477295,-2484910.011291504,16447727.20336914,2721155.1666259766,6550077.438354492,1225491.1661148071,-429178.0889034271,-498439.7888183594,-1739890.9330368042,-1509574.7709274292,-3108051.061630249,3226766.586303711,1968603.8494110107,3569939.613342285,257731.94432258606,-831395.4472541809,-1192227.840423584,-1901065.707206726,3282151.222229004,11205484.390258789,4929769.039154053,365355.78966140747,1286392.8079605103
0.195,12193434.715270996,-2799759.1495513916,-1871277.5707244873,-6118329.048156738,-1119217.9918289185,-8092620.849609375,2886789.321899414,2713434.934616089,1405982.255935669,-5957367.420196533,-5672351.837158203,-15051711.082458496,-15399569.511413574,-16417226.791381836,34519626.61743164,3720811.8438720703,5552961.349487305,2210009.5748901367,-5052451.133728027,-5029489.517211914,-10564667.701721191,-16322313.30871582,-4333538.53225708,26591901.779174805,372475.2068519592,8572925.567626953,-1243284.7023010254,1317671.537399292,-7628901.00479126,-9601571.083068848,-9667472.839355469,-4075440.8836364746,18174249.64904785,-4468422.889709473,5443545.341491699,2285460.7105255127,834973.9909172058,-1607925.4150390625,-7226292.133331299,-7887942.314147949,-3608999.013900757,18724813.46130371,4590887.069702148,8374701.499938965,2418122.7684020996,-159801.51295661926,-943765.1634216309,-2947735.7864379883,-2528206.1100006104,-4220988.750457764,4402189.7315979,3231976.03225708,4325147.62878418,451624.5126724243,-1673836.8272781372,-2351306.438446045,-2882932.662963867,2097054.2430877686,11988450.050354004,4430574.417114258,-537053.3466339111,482060.9986782074
0.2,12403871.536254883,-6419585.227966309,-10111581.802368164,-5436408.996582031,-7796445.846557617,-1145564.317703247,1759401.3214111328,1710063.9343261719,98664.0676856041,-10869848.251342773,-10591588.973999023,-21879434.58557129,-22421440.12451172,-27617191.314697266,41093730.92651367,7261167.049407959,5671047.687530518,241064.07165527344,-8542875.289916992,-8289055.824279785,-14959267.616271973,-22035434.72290039,-7099765.300750732,32032375.33569336,3400155.782699585,9691580.772399902,-2074286.2224578857,1341120.958328247,-10325028.419494629,-13029582.977294922,-13228367.805480957,-6797803.87878418,24264320.373535156,-908310.8901977539,7177977.561950684,2708648.681640625,693834.662437439,-3106772.6612091064,-9271539.688110352,-10041401.863098145,-5957547.187805176,24779569.625854492,8066620.826721191,10474869.728088379,3564287.6625061035,-23474.182933568954,-2405564.785003662,-5045655.727386475,-4463727.4742126465,-6244436.740875244,7235236.167907715,6183184.623718262,6927152.156829834,557206.0942649841,-3455466.7472839355,-4426870.822906494,-4985641.002655029,4076333.999633789,14777282.71484375,5948555.946350098,-2167621.13571167,-1008248.3291625977
0.205,13429965.97290039,-10654262.54272461,-19650842.666625977,-5049122.8103637695,-14349033.35571289,9675075.53100586,2913297.176361084,2975315.3324127197,953716.6953086853,-14905916.213989258,-14515503.883361816,-27976406.09741211,-28691617.965698242,-38591770.17211914,50659809.11254883,13332871.437072754,7501084.327697754,-366534.2330932617,-10815259.93347168,-10549884.796142578,-19150630.950927734,-27402076.721191406,-10008092.880249023,40718585.96801758,8345127.105712891,12532506.942749023,-1503513.0977630615,1345428.8244247437,-13069624.900817871,-16387874.603271484,-16638904.571533203,-9639140.129089355,31682228.088378906,4279523.849487305,10314483.642578125,3532229.9003601074,668368.9951896667,-4622030.258178711,-11426378.25012207,-12204616.54663086,-8481831.550598145,32661331.176757812,12375487.327575684,13245178.22265625,4566534.519195557,16879.213973879814,-3994102.954864502,-7067747.592926025,-6443143.844604492,-8292160.987854004,10742713.928222656,9684988.021850586,9815681.457519531,707268.8341140747,-5222329.616546631,-6295652.389526367,-7096123.218536377,8680590.629577637,19419221.878051758,8927883.14819336,-3600210.666656494,-2396228.551864624
0.21,15980096.817016602,-11454154.014587402,-22999803.54309082,-5248730.182647705,-16097791.67175293,18276205.06286621,6467107.772827148,6461060.523986816,4274488.925933838,-15184635.162353516,-14689182.28149414,-30378864.288330078,-31196287.155151367,-43532199.85961914,56971969.60449219,18486946.10595703,10622149.467468262,1300080.2993774414,-10571893.692016602,-10507357.597351074,-21163547.51586914,-30248744.96459961,-11763423.919677734,46073806.76269531,11953119.277954102,16093967.43774414,-156058.57968330383,1349050.521850586,-14062272.071838379,-18261705.39855957,-18546319.96154785,-11342045.783996582,34269428.25317383,7011326.789855957,13256341.934204102,4262567.99697876,830673.2773780823,-5344000.339508057,-12881289.4821167,-13620012.283325195,-9998166.08428955,36198497.7722168,14399814.60571289,14934230.80444336,4840168.476104736,428.32904728129506,-4725091.934204102,-8264705.657958984,-7665403.842926025,-9535194.396972656,11973025.32196045,10782433.50982666,10403633.117675781,874957.6807022095,-6080789.566040039,-7204894.065856934,-8241019.248962402,11163857.460021973,22484771.728515625,10712973.594665527,-4297282.2189331055,-3218081.7127227783
0.215,17332134.246826172,-10481034.278869629,-21399103.16467285,-5562525.749206543,-14951759.338378906,19669473.64807129,8419697.761535645,8174088.478088379,6206067.085266113,-13750843.048095703,-13283975.601196289,-31020160.675048828,-31803470.611572266,-44038391.11328125,55695278.16772461,18425052.642822266,11581031.799316406,2632611.9899749756,-9740595.817565918,-9785662.651062012,-21796749.114990234,-31791976.928710938,-12488871.574401855,44372680.6640625,10600714.683532715,16937528.610229492,-319097.93615341187,1269101.7389297485,-13693395.614624023,-19348587.036132812,-19698890.686035156,-12005104.064941406,30799263.00048828,4959243.7744140625,13543244.361877441,4073017.120361328,924790.1439666748,-5467256.546020508,-13856502.532958984,-14512346.267700195,-10542016.983032227,33160152.435302734,12903755.187988281,14212080.955505371,4186410.903930664,-73040.4183268547,-4733006.477355957,-8847672.462463379,-8272627.830505371,-10109596.252441406,10347761.154174805,9044658.660888672,8974479.675292969,904524.6243476868,-6238069.0574646,-7578395.366668701,-8686397.552490234,9472361.56463623,22157386.779785156,10339616.775512695,-4684427.738189697,-3728918.0755615234
0.22,15418999.671936035,-11822371.482849121,-21411144.256591797,-5517408.847808838,-15274798.393249512,15849699.974060059,6382981.300354004,5911265.850067139,4246283.054351807,-13940615.6539917,-13578388.214111328,-32408843.994140625,-32989097.595214844,-44771636.962890625,50104465.48461914,13916889.190673828,8934408.187866211,1421242.9523468018,-10233109.474182129,-10096361.16027832,-22277883.529663086,-33436485.290527344,-12999447.8225708,39368221.282958984,5512001.991271973,14133769.035339355,-2414204.1206359863,1150545.9547042847,-13439854.621887207,-20418155.670166016,-20802576.065063477,-12380236.625671387,26549568.17626953,785432.8751564026,11152226.448059082,3068141.6988372803,795245.110988617,-5612446.308135986,-14648254.39453125,-15161371.231079102,-10823999.404907227,28479822.158813477,10401176.452636719,12322524.070739746,3290970.56388855,-158063.42661380768,-4766980.6480407715,-9211030.960083008,-8677783.012390137,-10455324.172973633,8507449.15008545,7205071.449279785,8239155.7693481445,767982.4829101562,-6359566.688537598,-8001406.669616699,-9070313.453674316,7014306.06842041,20587383.270263672,9682269.096374512,-5159422.874450684,-4112908.8401794434
0.225,12552838.325500488,-15078797.340393066,-24597595.21484375,-5272329.807281494,-17111518.85986328,13386283.874511719,3501073.8372802734,2968569.040298462,1377634.048461914,-15151922.225952148,-14826585.76965332,-33451477.05078125,-33812179.56542969,-46467521.66748047,47136566.162109375,10615032.196044922,6095457.077026367,-405282.22918510437,-10768157.005310059,-10395909.309387207,-21942417.14477539,-34062747.955322266,-13544875.144958496,36984451.29394531,1976983.7856292725,11221408.84399414,-3844050.168991089,1135561.3470077515,-13333271.026611328,-20691041.946411133,-21004055.02319336,-12794363.975524902,25921129.22668457,-1222889.3041610718,8880873.680114746,2387407.7796936035,600440.502166748,-5990875.720977783,-14957820.892333984,-15314384.460449219,-11209541.320800781,27452003.479003906,9704843.521118164,11476127.624511719,2871384.620666504,-210388.01968097687,-5239556.789398193,-9428887.367248535,-8975710.86883545,-10703382.49206543,8294159.889221191,7092064.85748291,8976224.899291992,558035.671710968,-6746725.082397461,-8490060.806274414,-9542562.484741211,6788035.869598389,20155174.255371094,9854902.267456055,-5622878.074645996,-4352707.386016846
0.23,12686497.688293457,-15885591.506958008,-26159101.486206055,-5273102.283477783,-16908027.64892578,15670969.009399414,4619690.418243408,4165400.505065918,2507156.1336517334,-13795496.940612793,-13447784.423828125,-31788026.809692383,-32182434.08203125,-46417945.861816406,48854755.40161133,12323957.443237305,7289796.829223633,961132.287979126,-8671322.8225708,-8422482.49053955,-19824810.028076172,-32342414.85595703,-14014716.148376465,38163223.26660156,3097664.5946502686,11907899.856567383,-2259785.8905792236,1200777.6498794556,-12131970.405578613,-19445230.48400879,-19669124.603271484,-13321603.775024414,27326459.884643555,-257038.86151313782,9158904.075622559,2943974.256515503,505298.1972694397,-6535689.353942871,-14747090.339660645,-15019443.51196289,-11789238.929748535,29073158.264160156,10392526.626586914,12003482.818603516,2813890.6955718994,-292940.76561927795,-6135690.212249756,-9754272.4609375,-9368513.107299805,-11083808.898925781,8445249.557495117,7431070.327758789,8855039.596557617,302657.6638221741,-7469360.3515625,-9068156.242370605,-10166047.096252441,6935574.054718018,20047060.012817383,9141171.4553833,-6161983.489990234,-4834651.470184326
0.235,15881376.266479492,-12908061.027526855,-23504808.42590332,-5570012.56942749,-13818247.79510498,20066732.40661621,9684769.630432129,9322131.156921387,7669586.658477783,-9189097.40447998,-8899638.175964355,-28298978.805541992,-29021190.643310547,-43910259.24682617,51115966.796875,16709859.848022461,11881379.127502441,5588854.789733887,-4316659.450531006,-4549812.316894531,-17162885.665893555,-29691062.927246094,-14526836.395263672,39460380.55419922,6553445.339202881,15443404.197692871,1083903.431892395,1173566.6990280151,-9821034.43145752,-17708719.25354004,-17982995.986938477,-14084856.986999512,27308891.29638672,1140090.2271270752,11471143.72253418,4386358.261108398,450864.315032959,-7208042.621612549,-14641820.907592773,-14939310.073852539,-12620159.149169922,29190021.514892578,10373003.005981445,12598970.413208008,2742263.7939453125,-482995.98693847656,-7192660.808563232,-10577737.808227539,-10203161.239624023,-11957062.721252441,7453845.024108887,6685244.083404541,6526473.9990234375,10060.392320156097,-8473641.395568848,-9971915.245056152,-11109302.520751953,5019870.758056641,18492454.528808594,6344224.92980957,-7089851.856231689,-5946555.614471436
0.24,18351303.100585938,-10030215.2633667,-20325283.05053711,-5787944.316864014,-11328317.642211914,22999307.63244629,13620362.281799316,13295848.846435547,11612171.173095703,-5472019.672393799,-5337675.094604492,-26266883.850097656,-27282115.936279297,-41291801.45263672,50598716.735839844,19133333.206176758,15149033.546447754,9003887.176513672,-1508213.996887207,-2100658.178329468,-16156286.239624023,-28419132.232666016,-14777556.419372559,39028499.603271484,8538150.787353516,18105587.005615234,2741815.0901794434,1031912.5652313232,-8169168.472290039,-16774477.005004883,-17198143.005371094,-14526818.27545166,26531831.741333008,1415313.8399124146,13547649.383544922,5550577.163696289,368954.3902873993,-7623888.969421387,-14697440.147399902,-15093712.80670166,-13099534.034729004,27804906.845092773,9628506.660461426,12910973.54888916,2961909.294128418,-692385.4351043701,-7700914.38293457,-11326739.311218262,-10939512.252807617,-12750192.642211914,6466510.772705078,5858673.572540283,4374500.751495361,-163059.48793888092,-9041507.720947266,-10660223.960876465,-11757514.953613281,3236470.6993103027,16356502.532958984,3905927.1812438965,-7839097.97668457,-6852719.306945801
0.245,18302324.295043945,-10220674.514770508,-20038015.365600586,-5701357.841491699,-11798025.131225586,25231157.302856445,13124773.979187012,12808425.903320312,10844338.417053223,-6142039.2990112305,-6089449.405670166,-26609523.77319336,-27558439.254760742,-39883499.14550781,49404590.60668945,18937610.626220703,14648655.891418457,8034460.067749023,-2685030.698776245,-3177560.329437256,-16792581.55822754,-28163951.873779297,-13667160.034179688,38817195.892333984,8833398.818969727,18361064.910888672,1543666.4819717407,929493.0696487427,-8243920.32623291,-16137342.45300293,-16581531.524658203,-13364187.240600586,28395750.045776367,1959701.8957138062,14355372.428894043,5786081.790924072,358466.2973880768,-7042897.2244262695,-13875812.530517578,-14383797.645568848,-12001589.77508545,28845762.252807617,10114275.932312012,14165438.652038574,4005254.7454833984,-754398.6439704895,-6862752.914428711,-10540399.551391602,-10150879.859924316,-11951986.312866211,7351371.288299561,6685773.849487305,5267180.919647217,-58140.66156744957,-8070384.979248047,-9793848.991394043,-10759677.88696289,5149870.3956604,15786664.962768555,4848896.026611328,-7066757.678985596,-6005089.75982666
0.25,18461668.014526367,-11132536.888122559,-20244361.877441406,-5525863.6474609375,-12864615.440368652,29765274.047851562,10835080.14678955,10540242.195129395,8244033.8134765625,-9039912.223815918,-8895539.283752441,-26827081.68029785,-27455669.403076172,-38308849.3347168,50830310.8215332,19304422.37854004,13139122.009277344,5170263.290405273,-5602903.366088867,-5800323.009490967,-16981874.465942383,-26828786.849975586,-10941517.82989502,40740020.751953125,9805341.720581055,18222345.35217285,-90346.61203622818,877097.5470542908,-8865343.09387207,-14630656.242370605,-14901863.098144531,-10478568.077087402,33118629.455566406,4319537.162780762,14785820.960998535,5492095.470428467,450623.18444252014,-5486857.4142456055,-11829779.624938965,-12407482.147216797,-9270587.921142578,33174968.719482422,12272528.648376465,16837598.80065918,5441303.253173828,-701614.9163246155,-5012691.497802734,-8014401.435852051,-7603348.731994629,-9287030.220031738,9383818.626403809,8526716.232299805,8292806.625366211,175135.43367385864,-5727700.233459473,-7230040.550231934,-8037337.303161621,9382790.565490723,16417528.15246582,7979910.373687744,-4724711.894989014,-3508690.83404541
0.255,21240810.39428711,-9386601.448059082,-17372703.552246094,-5569588.184356689,-11375161.170959473,36054744.720458984,11084465.026855469,10836147.30834961,8592769.622802734,-9327260.01739502,-9052866.93572998,-25096549.98779297,-25543043.13659668,-35760917.66357422,53518669.12841797,21549207.68737793,14092614.17388916,4993001.937866211,-6316636.085510254,-6507176.876068115,-15821068.76373291,-24504165.649414062,-8597420.692443848,43217445.373535156,11597042.083740234,19433963.775634766,238417.77443885803,685757.6370239258,-8494551.658630371,-12847080.23071289,-13003527.641296387,-8083930.015563965,36592239.37988281,7249196.529388428,15559878.3493042,5334852.695465088,430770.1289653778,-4292908.668518066,-10218744.277954102,-10788637.161254883,-7045729.637145996,36196811.67602539,13857134.819030762,19158199.310302734,6091193.199157715,-760593.8911437988,-3802746.295928955,-5899515.151977539,-5422975.540161133,-6978823.661804199,10073389.053344727,9085165.023803711,10006443.02368164,187511.3844871521,-4003160.4766845703,-5082249.164581299,-5807481.76574707,11159462.928771973,15872629.165649414,9301366.806030273,-2911890.5067443848,-1698485.4936599731
0.26,24478378.295898438,-6164532.18460083,-13153060.913085938,-5771892.070770264,-8315471.649169922,39969238.28125,13827532.768249512,13630086.898803711,11831520.080566406,-6085843.563079834,-5810899.73449707,-22891464.233398438,-23464982.986450195,-34105224.609375,53449562.072753906,22949728.01208496,16719736.099243164,7872037.410736084,-4208215.236663818,-4715192.3179626465,-14731225.967407227,-23615251.541137695,-8949128.150939941,43129856.10961914,11517692.565917969,20707494.735717773,1646243.5722351074,325873.55375289917,-7524823.188781738,-12473374.366760254,-12793414.115905762,-8457481.384277344,35461643.21899414,8008955.001831055,15869397.163391113,5367064.476013184,136656.29923343658,-4608615.398406982,-10775488.85345459,-11281049.728393555,-7450182.914733887,34103038.7878418,12985568.046569824,19072759.6282959,5560356.616973877,-1021775.0072479248,-4320941.925048828,-6314632.415771484,-5762273.788452148,-7332530.975341797,8759325.02746582,7714045.524597168,9082156.18133545,-106664.17330503464,-4510171.890258789,-5424350.738525391,-6194363.117218018,9516685.485839844,13951044.082641602,7808169.841766357,-3415196.418762207,-2291930.913925171
0.265,24852705.001831055,-4932866.57333374,-11736534.118652344,-5744153.4996032715,-6862816.81060791,39987472.53417969,15513757.705688477,15345484.733581543,13896270.751953125,-2919465.0650024414,-2731432.9147338867,-22239604.949951172,-23040853.50036621,-34859603.88183594,50411594.39086914,21246770.85876465,17622116.088867188,10000777.244567871,-2074238.0619049072,-2814084.053039551,-14783523.559570312,-24775955.200195312,-11230340.957641602,40071922.302246094,8571265.22064209,19892210.006713867,1587555.7661056519,68019.12933588028,-7384274.482727051,-13322246.551513672,-13923298.835754395,-10663418.769836426,31043909.072875977,5884066.104888916,14743502.616882324,5190447.807312012,-227002.99322605133,-5587557.315826416,-12484110.832214355,-12952027.320861816,-9530485.153198242,29306020.736694336,10781589.50805664,16948053.35998535,4745778.560638428,-1285621.0470199585,-5417817.59262085,-8280351.638793945,-7667357.921600342,-9386945.724487305,7342059.135437012,6187980.175018311,7457763.671875,-421726.0777950287,-6130394.93560791,-7325798.511505127,-8193924.903869629,8500879.287719727,13360890.38848877,6656619.548797607,-5051029.205322266,-3862289.9055480957
0.27,23463264.46533203,-5260653.018951416,-12283444.40460205,-5258856.773376465,-6900496.959686279,40024047.8515625,14760112.762451172,14615728.378295898,13103448.867797852,-2311378.240585327,-2135194.5400238037,-22219696.044921875,-23103218.07861328,-35852230.072021484,48630187.98828125,18459589.0045166,15941747.665405273,9114412.307739258,-1838747.501373291,-2480102.777481079,-14699881.553649902,-25091327.667236328,-11852881.43157959,37019847.86987305,5745078.563690186,17312856.674194336,-354580.5513858795,93951.56055688858,-8108342.170715332,-12990018.844604492,-13652168.273925781,-11172383.308410645,27420919.41833496,3077630.9967041016,12892784.118652344,4751303.672790527,-335148.6921310425,-5179952.144622803,-12361392.0211792,-12881237.983703613,-9946198.463439941,27087768.5546875,9848593.711853027,15209615.707397461,4595115.661621094,-1338065.1473999023,-4925784.111022949,-8568580.627441406,-7890997.409820557,-9695667.266845703,7458666.3246154785,6185587.406158447,7128489.971160889,-525814.2352104187,-6111356.258392334,-7656982.898712158,-8556022.644042969,10599146.842956543,15525384.902954102,8078600.883483887,-4935899.73449707,-3533768.892288208
0.275,24141983.032226562,-3311635.2558135986,-9855709.075927734,-4594094.276428223,-5109682.559967041,43944808.95996094,13803149.223327637,13746503.829956055,11950697.898864746,-2664496.421813965,-2402165.412902832,-20242267.608642578,-21056470.87097168,-33408546.447753906,50410766.6015625,17976547.241210938,14125222.206115723,7079802.989959717,-2507256.9847106934,-2906143.9037323,-12813370.704650879,-22009220.123291016,-8770667.07611084,36764793.395996094,6175844.669342041,15339497.566223145,-2074173.4504699707,209963.96243572235,-8389570.236206055,-10122020.721435547,-10573756.217956543,-8180841.445922852,27175327.30102539,2155542.8504943848,12138057.708740234,4526745.319366455,-193193.10784339905,-2827309.6084594727,-9268108.367919922,-9887169.83795166,-7079617.500305176,28757190.704345703,11106993.675231934,15565707.206726074,5149905.681610107,-1233262.8965377808,-2452958.345413208,-5763702.869415283,-5034919.738769531,-6726047.515869141,8723341.941833496,7507889.747619629,8039242.744445801,-513932.7645301819,-3526160.478591919,-4982011.795043945,-5840663.433074951,13108210.563659668,18257555.00793457,10247226.71508789,-2244592.6666259766,-757392.0488357544
0.28,27020509.719848633,1407868.6237335205,-3922621.011734009,-4290235.0425720215,-883626.0437965393,49987400.05493164,14279338.836669922,14399134.635925293,12385360.717773438,-2019244.4324493408,-1699402.928352356,-16418588.638305664,-17124637.603759766,-27853786.46850586,52900520.32470703,19769350.051879883,14002867.698669434,6291973.114013672,-2773149.9671936035,-3060433.6261749268,-10109950.065612793,-17325614.92919922,-4274331.092834473,38992191.314697266,9070064.544677734,15414353.370666504,-2055714.3688201904,170490.01157283783,-7953926.563262939,-6671117.305755615,-6896851.062774658,-3992147.68409729,29876996.994018555,3665273.666381836,13242939.949035645,4898832.79800415,-74810.10258197784,-347773.9691734314,-5599434.375762939,-6260890.483856201,-3166668.41506958,31112548.828125,13352008.819580078,17578701.01928711,6158081.531524658,-1158396.1248397827,50418.876111507416,-2107306.718826294,-1419534.8024368286,-2927721.0235595703,10169750.213623047,9148713.111877441,9473443.031311035,-532915.6517982483,-458671.56982421875,-1375611.0668182373,-2238696.813583374,12906473.159790039,19158168.79272461,10713456.153869629,746328.3538818359,2072046.0414886475
0.285,28061887.741088867,4022986.888885498,-828796.8635559082,-4576206.684112549,1402589.3211364746,53894580.84106445,14930865.287780762,15205706.596374512,13045360.565185547,-1633570.671081543,-1337227.5829315186,-14448868.751525879,-15055673.599243164,-24447475.43334961,53117610.931396484,21328857.421875,14782051.086425781,6423587.322235107,-3296844.482421875,-3628225.803375244,-9563840.866088867,-15445893.287658691,-2311341.2857055664,41568973.541259766,11499737.739562988,16929466.247558594,-1124389.6484375,80617.45017766953,-8198976.516723633,-5758356.57119751,-5892585.277557373,-2251710.6533050537,33662979.12597656,6443128.1089782715,15152930.25970459,5648703.575134277,-90996.28776311874,296079.72502708435,-4440729.141235352,-5053013.324737549,-1573197.1263885498,31914602.279663086,15347627.639770508,19823848.724365234,7691700.458526611,-1137454.5097351074,715335.8459472656,-688719.2130088806,-141141.3997411728,-1622104.1679382324,11711180.686950684,10729623.794555664,11348879.81414795,-501904.6664237976,609814.3458366394,155814.79668617249,-801854.3720245361,11383736.610412598,19141281.127929688,10263783.45489502,1631931.7817687988,2762842.893600464
0.29,25706638.33618164,1024098.0386734009,-5194667.339324951,-5136665.821075439,-1760515.9282684326,55704010.009765625,14644376.754760742,14914033.889770508,12601835.250854492,-3467069.625854492,-3172351.121902466,-17043382.64465332,-17590530.395507812,-27196340.560913086,53023193.359375,22145824.432373047,15253519.058227539,6200035.572052002,-4955721.378326416,-5383445.739746094,-12252949.714660645,-17979499.81689453,-3793873.3100891113,43517898.55957031,12707607.26928711,18627668.380737305,-719725.7280349731,195147.84216880798,-9890663.146972656,-7911064.147949219,-7935853.958129883,-3676761.3887786865,37037124.63378906,9179800.987243652,16395709.991455078,6240149.021148682,-99253.0956864357,-690603.1966209412,-5972045.8984375,-6521695.613861084,-2848544.8360443115,32681896.209716797,17041923.52294922,21451139.450073242,9534130.096435547,-1047087.9077911377,-126569.13697719574,-1828807.8308105469,-1385219.2163467407,-2998158.2164764404,13457267.761230469,12282939.910888672,13379136.085510254,-310718.7747955322,-353403.4490585327,-869133.8896751404,-1906397.819519043,11965197.563171387,20530611.038208008,11144178.39050293,651282.7277183533,1767567.51537323
0.295,23708595.275878906,-3995246.171951294,-12244199.752807617,-5477077.007293701,-7020075.798034668,58603332.51953125,14729660.987854004,14879284.858703613,12496225.357055664,-5979655.742645264,-5593953.1326293945,-21482141.494750977,-22084600.4486084,-32516689.30053711,55745391.845703125,23760595.321655273,15574996.948242188,6070289.134979248,-6435901.641845703,-6979598.522186279,-15378858.56628418,-21475397.10998535,-5811984.539031982,45062274.93286133,13906487.464904785,19710237.503051758,-898078.7992477417,450268.9838409424,-11567682.266235352,-10428615.57006836,-10171829.223632812,-5534783.840179443,39144916.53442383,10878800.392150879,16430944.442749023,6370225.429534912,-24758.178740739822,-1454893.946647644,-7615939.617156982,-8174263.954162598,-4436066.150665283,35151107.78808594,18533824.920654297,22246425.62866211,10674416.542053223,-868927.7768135071,-679698.646068573,-3126871.109008789,-2644950.8666992188,-4315506.458282471,14799347.877502441,13513577.461242676,14572156.90612793,-88996.00803852081,-1283906.2213897705,-2245729.923248291,-3272280.693054199,14904088.973999023,23098590.850830078,13241675.37689209,-102197.74395227432,1104257.2259902954
0.3,25271139.14489746,-4175101.2802124023,-12256126.403808594,-5411103.72543335,-7013722.896575928,61230007.17163086,16130693.435668945,16252647.399902344,13978095.054626465,-5408798.2177734375,-4947528.839111328,-21535547.256469727,-22279464.721679688,-31335916.51916504,58412162.78076172,25293411.254882812,15891287.803649902,7048636.436462402,-5561570.167541504,-6181823.253631592,-15064038.276672363,-20961036.682128906,-5169731.140136719,44902328.49121094,14486562.728881836,19623203.27758789,-893914.3419265747,520709.8722457886,-11250030.517578125,-10350949.28741455,-9787579.536437988,-4882377.147674561,38932144.16503906,10425621.98638916,15431346.893310547,6076343.059539795,10518.37857812643,-730292.022228241,-7206896.3050842285,-7833822.250366211,-3763945.3411102295,37348049.16381836,18888923.64501953,21989404.678344727,10249079.704284668,-739969.6707725525,168079.6891450882,-2426308.1550598145,-1860859.1556549072,-3348189.115524292,14987313.270568848,13884422.302246094,14444468.49822998,-26742.09699034691,-518263.87643814087,-1751525.640487671,-2766088.9625549316,17197546.005249023,24260761.260986328,14404911.994934082,736090.6600952148,1950199.6040344238
0.305,27664419.174194336,2188963.4132385254,-1805759.9067687988,-5107698.440551758,885781.1093330383,56600963.5925293,16573945.999145508,16841264.724731445,14805617.332458496,-959901.9885063171,-589870.3336715698,-14347458.839416504,-15096902.847290039,-18780485.153198242,53562114.71557617,22598333.35876465,15036567.687988281,8255198.4786987305,-2478908.5388183594,-2968580.961227417,-10622872.352600098,-15040210.723876953,-1582712.5310897827,39740165.71044922,11537413.597106934,17946691.513061523,-752154.9463272095,312282.6814651489,-8922137.260437012,-7258189.678192139,-6638108.253479004,-1403325.915336609,34876331.3293457,6899230.003356934,13413989.067077637,5423386.573791504,-75516.61133766174,1174899.4588851929,-4940079.212188721,-5637153.148651123,-684483.7665557861,35335136.41357422,16731039.047241211,20376436.233520508,8550894.737243652,-746962.2492790222,2053342.1039581299,227724.93958473206,746867.299079895,-414458.9900970459,13858431.816101074,12966197.967529297,13475995.063781738,-67339.75559473038,1784091.9494628906,797643.24426651,-274309.4563484192,16769460.678100586,22684890.747070312,13752381.324768066,2828561.305999756,3961153.507232666
0.31,25962137.22229004,9764348.983764648,12320369.720458984,-4780987.26272583,11178768.157958984,41593410.49194336,13216421.127319336,13614738.464355469,11892637.252807617,3763240.098953247,3912154.43611145,-4103311.061859131,-4567936.897277832,-535862.386226654,38958724.97558594,13764650.344848633,12002563.4765625,7729408.740997314,259221.8518257141,141628.83162498474,-5086987.495422363,-6956911.087036133,2790703.773498535,28320758.819580078,4092040.538787842,14870576.858520508,-1369579.6728134155,91575.7343173027,-6272864.34173584,-3030116.558074951,-2615691.661834717,2917094.2306518555,26627040.86303711,731504.6787261963,10247905.731201172,4351931.571960449,-186151.60882472992,3288812.1604919434,-2281078.815460205,-3053719.2821502686,3046840.9061431885,28311370.849609375,11936396.598815918,17424884.796142578,6478573.322296143,-817713.4990692139,4062414.6461486816,3352629.4231414795,3687134.9811553955,2786375.5226135254,11527493.476867676,10524736.404418945,11835015.296936035,-33174.142241477966,4372810.363769531,3947582.483291626,2894479.274749756,14420568.466186523,19653974.533081055,12488387.107849121,5151908.874511719,6230827.808380127
0.315,19764997.482299805,12250328.063964844,20311027.52685547,-4524102.687835693,16229717.254638672,23290102.005004883,6840433.120727539,7166305.065155029,5829090.118408203,4873309.135437012,4882273.6740112305,2184504.0321350098,2105663.537979126,12315435.409545898,22042591.094970703,2901147.8424072266,7588475.704193115,5081569.194793701,690891.0274505615,898994.3265914917,-1758399.7249603271,-1115883.708000183,5909220.218658447,14805679.321289062,-4503432.750701904,11208446.502685547,-3178135.1566314697,84904.35779094696,-4628334.999084473,268913.3286476135,512105.7629585266,6023524.761199951,16958366.39404297,-5930079.460144043,6395861.625671387,2934786.558151245,-220544.11470890045,4981363.296508789,-159485.47422885895,-1053259.3727111816,5746697.425842285,20149087.90588379,6371555.328369141,13731881.141662598,4544117.9275512695,-850278.0199050903,5636719.226837158,5701198.577880859,5880132.19833374,5092905.044555664,8251074.79095459,6948914.527893066,9252936.363220215,49843.769520521164,6249698.162078857,6259665.966033936,5467521.190643311,11993654.251098633,16961103.439331055,11760410.30883789,7001339.435577393,8056126.594543457
0.32,12479613.304138184,7938966.751098633,18136913.299560547,-4382946.968078613,13741780.281066895,11455960.273742676,701034.3670845032,859173.834323883,-170359.84992980957,1887029.4094085693,1958515.0480270386,1753789.0672683716,1821339.2496109009,14334638.595581055,11873526.573181152,-4111899.8527526855,3340878.0097961426,1566935.3008270264,-958857.7151298523,-777129.7097206116,-1404028.1772613525,654715.895652771,7245040.416717529,5673480.033874512,-10041447.639465332,7763304.710388184,-5545396.327972412,215177.56581306458,-4265654.563903809,1684839.9639129639,2033058.6433410645,7263056.755065918,10472295.761108398,-10619333.267211914,3050723.075866699,1596624.9704360962,-209377.42292881012,5997775.077819824,1208910.346031189,198853.92487049103,6883546.829223633,15327078.819274902,2614112.377166748,10370487.213134766,3129777.193069458,-827579.0214538574,6580869.674682617,6884134.292602539,7051565.170288086,6282173.156738281,5143218.517303467,3785303.3542633057,6882146.35848999,36860.82363128662,7172097.206115723,7293624.8779296875,6852522.850036621,10546693.801879883,15330751.419067383,11639290.809631348,8066333.770751953,9031170.845031738
0.325,5883130.5503845215,-241669.50583457947,9478087.425231934,-4359296.798706055,7521440.505981445,7506486.415863037,-3830297.7085113525,-3675125.5989074707,-4733753.204345703,-2947708.84513855,-2735498.1899261475,-2163824.3198394775,-2230285.167694092,9892987.251281738,9336878.776550293,-6198297.500610352,-236733.95812511444,-1883593.6784744263,-3488367.0806884766,-3585150.2418518066,-2830910.4442596436,-408888.87643814087,7276882.648468018,3101840.4960632324,-11897609.71069336,5010670.185089111,-7468931.198120117,318294.9423789978,-5122159.957885742,1265854.4778823853,1886800.2891540527,7172637.462615967,9084977.149963379,-12467241.287231445,1173633.2178115845,811640.3222084045,-210463.4791612625,6241497.51663208,1610362.6489639282,615480.4229736328,6825675.964355469,14392563.819885254,1696242.5708770752,8391070.365905762,2937547.445297241,-769166.886806488,6845199.108123779,7041731.357574463,7294053.077697754,6491383.075714111,3868750.57220459,2785438.5375976562,7184267.520904541,-12563.852593302727,7376760.959625244,7404222.9652404785,7051709.6519470215,10138690.948486328,14952614.784240723,12005807.876586914,8278800.964355469,9106737.13684082
0.33,-574681.0436248779,-7920245.170593262,1105237.603187561,-4315186.500549316,2458280.8017730713,5487584.114074707,-7790290.355682373,-7456292.629241943,-8833726.88293457,-7228387.832641602,-7000983.238220215,-4954695.701599121,-5135737.419128418,6454779.624938965,8548634.52911377,-7017789.363861084,-3376408.815383911,-5033451.080322266,-5902019.023895264,-6150678.634643555,-4653422.3556518555,-2034728.0502319336,6572055.339813232,3329489.7079467773,-12578431.129455566,3181853.5327911377,-8455424.308776855,373585.3135585785,-6734349.727630615,-177981.36174678802,563555.5982589722,6493784.427642822,9870602.60772705,-12655214.309692383,537068.4862136841,571223.6166000366,-230181.44071102142,5911699.295043945,1032253.8614273071,202139.750123024,6175474.166870117,14351122.856140137,2215361.8335723877,8044447.898864746,3995743.5131073,-697679.1620254517,6595796.585083008,6501921.1769104,6841481.685638428,5959934.711456299,4657610.4164123535,3818828.821182251,10377211.570739746,83124.42153692245,7162405.014038086,7054898.262023926,6451558.1130981445,9900884.628295898,15697880.744934082,12632632.2555542,7841242.790222168,8623687.744140625
0.335,-5542852.401733398,-11732599.258422852,-2417535.5434417725,-4113262.65335083,598837.0776176453,2610317.9454803467,-11018541.33605957,-10600966.453552246,-12137779.235839844,-9386474.609375,-9280469.89440918,-5094886.779785156,-5178389.072418213,6477610.5880737305,6270721.435546875,-9018328.666687012,-5540183.067321777,-6955645.0843811035,-7088764.190673828,-7236026.763916016,-5749699.592590332,-2737544.7750091553,5594299.793243408,2313856.363296509,-13673600.196838379,2288920.6409454346,-8596913.33770752,396220.29662132263,-7701124.668121338,-1276274.8003005981,-704412.6391410828,5648065.567016602,9105320.930480957,-12805428.504943848,177825.07836818695,468432.87348747253,-292134.43398475647,5499033.451080322,239002.987742424,-435501.69467926025,5414731.502532959,12978096.008300781,2068640.7089233398,8587175.369262695,4810219.287872314,-677714.9438858032,6196805.477142334,5682789.325714111,6084036.827087402,5118247.032165527,5501086.711883545,4626176.357269287,12797924.995422363,243540.73405265808,6698315.620422363,6478693.008422852,5606333.7326049805,8407322.883605957,16290977.478027344,12372210.502624512,7120428.562164307,7988534.927368164
0.34,-5784719.944000244,-10888197.898864746,-1122783.1840515137,-3894802.3319244385,1284443.3784484863,2548930.1681518555,-11374567.985534668,-11140669.822692871,-12396870.613098145,-8740095.138549805,-8708313.941955566,-3858294.2485809326,-3807649.850845337,7489914.894104004,5170286.178588867,-10605516.43371582,-5681135.654449463,-6328564.167022705,-6044494.152069092,-6105824.4705200195,-5284462.928771973,-2214977.979660034,4921515.464782715,516110.24141311646,-14290313.720703125,2124054.9087524414,-8162873.268127441,328066.349029541,-6758586.883544922,-998249.8288154602,-674992.8593635559,4986641.407012939,7165346.622467041,-13240713.119506836,-269845.4558849335,372692.13795661926,-406971.18639945984,5402244.091033936,245353.87754440308,-406217.18764305115,4929235.935211182,11187143.325805664,834222.9723930359,9128327.369689941,3949522.7336883545,-750048.1009483337,5982326.507568359,5068218.70803833,5500405.311584473,4519321.441650391,4451949.596405029,3454985.6185913086,11104816.436767578,188449.6659040451,6174951.076507568,5921083.927154541,5037136.554718018,5321814.53704834,14916442.87109375,10146205.90209961,6486678.123474121,7450148.582458496
0.345,-1602060.1987838745,-7774893.283843994,1535980.8206558228,-3957063.913345337,2959358.2153320312,7399015.9034729,-8517478.942871094,-8533948.89831543,-9365465.16418457,-6079961.29989624,-5963252.067565918,-2549718.8568115234,-2565410.852432251,7742908.954620361,7432294.3687438965,-9785962.104797363,-4019862.651824951,-3602922.201156616,-3295122.3850250244,-3503726.9592285156,-3496606.1115264893,-887963.593006134,5183771.133422852,319803.3273220062,-13537980.079650879,2464098.4535217285,-7371137.1421813965,209862.8431558609,-4524597.644805908,388546.52643203735,682225.5849838257,5118206.50100708,6876060.009002686,-13284761.428833008,-312507.301568985,636795.4015731812,-441357.73181915283,5759998.798370361,1225341.0816192627,560762.7630233765,5132374.7634887695,10695193.29071045,-308405.63774108887,9378918.647766113,2191891.1933898926,-791025.3405570984,6207208.633422852,5182711.124420166,5574147.701263428,4666603.088378906,2025137.186050415,1111220.121383667,6808403.968811035,-53665.1611328125,6067334.6519470215,5940823.554992676,5184391.021728516,2523716.449737549,11530796.05102539,7061268.8064575195,6397074.6994018555,7366869.926452637
0.35,2225650.5489349365,-5598845.958709717,2655372.381210327,-4259394.16885376,4462785.720825195,12880661.010742188,-5453874.111175537,-5468443.870544434,-6181558.609008789,-3422598.8388061523,-3176115.7512664795,-1337833.6429595947,-1543481.707572937,8536175.727844238,10338965.41595459,-7698932.17086792,-2200042.963027954,-1147065.281867981,-883687.7942085266,-1297347.903251648,-1758405.2085876465,713384.8667144775,6585549.354553223,1276134.8485946655,-12410882.949829102,3218729.9728393555,-6379579.067230225,274222.64218330383,-2837663.6505126953,1800118.4463500977,2296503.3054351807,6488337.516784668,8133527.755737305,-12791461.944580078,289809.2269897461,1447173.7146377563,-214692.1455860138,6628241.062164307,2516194.5819854736,1946303.2484054565,6282017.230987549,10998934.745788574,-693583.3096504211,9434933.66241455,1662384.9868774414,-604719.7580337524,7088007.926940918,6340782.642364502,6620077.610015869,5801759.243011475,322016.80541038513,-361253.3211708069,4232672.691345215,-69899.43236112595,6906022.071838379,7048894.40536499,6277452.46887207,2322157.621383667,8600395.202636719,5845052.719116211,7304429.531097412,8233488.082885742
0.355,2973464.4889831543,-4738284.587860107,2808827.1617889404,-4341574.192047119,5496448.993682861,15056470.87097168,-4522719.383239746,-4268515.110015869,-5171494.007110596,-2126796.007156372,-1862924.8142242432,-171881.88433647156,-443964.6303653717,10850270.27130127,11046449.661254883,-6484117.9847717285,-1195858.2401275635,-432758.2120895386,-135943.9641237259,-511981.8449020386,-1036291.3608551025,2223723.888397217,8494692.8024292,1325751.781463623,-11918443.67980957,4314630.031585693,-5269297.5997924805,636481.0466766357,-2345425.3673553467,2676141.2620544434,3333178.0433654785,8554651.260375977,8125020.980834961,-12202075.958251953,1057051.7778396606,2370387.077331543,200554.46028709412,7878003.5972595215,3545886.754989624,3086055.7556152344,8008731.842041016,10633068.084716797,-733408.6298942566,9481930.73272705,2947839.4985198975,-234356.76097869873,8496009.826660156,8149306.297302246,8371426.582336426,7542777.061462402,534862.6375198364,-70522.46481180191,4975608.348846436,331349.10464286804,8542912.483215332,8919273.376464844,7950128.078460693,4749639.511108398,8733819.007873535,7630691.051483154,9048898.696899414,9961011.88659668
0.36,3782379.627227783,-2792856.216430664,4386640.548706055,-3946193.4566497803,6407602.787017822,17056476.593017578,-4035061.3594055176,-3544835.5674743652,-4615574.836730957,-1623069.6439743042,-1414634.9430084229,484794.64650154114,290068.1495666504,12679520.606994629,12066747.665405273,-5457874.774932861,-18745.383247733116,-308644.26493644714,-288865.44704437256,-406291.127204895,-971552.0143508911,3175255.537033081,9722154.61730957,1627088.189125061,-10703603.744506836,5685173.511505127,-3988563.060760498,1017814.2786026001,-2110621.929168701,3090768.337249756,3678591.728210449,9892562.866210938,6957229.6142578125,-11057579.040527344,1880054.5930862427,2929239.7499084473,475060.76097488403,8858626.365661621,4060546.875,3500369.5487976074,9271454.811096191,10486531.257629395,-224906.2955379486,10151321.411132812,4563353.061676025,-12178.396806120872,9634826.66015625,9448367.11883545,9826613.426208496,8820603.370666504,2352983.7131500244,1576461.911201477,7016538.143157959,757873.7139701843,9916316.986083984,10324960.708618164,9173480.033874512,7683967.113494873,11940250.396728516,10600561.141967773,10545039.176940918,11446157.455444336
0.365,7729271.411895752,848580.6584358215,7196707.725524902,-3482211.112976074,7201381.206512451,23537677.764892578,-1462151.7658233643,-997306.1680793762,-2076328.2775878906,-811326.1461257935,-566904.5448303223,134689.1075372696,-41104.596108198166,11522970.199584961,17335975.646972656,-2399695.39642334,2488560.438156128,855939.3286705017,-38158.249109983444,10167.798027396202,-1072673.5591888428,2882183.790206909,9516711.235046387,5602688.789367676,-6808510.303497314,7294303.417205811,-2539295.6733703613,1049086.9283676147,-1654508.352279663,2800409.3170166016,3235662.6987457275,9588152.885437012,8455799.102783203,-8157927.513122559,3466970.205307007,3277135.3721618652,444889.8136615753,8786437.98828125,3726984.5008850098,2879512.071609497,9226115.226745605,13111693.382263184,1981137.5141143799,12224537.84942627,5372066.497802734,-135314.7178888321,9614899.635314941,9301609.992980957,10020309.448242188,8738576.889038086,5007930.755615234,4063671.588897705,8724499.702453613,756014.9431228638,10022742.27142334,10281665.802001953,9108837.127685547,9407863.61694336,15605715.75164795,12384193.420410156,10702905.654907227,11561519.622802734
0.37,11263260.841369629,2657614.9463653564,7835158.824920654,-3536481.8572998047,7038401.126861572,31170463.56201172,1596383.5716247559,1866393.804550171,819615.1852607727,-29165.536165237427,356506.25824928284,-890736.3414764404,-1150928.6165237427,8421423.91204834,24397981.643676758,1717663.4073257446,5129689.2166137695,2374145.746231079,561962.8429412842,507036.030292511,-1598716.0205841064,1411121.4876174927,8464433.670043945,12341167.449951172,-1727832.4365615845,8686976.432800293,-1371122.121810913,790498.7931251526,-1658062.8156661987,1543257.1172714233,1999647.9749679565,8429320.335388184,13445591.926574707,-4153688.907623291,5710182.189941406,3771914.9589538574,340750.7538795471,7857594.966888428,2564374.6852874756,1555520.77293396,8289047.2412109375,18146663.665771484,5533689.498901367,15030941.009521484,5881907.4630737305,-356357.6638698578,8645635.604858398,8223374.366760254,9205666.542053223,7758484.840393066,7489452.362060547,6633703.708648682,10584492.683410645,448744.2374229431,9166047.096252441,9257206.916809082,8198696.136474609,9842906.951904297,16903940.200805664,12568701.74407959,9788583.755493164,10612422.943115234
0.375,8196822.166442871,-693885.5648040771,4440001.964569092,-4059872.627258301,5375932.216644287,31229854.583740234,883967.3399925232,1029535.4127883911,27230.221778154373,-497991.3830757141,-54378.51324677467,-1358838.7966156006,-1594013.8101577759,7535548.686981201,25680915.83251953,2455536.8423461914,5070783.1382751465,2075503.8261413574,654050.9462356567,396959.96046066284,-2354964.256286621,455300.1821041107,8116683.9599609375,15275563.24005127,-201572.06058502197,8647765.159606934,-1300604.8202514648,657006.9789886475,-2204160.451889038,365837.60380744934,1015113.8305664062,8185516.357421875,16524305.34362793,-2383790.0161743164,6578543.186187744,4132430.076599121,424590.7664299011,7390732.765197754,1669137.4778747559,803239.4647598267,7923238.754272461,21070938.110351562,7500422.00088501,16022333.145141602,6635775.566101074,-324626.8332004547,8105036.735534668,7866468.906402588,8796483.993530273,7460488.796234131,8276199.3408203125,7655656.337738037,12541238.784790039,305773.5562324524,8747991.561889648,8805274.00970459,7901645.183563232,9412537.574768066,15149347.305297852,12118621.826171875,9278929.710388184,10122978.210449219
0.38,-953632.7123641968,-7008696.556091309,97094.65503692627,-4394312.381744385,3338979.721069336,21915130.615234375,-4197109.222412109,-4023273.468017578,-4865058.898925781,-2185211.658477783,-1879626.2741088867,-206975.71337223053,-197436.1687898636,11460429.191589355,18487665.1763916,-2299511.671066284,1576755.7621002197,-409920.1261997223,177952.1256685257,-120042.27191209793,-2038736.343383789,1951175.4512786865,9382543.563842773,10330362.319946289,-4452720.642089844,6400398.254394531,-2573427.200317383,819502.7112960815,-2138636.589050293,992748.6181259155,1759606.2421798706,9590390.2053833,13080104.82788086,-5092050.552368164,4377005.100250244,3790462.4938964844,589900.553226471,8260108.947753906,2244904.7565460205,1615719.6760177612,9022602.081298828,18483190.536499023,5736991.405487061,13602466.583251953,6998671.054840088,-105043.94769668579,8915794.372558594,9101592.063903809,9726316.452026367,8671768.188476562,6607030.391693115,6000591.75491333,12784197.807312012,449304.461479187,9593472.480773926,9801495.552062988,8991990.089416504,8126341.819763184,12178837.776184082,11505948.066711426,10073440.551757812,10930182.456970215
0.385,-8259109.4970703125,-10216820.71685791,-398912.34040260315,-4122082.7102661133,3056868.7915802,12278791.427612305,-8899823.188781738,-8674057.960510254,-9263503.074645996,-3424807.7869415283,-3292335.7486724854,2282651.662826538,2542253.255844116,18320377.349853516,9497570.037841797,-8648799.896240234,-2310903.549194336,-2795596.5995788574,-147885.9782218933,-306385.45751571655,-134430.8853149414,5512011.528015137,11521328.926086426,2386563.539505005,-10443259.239196777,3256375.551223755,-4199419.975280762,986652.8511047363,-1006208.5390090942,3310393.810272217,3981037.6167297363,11580480.575561523,6404673.5763549805,-9777132.034301758,616110.5632781982,2940612.79296875,561128.6163330078,9674670.219421387,3768920.660018921,3183265.6860351562,10865442.276000977,12851164.817810059,2192129.611968994,9870675.086975098,6478186.60736084,-63320.30892372131,10330931.663513184,10939599.990844727,11300118.446350098,10395977.020263672,4010558.605194092,3044735.1932525635,10663582.801818848,574054.8968315125,10986342.430114746,11460750.579833984,10611910.820007324,6193763.256072998,10509085.655212402,10585464.477539062,11431948.6618042,12181893.348693848
0.39,-8007096.290588379,-7549419.403076172,3593496.084213257,-3544758.3198547363,5186486.24420166,11184790.61126709,-9156237.602233887,-9009705.543518066,-9392337.799072266,-3067798.614501953,-2910200.357437134,4586242.67578125,4863270.282745361,23951614.379882812,6827503.681182861,-11113741.874694824,-3245982.6469421387,-3148651.361465454,-94081.88611268997,-148255.28860092163,1660391.6883468628,8464218.139648438,13096747.398376465,-225168.1387424469,-12240443.229675293,1722295.0458526611,-4921127.3193359375,897238.7909889221,-94707.1760892868,5024632.930755615,5519676.208496094,12785343.170166016,3513645.887374878,-11660966.873168945,-1333759.1886520386,2396070.718765259,369452.44669914246,10259654.04510498,4419966.220855713,3700157.642364502,12110993.385314941,9807744.979858398,680502.1166801453,8639465.33203125,5963772.773742676,-267454.26654815674,11007411.95678711,11912667.274475098,12210540.771484375,11225863.456726074,3167129.2781829834,1765628.9339065552,8621550.559997559,517383.5754394531,11781033.515930176,12454471.588134766,11505636.215209961,4693514.347076416,11020207.405090332,9803694.725036621,12160389.90020752,12707637.786865234
0.395,-3510837.3165130615,-2944647.3121643066,7773176.670074463,-3241070.508956909,7661521.911621094,16464038.848876953,-6895534.992218018,-6997137.069702148,-7199699.878692627,-2155170.202255249,-1805263.638496399,5298952.102661133,5445717.334747314,25878332.138061523,10403430.938720703,-9426675.796508789,-1933791.8758392334,-2502680.778503418,-205224.24578666687,-353818.1483745575,1449425.5781173706,8898293.495178223,13561120.986938477,3827208.2805633545,-9312344.551086426,2363020.181655884,-4824843.883514404,741264.1644477844,-514850.2588272095,4605965.137481689,5030257.225036621,13060903.549194336,5862475.872039795,-9660635.948181152,-526767.3134803772,2353212.356567383,340196.9075202942,9892456.0546875,3596802.234649658,2766325.2353668213,12378780.364990234,11594907.760620117,1945583.2242965698,10692409.51538086,6522355.079650879,-355133.3248615265,10809208.869934082,11898124.694824219,12203732.49053955,11164468.765258789,5027817.726135254,3511773.8246917725,9412231.4453125,509217.14305877686,11882472.99194336,12496331.214904785,11603030.20477295,4986468.315124512,12663990.020751953,10234239.57824707,12192028.999328613,12631399.154663086
0.4,-2256524.3244171143,-2316111.3262176514,7873138.904571533,-3405050.277709961,7616535.663604736,18838888.16833496,-7024870.3956604,-7482301.712036133,-7399140.83480835,-2690941.095352173,-2258431.6730499268,4223730.564117432,4340375.4234313965,24473348.61755371,13359839.43939209,-8143871.307373047,-1980173.2301712036,-3215189.6953582764,-875502.0499229431,-1228264.0933990479,-271046.1914539337,7544236.183166504,13286578.178405762,7934525.012969971,-6735533.237457275,2949666.0232543945,-5071822.643280029,852920.8302497864,-1524800.5390167236,3130858.898162842,3601557.731628418,12938767.433166504,8634536.743164062,-7477372.646331787,605501.0557174683,2234576.70211792,610852.6587486267,9465192.794799805,2623728.036880493,1747960.090637207,12137571.334838867,15250053.405761719,3212932.586669922,12969800.94909668,7810153.007507324,-92410.40796041489,10578183.1741333,11679114.34173584,11914132.118225098,11057574.272155762,7898230.55267334,6596885.204315186,12546157.836914062,744111.0610961914,11857284.545898438,12151581.764221191,11555325.508117676,7231031.41784668,14203217.506408691,11981090.545654297,12149717.330932617,12708669.662475586
0.405,-6520009.994506836,-6726354.122161865,4009070.39642334,-3774895.668029785,4677429.676055908,14190022.468566895,-10345214.84375,-11138824.462890625,-10754618.644714355,-4864695.072174072,-4601958.274841309,2307108.4022521973,2501204.490661621,21427330.017089844,11412855.14831543,-9868915.557861328,-4360764.503479004,-5234359.264373779,-1677522.4208831787,-2119294.8818206787,-1453605.055809021,6125998.020172119,12441492.080688477,6844755.64956665,-8050915.718078613,1795252.0847320557,-5798745.155334473,1170608.2820892334,-1818572.8788375854,2290690.1836395264,2833307.0278167725,12296422.958374023,8341487.884521484,-8320885.65826416,67271.8733549118,1964614.3913269043,925192.7137374878,9148850.440979004,2499761.5814208984,1542406.5589904785,11461071.014404297,16796594.619750977,2462373.733520508,12866475.105285645,8686675.071716309,259349.58457946777,10416781.425476074,11247992.515563965,11437426.567077637,10789202.690124512,9324832.916259766,8234403.610229492,14892930.030822754,1032564.0439987183,11543224.334716797,11520445.823669434,11217049.598693848,9418625.831604004,15198047.637939453,13200667.381286621,11851540.565490723,12625957.489013672
0.41,-11435351.371765137,-11545565.605163574,-22307.967767119408,-4036544.7998046875,1806537.8665924072,7690532.207489014,-12451366.424560547,-13377287.864685059,-12975447.654724121,-6359694.957733154,-6303219.795227051,1008717.8945541382,1164107.9187393188,18648639.678955078,7357925.891876221,-11999508.85772705,-5653141.975402832,-5791270.2560424805,-1745809.4358444214,-2068955.898284912,-1166265.9645080566,5345777.0347595215,10978943.824768066,2890552.520751953,-10885902.404785156,434421.98634147644,-5546356.201171875,1297678.9474487305,-1354976.5348434448,2163419.723510742,2757474.660873413,10803924.560546875,6658390.522003174,-10954277.038574219,-1032653.0933380127,2291630.983352661,972645.7595825195,8262371.063232422,2559446.334838867,1511189.6991729736,10103001.594543457,15230277.061462402,776307.1656227112,11326375.007629395,8748560.905456543,326852.82826423645,9568144.798278809,9998247.146606445,10334547.04284668,9576992.988586426,8213494.300842285,7156239.986419678,14187781.33392334,1068426.3706207275,10312202.453613281,10278544.425964355,9950621.604919434,8649703.979492188,15230786.323547363,11698158.264160156,10594535.827636719,11409179.6875
0.415,-11890694.618225098,-12162117.958068848,-860343.6946868896,-4103905.200958252,2121079.444885254,6022731.781005859,-10145284.652709961,-10866147.994995117,-10795872.688293457,-5146897.792816162,-5026633.262634277,1444222.5694656372,1400600.790977478,17937360.763549805,6065509.796142578,-11302393.913269043,-3269936.0847473145,-3481538.0573272705,-782598.6742973328,-910984.5161437988,-20008.845254778862,5317829.132080078,9768257.141113281,1580745.5778121948,-11129502.296447754,1099305.1528930664,-3724804.8782348633,1053650.975227356,-802061.2001419067,2235550.64201355,2832492.1131134033,9448187.828063965,6331071.853637695,-12307623.863220215,-878116.1904335022,3233541.965484619,738255.1431655884,7043554.306030273,2249384.641647339,1254045.1288223267,8852456.092834473,12353852.272033691,-36167.71474480629,10654245.376586914,8379108.428955078,138466.13466739655,8255450.248718262,8609086.036682129,9160296.440124512,8069202.423095703,5469325.542449951,4443233.489990234,11047054.290771484,847518.6228752136,8799249.649047852,9084784.507751465,8466238.975524902,4600821.971893311,13879220.962524414,7904277.324676514,9003829.956054688,9622365.951538086
0.42,-9006743.431091309,-9499819.7555542,994480.6098937988,-4058377.742767334,4758555.889129639,9242005.348205566,-6269246.1013793945,-6546261.787414551,-6835800.1708984375,-2660992.383956909,-2226506.7100524902,3047046.184539795,2918647.7661132812,19487403.869628906,8149296.760559082,-8853048.324584961,41265.13749361038,-987218.6779975891,177457.88395404816,140684.93247032166,1121493.1011199951,6247603.416442871,10235289.573669434,4207676.887512207,-8753423.690795898,2889922.3804473877,-2303318.2621002197,705574.3932723999,-286961.76409721375,2921031.713485718,3404883.861541748,9940443.992614746,7424967.288970947,-11818845.748901367,26447.603479027748,3451041.4600372314,438565.07539749146,6972530.364990234,2474715.232849121,1672114.9682998657,9266431.80847168,10531223.29711914,180942.69931316376,11245137.214660645,8012061.11907959,4036.5373715758324,8087686.538696289,8926013.946533203,9447576.522827148,8254653.9306640625,3520622.2534179688,2673288.8221740723,8143861.770629883,633153.7961959839,8821269.035339355,9465415.000915527,8652655.601501465,1293396.9497680664,12362475.395202637,5426658.630371094,8998508.45336914,9448592.185974121
0.425,-8261221.885681152,-8658111.572265625,1850540.6379699707,-3957582.712173462,5347055.435180664,12213484.764099121,-5965587.615966797,-5874395.370483398,-6257944.583892822,-2607125.0438690186,-1952548.3846664429,3379926.6815185547,3499273.5385894775,20753311.157226562,10496776.580810547,-7966742.515563965,-144707.62014389038,-1823979.0201187134,-469421.6251373291,-553494.7514533997,1518833.7564468384,7454101.5625,12194808.959960938,7496370.315551758,-6876712.322235107,3110520.839691162,-3303996.5629577637,603462.2192382812,219522.49109745026,4343659.400939941,4606536.388397217,12100131.98852539,8853716.850280762,-11100017.547607422,190507.27784633636,2253162.145614624,259629.7264099121,8519347.190856934,3736976.6235351562,3062362.6708984375,11326100.34942627,11040848.731994629,921941.1611557007,12125868.797302246,8164802.551269531,45442.26452708244,9694924.354553223,11164743.423461914,11390766.143798828,10488820.07598877,4687486.64855957,3996221.0655212402,7997474.670410156,620234.0126037598,10776094.436645508,11528614.99786377,10794335.36529541,3248120.7847595215,13362541.198730469,7334763.050079346,11084130.28717041,11669746.398925781
0.43,-11801270.484924316,-11904283.52355957,-453706.7711353302,-3745097.3987579346,1762203.574180603,12171737.670898438,-9386675.834655762,-9232296.94366455,-9528677.940368652,-5893427.37197876,-5360545.1583862305,842959.463596344,1368851.900100708,19138299.9420166,11474609.375,-8770800.590515137,-3108460.6647491455,-5115899.085998535,-2724541.425704956,-2924035.5491638184,542121.946811676,7295485.496520996,13459304.809570312,8975106.239318848,-6535819.530487061,1910781.0258865356,-5396193.027496338,768091.3805961609,248674.4523048401,5021525.3829956055,5129051.208496094,13474738.121032715,10551718.711853027,-10638060.569763184,140788.64455223083,1168037.8913879395,255981.26649856567,9917530.059814453,4463482.37991333,3741165.87638855,12801097.869873047,13369975.090026855,2428464.17427063,13272227.28729248,9402411.460876465,119320.8321928978,11263294.219970703,12896018.028259277,12934473.037719727,12354572.296142578,8761629.104614258,8001078.6056518555,10836907.386779785,773397.7437019348,12502502.44140625,13131351.470947266,12520834.922790527,9478974.342346191,17484140.396118164,12096698.760986328,13066881.17980957,14022630.69152832
0.435,-14692370.414733887,-14690582.275390625,-2760155.9162139893,-3371427.297592163,-1939459.0854644775,12318234.44366455,-11009409.90447998,-11001088.14239502,-11290420.532226562,-8433398.246765137,-8225914.001464844,-2389746.904373169,-1662417.1733856201,16250988.006591797,13226926.803588867,-7874337.673187256,-3505894.184112549,-6098938.465118408,-4172239.7804260254,-4532318.115234375,-1243311.1667633057,5617689.609527588,12733630.180358887,9914816.856384277,-5479242.80166626,2551932.5733184814,-5196990.013122559,942713.5586738586,-305621.4451789856,3821592.8077697754,3992957.11517334,12632159.233093262,12642963.409423828,-9202322.006225586,1775090.6944274902,2022459.0301513672,392917.54364967346,9424690.246582031,3090372.085571289,2266042.947769165,12151130.676269531,15654073.715209961,4742070.67489624,15378978.729248047,11375709.533691406,131090.03007411957,10819276.809692383,12183918.952941895,12425527.572631836,11844504.356384277,12609238.624572754,11688398.361206055,14255658.149719238,936602.5924682617,12036430.358886719,12579544.067382812,11877578.735351562,13813713.073730469,21415964.126586914,14920532.2265625,12794780.731201172,14017949.104309082
0.44,-10793736.457824707,-11026298.522949219,206675.87220668793,-2993988.037109375,-34746.17376923561,17083791.732788086,-6932847.499847412,-7014330.863952637,-7438651.084899902,-6098520.755767822,-6100713.25302124,-2294213.7718200684,-1688331.961631775,16747396.469116211,18150493.621826172,-3522087.335586548,952161.1332893372,-2461322.069168091,-2731040.7161712646,-3300906.8965911865,-1925001.0251998901,4800480.365753174,11664772.033691406,12763256.072998047,-2159689.426422119,6345062.732696533,-2076504.9457550049,937026.5603065491,-581320.9414482117,2209563.2553100586,2561440.7062530518,11394671.440124512,14718389.511108398,-6308846.950531006,5172502.517700195,4105896.9497680664,568621.2182044983,7841673.851013184,779140.6512260437,-60110.85957288742,10872447.01385498,16599016.189575195,6757139.205932617,17980396.270751953,12651311.874389648,150437.02721595764,9116054.53491211,10453832.626342773,11092166.900634766,10292614.936828613,13552849.769592285,12653008.460998535,15721925.735473633,986775.5174636841,10469033.241271973,11148214.340209961,10226162.910461426,12451362.609863281,21879907.608032227,13599334.716796875,11188433.647155762,12377530.097961426
0.445,-1395546.6747283936,-2074061.632156372,8299825.668334961,-2909848.928451538,6859000.205993652,25391639.709472656,-364378.2436847687,-382715.3444290161,-955162.8232002258,-776651.8592834473,-751118.1831359863,1530152.678489685,1896487.4744415283,21761974.334716797,24723110.19897461,1595542.7885055542,6010078.430175781,2234597.4445343018,170521.28911018372,-533680.0217628479,-629074.6331214905,6621705.532073975,12530170.440673828,17470090.866088867,1798867.5832748413,10229788.780212402,638788.7001037598,821906.3878059387,-33680.57310581207,2465693.950653076,2869432.4493408203,12262543.678283691,17048093.795776367,-3303693.5329437256,8193204.879760742,5034998.893737793,665997.8628158569,7369678.974151611,33942.20769405365,-749377.6082992554,11403537.75024414,16948055.267333984,7612908.840179443,19671516.41845703,12476151.466369629,222005.00965118408,8636950.492858887,10507512.092590332,11324346.542358398,10403508.186340332,12683868.408203125,11949516.296386719,15479308.128356934,939623.773097992,10418211.936950684,11347374.91607666,10365230.560302734,8732233.047485352,20260881.423950195,11131834.030151367,10915918.350219727,11898418.426513672
0.45,5288917.541503906,4181929.588317871,14588140.487670898,-3161117.7921295166,11713668.823242188,30974098.205566406,2302181.7207336426,2370542.526245117,1698743.224143982,1529499.4115829468,1676870.9421157837,4720758.438110352,4946068.286895752,26261888.50402832,28543085.0982666,3772055.8643341064,6733560.562133789,3175650.119781494,1100573.3013153076,543598.8903045654,934935.2717399597,9380833.625793457,14791912.078857422,21319036.48376465,3929166.793823242,10933674.812316895,133186.86187267303,819272.8161811829,600036.1442565918,4322906.494140625,4608853.340148926,14655562.400817871,20309526.443481445,-1706213.8319015503,9312532.424926758,4210657.119750977,684928.1787872314,8515546.798706055,1152271.3899612427,437219.5303440094,13508239.74609375,18042354.583740234,7958636.76071167,19997480.392456055,11924159.049987793,294901.37100219727,10078487.396240234,12491992.950439453,13144186.973571777,12285552.978515625,13020189.28527832,12303485.870361328,15689818.382263184,953467.845916748,12209960.9375,13267694.473266602,12475709.915161133,8092855.453491211,20457460.403442383,11232069.01550293,12548285.484313965,13385164.260864258
0.455,4245992.660522461,2995265.7222747803,13765609.741210938,-3358409.1663360596,10181275.367736816,29966842.651367188,-353565.90151786804,-287058.14480781555,-1052029.6096801758,-1180447.3400115967,-987947.7024078369,3974732.8758239746,4168833.7326049805,25390550.61340332,27537996.292114258,2803933.1436157227,4056806.0874938965,654934.1678619385,-525577.8431892395,-650455.117225647,926425.8742332458,10207508.087158203,15823714.256286621,21851615.90576172,3874888.1816864014,9355890.274047852,-2164461.851119995,1057189.94140625,685121.7746734619,5509071.826934814,5716745.376586914,15722322.463989258,23154111.862182617,-1819126.009941101,9108103.75213623,3491370.916366577,756211.1616134644,9664078.712463379,2072461.1282348633,1468367.6958084106,14641886.711120605,19249223.709106445,8516708.374023438,19653789.520263672,12163679.122924805,360661.0298156738,11520887.37487793,13860344.886779785,14224542.617797852,13499224.662780762,14784696.578979492,13865341.186523438,16748165.130615234,1141663.1937026978,13492904.663085938,14487596.51184082,13950014.114379883,10582141.876220703,22762298.583984375,13101370.811462402,13894643.783569336,14717741.012573242
0.46,-55813.33860754967,-941581.3088417053,9383239.74609375,-3146147.9663848877,6467789.649963379,25879533.767700195,-3294398.069381714,-3277206.8977355957,-4097715.377807617,-3917192.9359436035,-3781773.328781128,1733085.1554870605,1908414.1254425049,21169223.78540039,24392683.029174805,1527647.614479065,2853460.7887268066,-664128.6611557007,-1370105.7434082031,-1078298.807144165,297766.17884635925,9204571.723937988,14619284.629821777,19309394.83642578,2976062.536239624,8704966.54510498,-2844916.343688965,1404634.952545166,1040487.4086380005,5233617.305755615,5514050.483703613,14390126.22833252,22431810.37902832,-3198666.3341522217,8662201.881408691,4122839.92767334,929555.4757118225,9544856.071472168,1553580.0457000732,1120022.177696228,13582302.09350586,18312120.43762207,8402896.881103516,18979589.462280273,12431852.340698242,445705.3542137146,11230371.475219727,13070940.017700195,13251410.484313965,12671865.463256836,14917690.27709961,13848056.79321289,16451335.906982422,1341249.1083145142,12654460.906982422,13525451.66015625,13112674.713134766,11713340.759277344,23246141.43371582,12968748.092651367,13216289.520263672,14078950.881958008
0.465,-453051.6266822815,-436444.7295665741,8867343.90258789,-2766041.5172576904,7271506.309509277,24553487.77770996,-2074425.220489502,-2085258.7223052979,-2794725.4180908203,-1571789.3838882446,-1531078.1002044678,2450630.4264068604,2571972.131729126,19327774.047851562,22653175.354003906,1634341.4783477783,5005300.521850586,1679127.3355484009,965381.1454772949,1363117.3372268677,1136247.0388412476,8799748.420715332,12786200.523376465,15988019.943237305,2066725.730895996,9679327.011108398,-1229842.4243927002,1538999.1998672485,2520878.553390503,4865305.9005737305,5184769.153594971,12457249.641418457,17287666.32080078,-5360823.154449463,8039768.218994141,4898664.474487305,1011232.9721450806,8622942.924499512,515161.03744506836,204616.7105436325,11729391.098022461,14512578.010559082,6445103.168487549,17681716.918945312,11230802.536010742,434138.8940811157,9723077.774047852,11283790.588378906,11423501.968383789,10976011.276245117,11758478.164672852,10797380.447387695,13553076.74407959,1217040.6579971313,10753444.67163086,11551535.606384277,11117846.488952637,9517117.500305176,19777885.43701172,9757486.343383789,11318539.6194458,12199914.932250977
0.47,2736308.813095093,3969203.7105560303,12947080.612182617,-2791681.7665100098,12345193.862915039,26071434.020996094,1393916.9645309448,1364423.0365753174,956888.4372711182,3938857.5553894043,3904000.2822875977,5876748.561859131,5924232.959747314,20947299.95727539,22038614.27307129,1825744.62890625,7409308.433532715,4787502.765655518,4173435.2111816406,4399405.956268311,2954447.031021118,9604846.000671387,11887923.240661621,13587532.997131348,945269.1674232483,9949481.010437012,109491.15455150604,1230887.0553970337,4104900.83694458,5188222.408294678,5311754.22668457,11640135.765075684,11362536.430358887,-7600971.221923828,6935737.133026123,4275644.302368164,758026.123046875,7915045.261383057,71393.06515455246,-266617.3577308655,10715798.377990723,10205431.938171387,3542776.107788086,16070949.55444336,8961485.862731934,132545.1135635376,8582239.151000977,10206248.28338623,10389740.943908691,9942440.9866333,7903932.571411133,7162861.347198486,10179962.158203125,690111.0410690308,9614532.470703125,10361659.049987793,9847955.703735352,6975139.141082764,15491483.688354492,6481550.216674805,9983901.977539062,10834712.982177734
0.475,3069220.781326294,5288724.422454834,14792736.053466797,-3292774.200439453,14973239.89868164,25747402.19116211,1983259.4394683838,1926854.2528152466,1818181.1571121216,6125612.735748291,6072855.9494018555,7206355.571746826,7206343.650817871,21323713.302612305,19930686.950683594,469915.2112007141,6731800.556182861,4537361.621856689,4183560.371398926,4218480.587005615,2976159.5726013184,9483287.811279297,11748637.199401855,12057249.069213867,-403939.96238708496,8083282.470703125,-893980.1454544067,602744.5793151855,3906553.030014038,5112428.665161133,4938808.917999268,11631208.419799805,9320672.035217285,-8858615.87524414,5745970.249176025,2786312.8185272217,236515.16437530518,7763777.732849121,21545.885130763054,-427728.89137268066,10606763.83972168,8730385.780334473,2263198.8525390625,15334109.30633545,7691286.563873291,-393443.40562820435,8511343.002319336,10128880.500793457,10387279.510498047,9738272.666931152,7226392.2691345215,6548317.909240723,9407633.781433105,131196.2455511093,9640666.961669922,10317163.467407227,9729893.684387207,7417931.55670166,14776020.050048828,6110388.278961182,9854193.687438965,10624882.698059082
0.48,-1545021.414756775,609744.1911697388,10045070.64819336,-3665774.5838165283,11232234.954833984,22576045.989990234,-1443147.7785110474,-1503481.2688827515,-1545365.810394287,2219562.530517578,2222651.720046997,3666312.6945495605,3722166.2998199463,17352519.989013672,16513227.462768555,-1446739.0775680542,3664745.807647705,881759.2263221741,498277.33635902405,467935.5323314667,-3375.826170668006,6952166.0804748535,11763402.938842773,11083995.819091797,-1107084.87033844,5769624.23324585,-3279201.030731201,73107.58531093597,1654790.0438308716,3605448.007583618,3371787.3096466064,11610360.145568848,12170174.598693848,-8360954.284667969,5292572.498321533,2076486.587524414,-152191.51973724365,8100514.4119262695,-255505.71084022522,-747909.0094566345,10900070.190429688,11415885.925292969,4103281.021118164,16241746.90246582,8397637.367248535,-753929.4958114624,9198169.708251953,10618566.513061523,10926790.237426758,10027693.748474121,10552228.927612305,9735658.645629883,11780844.688415527,-16004.407778382301,10248744.96459961,10890084.266662598,10262289.047241211,10696106.910705566,18028886.795043945,8432849.884033203,10560319.900512695,11258478.164672852
0.485,-5578805.446624756,-4878822.326660156,3013205.2898406982,-3472751.8558502197,4948370.933532715,21135162.353515625,-4835542.678833008,-4877561.092376709,-5077086.448669434,-3834550.619125366,-3748331.069946289,-1837502.7179718018,-1590174.3173599243,12137899.398803711,14937285.423278809,-1526417.61302948,1483218.9083099365,-2479801.893234253,-3452248.5733032227,-3480564.832687378,-3988502.264022827,3431972.9804992676,12071504.592895508,11246521.949768066,-344387.4418735504,5387371.54006958,-4665623.664855957,-17798.86893928051,-1079208.7316513062,1302452.564239502,1344040.6322479248,11772274.017333984,16907707.21435547,-6429623.126983643,5876163.482666016,2517435.073852539,-100080.98930120468,8772391.319274902,-798078.7754058838,-1241236.0906600952,11561260.223388672,16493425.369262695,7931964.39743042,18212404.251098633,9936232.566833496,-664262.4139785767,10087239.265441895,11482107.162475586,11774477.005004883,10785505.294799805,15321874.618530273,14337987.899780273,15366276.741027832,274359.97128486633,11064266.204833984,11753013.610839844,11128113.746643066,14440211.296081543,21908763.885498047,11327432.632446289,11634617.805480957,12357907.29522705
0.49,-4788050.174713135,-5854655.742645264,338899.04618263245,-3061283.3499908447,2243622.064590454,23160020.82824707,-4896019.458770752,-4951862.335205078,-5288093.566894531,-6601038.932800293,-6490849.494934082,-4462364.196777344,-4025716.781616211,10322029.113769531,15705287.93334961,217059.74638462067,1762776.255607605,-2811200.3803253174,-4620226.860046387,-4667789.459228516,-6243492.126464844,1363319.5161819458,12619856.834411621,12397355.079650879,1195035.5768203735,6702473.6404418945,-4240956.3064575195,283759.56416130066,-2783788.6810302734,-446345.12066841125,-70484.07942056656,12323584.55657959,19636510.848999023,-4614677.429199219,6843540.191650391,3116961.2407684326,255779.2365550995,9203700.065612793,-1465296.983718872,-1888992.0711517334,12254582.405090332,20122571.94519043,11030161.85760498,19777912.139892578,10895697.593688965,-285998.5828399658,10574227.333068848,12222710.609436035,12469386.100769043,11532778.7399292,18330631.256103516,17306949.615478516,18025201.79748535,652408.4210395813,11719923.01940918,12450327.87322998,11853124.618530273,16550485.610961914,23271623.611450195,13096485.137939453,12411481.857299805,13242563.247680664
0.495,-2927713.8710021973,-4395133.018493652,1799491.1670684814,-3059609.6515655518,3830146.551132202,23266836.166381836,-3273811.5787506104,-3356284.3799591064,-3620670.5570220947,-5071521.759033203,-5024562.835693359,-3138581.7527770996,-2736613.988876343,11389874.458312988,14904126.167297363,817789.3757820129,2966288.8050079346,-1095025.658607483,-3195897.340774536,-3321034.6698760986,-6064504.623413086,1310954.8091888428,12537614.822387695,12395017.623901367,1569857.120513916,7263716.697692871,-3383145.0939178467,640565.037727356,-3096855.878829956,-1084596.037864685,-629820.0488090515,12451230.0491333,18532281.87561035,-4643386.363983154,7024482.250213623,3259937.286376953,526697.8144645691,8733575.820922852,-2269120.216369629,-2788542.0322418213,12013043.403625488,19080854.415893555,11298276.901245117,19723453.521728516,11128750.801086426,28418.337926268578,10201950.073242188,11918064.11743164,12170763.969421387,11251540.184020996,17974168.77746582,17059749.603271484,18526371.002197266,863853.6334037781,11552719.116210938,12202800.750732422,11622952.461242676,15847743.98803711,21517223.358154297,12941811.561584473,12087453.842163086,12940496.444702148
0.5,-5582616.329193115,-6404541.969299316,961966.7530059814,-3540903.091430664,4596400.737762451,17959609.985351562,-3407803.773880005,-3430572.032928467,-3523576.9748687744,-2912006.139755249,-2951139.6884918213,-1728209.9723815918,-1593510.389328003,10046834.945678711,10763169.288635254,-1292111.873626709,3062085.1516723633,-118655.83062171936,-1572758.674621582,-1878534.9130630493,-5202084.541320801,1382504.2247772217,11302919.387817383,9958944.320678711,56666.59027338028,5865386.009216309,-3653455.0189971924,793091.2375450134,-2559886.693954468,-1154220.8194732666,-896731.8534851074,11399720.191955566,15253827.095031738,-6453878.879547119,5996444.7021484375,3328562.7365112305,557428.9560317993,7652862.548828125,-3024870.8724975586,-3684993.9823150635,10573004.722595215,14120431.900024414,9122497.55859375,18266277.313232422,11205380.4397583,189625.42712688446,9248339.653015137,10493028.64074707,10832593.91784668,9828949.928283691,15218160.629272461,14482194.900512695,16905935.287475586,979796.5288162231,10470454.216003418,10933790.20690918,10363597.869873047,12894809.72290039,18485984.802246094,11128713.607788086,10770809.173583984,11430441.856384277
0.505,-10992906.57043457,-13166661.262512207,-6301989.555358887,-4062706.94732666,-216853.2907962799,14252908.706665039,-5315060.615539551,-5210545.063018799,-5302450.180053711,-4274119.853973389,-4350343.704223633,-5124036.3121032715,-5219184.875488281,2294360.1608276367,8807868.957519531,-3063669.204711914,2270929.0981292725,-1115376.2340545654,-2037667.7513122559,-2623413.324356079,-6511612.892150879,-1149922.251701355,9462967.872619629,8230292.320251465,-1019191.7419433594,4379516.124725342,-4895045.280456543,761069.655418396,-2391168.5943603516,-1953660.011291504,-1956699.1329193115,9587493.896484375,14176868.438720703,-7358612.060546875,5084658.145904541,3738657.236099243,541711.2708091736,6971338.272094727,-3645340.919494629,-4350593.090057373,8925142.288208008,10445199.012756348,7514214.038848877,17465633.392333984,11518085.479736328,351120.5315589905,8513377.18963623,9051527.976989746,9511587.142944336,8394928.932189941,13314634.323120117,12720825.1953125,15112890.243530273,1155710.9355926514,9343045.234680176,9597084.999084473,9069333.07647705,11058092.11730957,17315214.157104492,9629024.505615234,9664700.508117676,10026036.262512207
