time,Fp1,Fpz,Fp2,AF3,AF4,F7,F5,F3,F1,Fz,F2,F4,F6,F8,FT7,FC5,FC3,FC1,FCz,FC2,FC4,FC6,FT8,T7,C5,C3,C1,Cz,C2,C4,C6,T8,TP7,CP5,CP3,CP1,CPz,CP2,CP4,CP6,TP8,P7,P5,P3,P1,Pz,P2,P4,P6,P8,PO7,PO5,PO3,POz,PO4,PO6,PO8,CB1,O1,Oz,O2,CB2
0.0,-12082674.980163574,-15239338.874816895,-20147708.892822266,-7534964.084625244,-11255657.196044922,2629739.52293396,440284.04355049133,-2707008.3618164062,-2955458.641052246,-4722885.1318359375,-4818517.208099365,-9355336.18927002,-9364638.328552246,-16122781.753540039,2521304.130554199,928867.6381111145,-3359370.470046997,-1099315.5241012573,-2180541.515350342,-3032265.1863098145,-5032435.417175293,-7028847.694396973,-9161631.58416748,2983966.35055542,1245689.9881362915,-134520.5456018448,-1719323.3966827393,126079.2464017868,-871638.6556625366,-2833844.9001312256,-3745035.409927368,-5250314.235687256,3509200.5729675293,1830695.0330734253,932242.0358657837,-276502.400636673,-30289.76358473301,-751042.7832603455,-1483392.1194076538,-2884701.728820801,-1465731.6207885742,2267328.5007476807,2102425.8136749268,1167963.2663726807,779610.0378036499,-49706.8352997303,1717913.1507873535,-258717.29850769043,-156289.9798154831,-563592.5531387329,3293759.346008301,2698961.019515991,2654186.248779297,21416.068077087402,282250.314950943,875252.0084381104,676783.6809158325,2758076.6677856445,2751052.141189575,2299778.938293457,1897460.2222442627,2339496.612548828
0.005,-41891235.3515625,-22947164.53552246,-40781326.29394531,-36777442.932128906,-17181735.99243164,-40281951.904296875,-40413825.98876953,-32614089.965820312,-25423725.128173828,-18124271.392822266,-13707653.999328613,-11163144.1116333,-10889267.921447754,-642680.2277565002,-41273937.2253418,-29285490.036010742,-26413221.35925293,-15946578.025817871,-11285044.67010498,-8310666.084289551,-6976703.643798828,-544297.7547645569,4853485.107421875,-22757379.53186035,-21688352.584838867,-15317116.737365723,-13224834.442138672,-4425371.170043945,-4413656.234741211,-1228028.2974243164,2923400.402069092,7326674.461364746,-6683360.0997924805,-9476161.95678711,-9673166.275024414,-6393187.999725342,-61250.40352344513,274946.6001987457,2794292.449951172,4743324.279785156,8495175.3616333,-390024.00636672974,-1345347.8813171387,-5700687.408447266,-3596670.627593994,-196296.1107492447,9370060.920715332,4898484.230041504,5072829.246520996,4818199.157714844,3430677.652359009,4316075.801849365,4176205.1582336426,-312823.74262809753,34798.58487844467,3246578.2165527344,4026946.0678100586,5177932.7392578125,5164758.205413818,3012843.132019043,4886897.087097168,5828601.837158203
0.01,-64010711.669921875,-35513465.881347656,-58242897.033691406,-51535163.87939453,-22002302.169799805,-61539291.38183594,-60415466.30859375,-45737369.537353516,-34283634.185791016,-22533113.479614258,-16564735.412597656,-12074035.64453125,-11777858.73413086,1653978.5861968994,-62774639.12963867,-42133045.1965332,-35835651.39770508,-20874479.293823242,-13934132.57598877,-9352068.901062012,-6879626.750946045,2427191.2574768066,9880796.432495117,-35427562.71362305,-31051221.84753418,-20747034.072875977,-17209278.106689453,-5343729.496002197,-5105161.666870117,-279022.33600616455,6370016.098022461,11315202.713012695,-10301360.130310059,-13124271.392822266,-13488865.852355957,-9578154.563903809,-311171.91910743713,27618.43614280224,4618631.362915039,7961139.678955078,13351916.313171387,-389072.2393989563,-1746034.3837738037,-7741596.221923828,-6431991.100311279,-432208.3294391632,11620123.863220215,6833036.422729492,7048443.31741333,7521612.644195557,5210382.93838501,6261020.183563232,6192494.3923950195,-511163.1155014038,709798.0380058289,4705781.936645508,5666958.332061768,7634949.207305908,7634444.713592529,4388887.882232666,7016198.635101318,8405043.601989746
0.015,-80669647.21679688,-55719188.69018555,-77184158.32519531,-55110908.50830078,-29539318.084716797,-61761245.72753906,-60713104.248046875,-44638572.692871094,-32064369.201660156,-21081485.748291016,-16581220.626831055,-16374191.284179688,-16239105.224609375,-12586685.180664062,-62726619.720458984,-39615722.65625,-33677436.82861328,-17440481.185913086,-11581903.457641602,-7906572.8187561035,-7423565.38772583,-1094673.8719940186,2849413.3949279785,-34260433.197021484,-28422561.645507812,-18143201.82800293,-14914050.102233887,-2610665.3213500977,-3894829.273223877,-1516756.6537857056,4725036.62109375,5278176.307678223,-7771113.395690918,-10338719.367980957,-12117831.230163574,-10118817.329406738,-676645.7557678223,-718544.3043708801,3251885.175704956,5156518.936157227,12165184.020996094,1149090.6476974487,-224452.2124528885,-6474322.79586792,-8058273.3154296875,-714913.8450622559,9377238.273620605,5246804.237365723,5515205.383300781,6310136.795043945,7539303.779602051,7539006.233215332,7516516.68548584,-633324.384689331,917461.0376358032,4613290.786743164,5051929.950714111,8906331.062316895,8942234.992980957,5578704.357147217,7866900.92086792,9298520.0881958
0.02,-99003997.80273438,-81169067.3828125,-101839073.18115234,-61972114.56298828,-43532527.923583984,-59919059.75341797,-59849441.52832031,-45498641.96777344,-32524974.822998047,-24287048.33984375,-21796020.5078125,-28301031.1126709,-28242874.145507812,-34072303.771972656,-60722232.818603516,-38266716.00341797,-33134090.423583984,-15964821.815490723,-11624210.357666016,-9742711.067199707,-12907616.61529541,-11022397.0413208,-11461762.428283691,-30821455.001831055,-26696660.9954834,-17293661.11755371,-13924473.762512207,-363626.3906955719,-4641284.942626953,-5955060.4820251465,-1629395.7233428955,-5028059.482574463,-6022413.730621338,-9151808.738708496,-12474074.363708496,-10352476.119995117,-848022.1033096313,-654124.4387626648,-282409.34014320374,-1552653.6703109741,7688899.040222168,672616.6605949402,-630696.1178779602,-7122666.358947754,-9223956.108093262,-887173.4142303467,7838250.160217285,2522559.404373169,2880662.202835083,2443153.6197662354,7651336.669921875,6848170.757293701,6562594.413757324,-789189.5174980164,-821349.0843772888,3198102.7126312256,3053086.280822754,7752797.603607178,7849321.8421936035,5074826.240539551,7526302.814483643,8320032.119750977
0.025,-118269721.98486328,-103439796.4477539,-124723281.86035156,-76796989.44091797,-59820529.93774414,-68964958.19091797,-69506172.18017578,-56150081.634521484,-42092250.82397461,-35277191.162109375,-33276611.328125,-43768154.14428711,-43626449.58496094,-48990135.192871094,-69968963.62304688,-47376922.607421875,-40866630.55419922,-22327642.4407959,-17979814.529418945,-17026929.85534668,-22506151.19934082,-22595512.39013672,-24364147.186279297,-35501934.05151367,-33016677.856445312,-22917589.18762207,-18224615.0970459,-2716210.8421325684,-9268033.027648926,-11937449.45526123,-9797008.514404297,-12908080.101013184,-10247675.895690918,-13949553.489685059,-16810508.728027344,-11216202.735900879,-734075.7846832275,-367179.5129776001,-4156298.6373901367,-7921953.6781311035,3058698.4157562256,-2711662.0540618896,-4055452.823638916,-10856945.991516113,-9138130.187988281,-871576.2495994568,9562075.6149292,1121120.4528808594,1531596.8990325928,-1024051.0702133179,4954532.623291016,4767812.252044678,4095890.522003174,-924219.1314697266,-2998033.285140991,1746108.7703704834,1234701.6334533691,5256542.682647705,5432715.41595459,3067334.1751098633,6574741.363525391,6459245.204925537
0.03,-128719848.6328125,-113459602.35595703,-133016220.09277344,-88686401.3671875,-68870002.74658203,-81837692.26074219,-81967521.66748047,-67524078.36914062,-52641010.28442383,-45452339.17236328,-42687461.853027344,-52705245.97167969,-52482246.39892578,-51282543.18237305,-83056488.03710938,-58906063.079833984,-49869773.864746094,-31110958.099365234,-26035097.122192383,-24835178.37524414,-29796318.05419922,-29227024.07836914,-29795076.370239258,-45309276.58081055,-41007484.436035156,-29487213.134765625,-23811416.625976562,-8478090.286254883,-14754525.184631348,-15543826.10321045,-15302625.65612793,-15794387.817382812,-17314533.233642578,-20126674.65209961,-20008419.036865234,-11572288.513183594,-614087.8200531006,-1357600.212097168,-6405812.2634887695,-10480432.510375977,234865.41211605072,-5366938.11416626,-6793895.244598389,-13181266.784667969,-6917562.007904053,-814355.6714057922,12183903.694152832,1786460.280418396,2152031.421661377,-1837126.4934539795,2421368.5989379883,3671063.6615753174,3130816.698074341,-917118.3109283447,-2698599.5769500732,1694377.6607513428,849334.3591690063,4426130.771636963,4652666.5687561035,1943673.2530593872,6054174.423217773,5651392.936706543
0.035,-126308242.79785156,-111164573.6694336,-126791824.34082031,-88130897.52197266,-67429466.2475586,-84524826.04980469,-84148101.80664062,-68474304.19921875,-54156269.07348633,-46372020.72143555,-42975761.41357422,-50793930.05371094,-50597858.42895508,-46831371.30737305,-85619987.48779297,-60937473.29711914,-50872734.06982422,-33472354.888916016,-28542661.666870117,-26800298.6907959,-29986984.252929688,-28165817.260742188,-27945051.193237305,-48713352.20336914,-41413452.1484375,-29974924.087524414,-24894536.9720459,-11789500.23651123,-16284856.796264648,-14223290.44342041,-14968061.447143555,-14784914.016723633,-19685617.446899414,-20768533.70666504,-17565088.272094727,-10691390.991210938,-774270.6537246704,-3264105.796813965,-5818229.675292969,-8735073.08959961,502198.87495040894,-3700250.1487731934,-5126413.345336914,-10672217.36907959,-3965592.861175537,-927908.9570045471,12814959.526062012,3725037.5747680664,4031696.319580078,-390826.13587379456,3184881.9255828857,4973546.028137207,5493141.174316406,-807810.3065490723,356943.9649581909,3450833.559036255,2312111.3777160645,6882447.719573975,7044260.501861572,3872250.3185272217,7037444.114685059,7394009.590148926
0.04,-120689270.01953125,-106440795.8984375,-120286979.67529297,-80982788.0859375,-62383163.45214844,-76636787.41455078,-76875488.28125,-61512920.37963867,-48363632.20214844,-40713062.28637695,-37033527.37426758,-44155986.78588867,-43995532.98950195,-44389770.5078125,-77408401.48925781,-54556304.931640625,-45078166.96166992,-28777532.57751465,-24717496.871948242,-22709798.81286621,-25134717.94128418,-22384050.369262695,-22821788.787841797,-42238468.170166016,-35308090.20996094,-25621871.948242188,-21603788.375854492,-9309638.977050781,-13032349.586486816,-9551919.937133789,-9737128.257751465,-11363449.096679688,-15563357.35321045,-16208297.729492188,-12485314.36920166,-9724787.712097168,-1109612.1072769165,-4049823.760986328,-3091359.853744507,-4914277.55355835,4142443.1800842285,608944.7736740112,-740412.4736785889,-6198628.4255981445,-2725014.2097473145,-1182827.5918960571,11954780.578613281,5639673.709869385,5981113.910675049,1389356.255531311,6516010.284423828,7293160.438537598,9422613.143920898,-739618.8974380493,3664311.8858337402,6156198.978424072,5121686.4585876465,10755881.309509277,10721373.558044434,8191023.826599121,9643534.660339355,11301543.235778809
0.045,-122265220.64208984,-107504646.30126953,-123078460.69335938,-79518714.90478516,-61253128.05175781,-70332023.62060547,-72138778.68652344,-57864112.854003906,-44788982.39135742,-37528137.20703125,-32915206.909179688,-41042911.529541016,-40826889.03808594,-46476573.9440918,-70968757.62939453,-50685653.68652344,-41231891.63208008,-24378610.610961914,-20573612.213134766,-18216720.581054688,-21023689.27001953,-17154821.395874023,-18307300.567626953,-35335124.96948242,-31456312.17956543,-23421279.907226562,-19051973.342895508,-4560529.2320251465,-9053793.907165527,-5675269.603729248,-4301987.648010254,-6936048.0308532715,-10899044.99053955,-12930565.83404541,-10991145.133972168,-10026131.629943848,-1256820.6787109375,-3024211.4067077637,-649365.246295929,-1921103.1198501587,9019569.396972656,2662627.935409546,1389366.1499023438,-4925446.033477783,-3349291.3246154785,-1309282.660484314,11864598.274230957,6453749.179840088,6873605.251312256,2355661.153793335,8999873.161315918,8458509.44519043,11715264.320373535,-730213.2248878479,5367416.858673096,8343067.169189453,7911527.633666992,12921130.180358887,12692888.259887695,11945834.159851074,12543556.213378906,15409675.598144531
0.05,-127699974.0600586,-112102287.29248047,-130126190.18554688,-85357643.1274414,-63887561.7980957,-71156105.0415039,-74476951.5991211,-61220729.82788086,-46931083.67919922,-39948291.77856445,-33758682.25097656,-43302124.0234375,-43021129.6081543,-52531517.028808594,-71968315.12451172,-53317138.671875,-43167324.06616211,-24954896.926879883,-20739164.352416992,-17721927.642822266,-20998182.29675293,-16302787.780761719,-17652677.536010742,-36050235.748291016,-33116111.755371094,-25970037.46032715,-20163185.119628906,-3083493.232727051,-8287788.391113281,-5459463.596343994,-3377169.132232666,-4879190.444946289,-10187977.79083252,-13753398.895263672,-13560512.54272461,-11105654.7164917,-1086038.2318496704,-1981580.8534622192,-637245.8934783936,-1684744.8348999023,11122200.012207031,1340705.8715820312,125539.51144218445,-6972430.229187012,-3546429.15725708,-1168833.7326049805,12949895.858764648,5708082.19909668,6128293.037414551,2446718.454360962,9393664.360046387,8638178.825378418,11645500.183105469,-690365.6721115112,5646010.398864746,8756373.405456543,8966749.19128418,12778492.92755127,12531115.531921387,13027786.254882812,13961024.284362793,17972259.521484375
0.055,-128294952.39257812,-114722976.68457031,-134548446.65527344,-90002418.5180664,-66711227.41699219,-71773979.18701172,-76275329.58984375,-64733329.77294922,-49382411.95678711,-43008129.11987305,-36480102.5390625,-48014228.82080078,-47786373.138427734,-64680870.056152344,-72842369.07958984,-55190658.56933594,-46138904.5715332,-27270914.07775879,-23399147.033691406,-20236942.291259766,-24235355.377197266,-20871126.174926758,-23149030.685424805,-39706928.25317383,-34678478.2409668,-28688947.677612305,-22636100.76904297,-5308470.726013184,-10494409.561157227,-8501723.289489746,-7743695.7359313965,-8861070.63293457,-10568383.21685791,-14458730.697631836,-14813911.437988281,-11318796.157836914,-856489.2411231995,-2693993.56842041,-3039526.7009735107,-4411785.125732422,8283649.444580078,660278.3799171448,-512108.86240005493,-7684329.032897949,-1988283.7533950806,-964029.3717384338,13612010.00213623,3971437.454223633,4332570.552825928,1617713.3321762085,9737318.03894043,9665381.43157959,11113874.435424805,-637032.2704315186,4964263.916015625,7131385.326385498,7558849.334716797,12269932.746887207,12175773.620605469,12000221.252441406,13346663.475036621,18562280.654907227
0.06,-128597579.95605469,-118451408.38623047,-140507598.87695312,-90457878.11279297,-70536842.3461914,-67520744.32373047,-73147445.67871094,-63927108.76464844,-48410514.83154297,-42997230.529785156,-38588516.23535156,-53297210.693359375,-53195831.298828125,-83389137.2680664,-68696586.60888672,-51457386.0168457,-45658775.329589844,-26911155.700683594,-24594326.01928711,-22655382.15637207,-28356145.85876465,-28767841.339111328,-32811962.127685547,-37999580.38330078,-32257190.704345703,-27585243.225097656,-23405897.14050293,-7047910.213470459,-12828440.66619873,-12276611.328125,-13720874.786376953,-17385238.647460938,-8262249.946594238,-11749413.49029541,-12183523.178100586,-10213487.62512207,-844475.2097129822,-4574767.589569092,-5997369.766235352,-8417557.716369629,2999342.679977417,3037880.8975219727,1829914.8082733154,-5006680.488586426,-155193.56727600098,-955159.8429679871,13055171.966552734,2614228.7254333496,2972812.1757507324,-83964.07216787338,11190857.887268066,11517247.200012207,11181725.50201416,-684534.7881317139,3222227.096557617,4636969.566345215,4926578.044891357,12423155.784606934,12469309.80682373,10670901.29852295,11843569.7555542,17600585.9375
0.065,-139671508.7890625,-128122390.74707031,-151707580.56640625,-92808288.57421875,-76837989.8071289,-65825019.83642578,-71992424.01123047,-63385581.970214844,-47592113.49487305,-42461849.212646484,-40598777.770996094,-57547092.43774414,-57486026.763916016,-99065925.59814453,-66986206.0546875,-48071243.28613281,-43951141.357421875,-25209085.46447754,-24077278.13720703,-23911022.186279297,-31089782.71484375,-34472267.150878906,-38579238.89160156,-32932487.48779297,-30208780.28869629,-25025693.893432617,-23000612.258911133,-5893291.473388672,-13582369.804382324,-14161520.957946777,-16196958.541870117,-22730905.532836914,-6023140.430450439,-9218223.571777344,-9733284.950256348,-9100235.939025879,-1001562.9529953003,-5708521.366119385,-7544845.104217529,-10736788.749694824,288663.8939380646,5005538.463592529,3642559.051513672,-2605566.5016174316,13375.826179981232,-1099393.9638137817,12374692.916870117,2726835.250854492,3133408.308029175,-1511822.7005004883,11584199.905395508,11731724.739074707,10508953.094482422,-807858.2286834717,1046200.156211853,3153190.3743743896,3268753.0517578125,11845659.255981445,11887791.633605957,9775430.679321289,10903563.499450684,15597862.243652344
0.07,-150961959.8388672,-132084594.7265625,-153928741.45507812,-96658897.39990234,-78709136.96289062,-70091812.13378906,-75445007.32421875,-65729675.29296875,-49028583.52661133,-43347312.927246094,-41192424.77416992,-56238422.39379883,-56096317.291259766,-98672393.79882812,-71267440.79589844,-49657947.5402832,-43992576.599121094,-25134372.71118164,-23787242.889404297,-24095495.223999023,-30377708.435058594,-32431453.704833984,-33549018.85986328,-31362932.205200195,-32026813.507080078,-24453508.377075195,-23219657.89794922,-3527783.155441284,-12913746.83380127,-12951703.071594238,-13083337.783813477,-19314668.655395508,-7809555.0537109375,-10760989.18914795,-10775313.377380371,-8961261.749267578,-1081606.5073013306,-5434649.94430542,-7004358.768463135,-9558371.543884277,2080078.8402557373,2965124.3686676025,1454589.605331421,-3637000.08392334,-991739.7499084473,-1137510.6573104858,12587189.674377441,3919513.702392578,4323739.051818848,-1371120.0952529907,9185309.410095215,9379013.061523438,8111619.94934082,-817315.2804374695,-275091.2010669708,3362796.0681915283,3285293.8175201416,9494859.69543457,9459563.255310059,8748150.825500488,10580090.522766113,13054755.210876465
0.075,-127579849.24316406,-105218055.72509766,-124965652.46582031,-86385711.66992188,-64479614.2578125,-63310615.53955078,-67652191.16210938,-60990962.982177734,-44983970.642089844,-40243862.15209961,-35379528.0456543,-45850414.27612305,-45640663.146972656,-83510612.48779297,-64545738.220214844,-45917076.110839844,-41185363.76953125,-23479518.89038086,-22490146.63696289,-21883527.755737305,-25611263.275146484,-23481006.622314453,-22283538.818359375,-28777383.80432129,-30254228.591918945,-22637666.702270508,-22386894.22607422,-1633026.123046875,-11218443.870544434,-9793660.163879395,-7723433.494567871,-12148020.74432373,-8952013.01574707,-11841659.545898438,-10875488.28125,-8660261.154174805,-969655.0965309143,-4860084.056854248,-5445134.63973999,-6806133.74710083,4476600.170135498,258693.09902191162,-1181924.58152771,-4798120.498657227,-970030.8442115784,-976595.3421592712,12807444.57244873,4250927.925109863,4640107.63168335,-743971.2882041931,6510760.78414917,7384136.199951172,5676370.143890381,-651863.6345863342,-890719.7713851929,3589873.0754852295,3160052.537918091,7016654.014587402,6948824.405670166,7032030.10559082,9381507.873535156,10255022.048950195
0.08,-52299762.72583008,-41038658.142089844,-66402359.00878906,-49308971.4050293,-34381858.825683594,-24370027.542114258,-30556228.637695312,-37041717.529296875,-26518575.66833496,-26868392.944335938,-21655704.498291016,-31730909.34753418,-31568008.422851562,-72781578.06396484,-25574535.369873047,-21875925.064086914,-27762897.491455078,-13880220.413208008,-16734075.546264648,-16386638.641357422,-19675720.21484375,-16563068.389892578,-19353633.880615234,-11519848.823547363,-14134029.388427734,-12834856.986999512,-16655115.127563477,687325.0603675842,-8949896.812438965,-7900774.4789123535,-6686928.749084473,-12929206.848144531,58462.74271607399,-4091394.4244384766,-3234327.0778656006,-6199032.783508301,-751117.7062988281,-5125364.303588867,-5146672.72567749,-7046252.250671387,1646294.116973877,3559159.994125366,2428156.3758850098,-343962.75877952576,1000598.3114242554,-787097.2752571106,11442154.884338379,1896445.7511901855,2400942.087173462,-2877276.1821746826,7311614.990234375,8890738.487243652,5424089.431762695,-505010.12802124023,-2474847.7935791016,1422674.7751235962,684684.0977668762,6658529.758453369,6575397.491455078,4644579.4105529785,6091127.872467041,6917573.45199585
0.085,38811687.46948242,26947031.021118164,-14283838.272094727,551015.1386260986,-7733074.66506958,39256404.876708984,26690574.645996094,220124.45330619812,744090.735912323,-8059988.975524902,-8252279.281616211,-26706361.770629883,-26637535.095214844,-84343345.64208984,38225177.76489258,18585145.950317383,-5663865.089416504,2094040.6322479248,-7576032.1617126465,-10894138.33618164,-17981811.5234375,-21131114.959716797,-34601917.2668457,21860652.923583984,13476964.950561523,4245246.887207031,-6426230.430603027,3982418.7755584717,-7650883.674621582,-10300212.860107422,-14088832.85522461,-27082658.767700195,19283571.243286133,12005394.93560791,10525871.276855469,-1609753.3702850342,-546442.0914649963,-6127484.7984313965,-7962198.734283447,-12783452.033996582,-7783341.407775879,13073275.566101074,12247291.564941406,9332733.154296875,3546236.038208008,-717388.6299133301,8662032.127380371,-2919960.0219726562,-2227861.8812561035,-9285541.534423828,11101311.683654785,12840591.430664062,6953561.782836914,-535634.1600418091,-5323701.858520508,-3338921.070098877,-3974694.25201416,8103972.434997559,7932015.895843506,1880967.140197754,1653902.7690887451,2969558.7158203125
0.09,82278396.60644531,49586204.528808594,-9304039.95513916,28784818.649291992,-7442525.863647461,90437957.76367188,68907638.54980469,26692846.298217773,17545547.485351562,1024111.9861602783,-7483122.825622559,-39302028.65600586,-39255466.46118164,-117324462.890625,89552810.66894531,50646984.1003418,11227079.391479492,13061968.803405762,-2276294.231414795,-11396060.943603516,-24306114.196777344,-38241706.84814453,-63090835.57128906,52735176.08642578,35333557.12890625,18109163.284301758,1770753.7412643433,5888844.4900512695,-9299030.303955078,-17457015.991210938,-28047725.677490234,-48260604.85839844,36538188.93432617,25769495.010375977,20633844.37561035,2493262.0525360107,-401528.56707572937,-7217872.619628906,-13756163.597106934,-21845508.575439453,-19408689.498901367,21676038.74206543,20905742.645263672,17452287.673950195,5144809.246063232,-694092.4525260925,6532290.935516357,-8053193.092346191,-7353762.149810791,-17286640.167236328,14326848.983764648,15874903.678894043,8451305.389404297,-601211.5478515625,-7235366.8212890625,-8064244.270324707,-8355757.713317871,9586152.076721191,9313585.28137207,-286594.9869155884,-1121897.81665802,36065.26553630829
0.095,51640659.33227539,10236468.315124512,-57688026.428222656,15416374.206542969,-37282039.642333984,100617034.91210938,71306167.60253906,24808298.110961914,11330443.382263184,-9036532.402038574,-22807003.021240234,-65080329.89501953,-64981452.94189453,-156767700.1953125,99652107.23876953,55016761.779785156,11583390.235900879,10438180.923461914,-6454174.995422363,-19886093.139648438,-37381401.06201172,-60259727.478027344,-91465400.69580078,62737335.205078125,38871414.18457031,19976373.67248535,2038625.0019073486,3938167.095184326,-13973781.58569336,-27076860.427856445,-42763023.376464844,-66141105.65185547,41895641.3269043,29283153.533935547,21067220.68786621,3745748.0430603027,-312080.7409286499,-8355412.483215332,-20506252.28881836,-30094116.2109375,-27879102.70690918,24499326.705932617,23553890.228271484,19411808.013916016,6097402.095794678,-573965.1918411255,6443684.101104736,-11633247.375488281,-11137579.917907715,-22623186.111450195,16211084.365844727,17520835.876464844,10020439.147949219,-459294.28935050964,-6612249.374389648,-10043859.481811523,-10392020.225524902,11164450.645446777,10951606.750488281,54187.53996491432,-246216.0289287567,695870.9359169006
0.1,-17630773.544311523,-59146781.92138672,-126209556.57958984,-23609893.798828125,-77691513.06152344,78619201.66015625,45076721.19140625,2658492.088317871,-9298999.786376953,-30052694.32067871,-44019390.10620117,-90762428.2836914,-90634384.15527344,-188859695.4345703,77407035.82763672,38644611.35864258,-291390.68722724915,-977555.9902191162,-16578113.555908203,-30853944.778442383,-51206470.48950195,-77780487.06054688,-110282363.89160156,54599235.53466797,29656190.872192383,12903883.934020996,-3997810.125350952,-477695.7631111145,-18917610.16845703,-35518592.834472656,-53031009.674072266,-75564521.78955078,38755031.58569336,25951999.66430664,16219478.607177734,2505585.6704711914,-256097.82338142395,-9751539.23034668,-25720443.725585938,-35237819.67163086,-31309177.39868164,24246723.175048828,23096580.505371094,17527841.567993164,7384837.627410889,-380046.42724990845,7422784.328460693,-13506287.574768066,-13107143.40209961,-23622131.34765625,19211027.145385742,20076694.48852539,13010918.617248535,-150968.2536125183,-5043736.934661865,-9202486.991882324,-10147081.37512207,14125046.730041504,14146991.729736328,3846240.520477295,3172524.6906280518,5093039.989471436
0.105,-71135284.42382812,-112169952.39257812,-174738983.15429688,-55198432.92236328,-104517837.52441406,54383895.87402344,20170658.111572266,-16985315.322875977,-24965589.52331543,-44531696.31958008,-56904792.78564453,-105445808.41064453,-105370269.77539062,-207021331.78710938,53029815.673828125,22993228.912353516,-10438909.530639648,-9140106.201171875,-23408231.735229492,-36309284.21020508,-58829643.24951172,-85398200.98876953,-117561363.22021484,45021026.611328125,21740341.186523438,6729814.052581787,-9517610.549926758,-3273710.9661102295,-20618301.391601562,-39248821.25854492,-56454257.96508789,-76770866.39404297,36403057.09838867,23355394.36340332,13432116.508483887,725582.0035934448,-219949.21565055847,-10791961.669921875,-27594039.916992188,-36941410.064697266,-30693899.154663086,24971023.559570312,23706468.58215332,15920817.375183105,8331661.224365234,-296995.4311847687,7747682.094573975,-14243401.527404785,-13645620.346069336,-21684043.884277344,23332490.921020508,23517633.43811035,16364826.202392578,17589.496448636055,-5123742.10357666,-7495120.525360107,-8820506.09588623,17408231.735229492,17627008.43811035,8669655.799865723,5947042.465209961,9570950.508117676
0.11,-89933471.6796875,-131254547.11914062,-190185714.7216797,-64173149.10888672,-110117309.5703125,43785446.16699219,11182995.796203613,-22514232.635498047,-27151136.39831543,-44694606.78100586,-56785354.61425781,-107570922.8515625,-107588272.09472656,-210456741.3330078,42536685.943603516,18163797.37854004,-12007460.594177246,-9100701.332092285,-22473897.93395996,-33969642.639160156,-57500099.182128906,-83349548.33984375,-115435127.25830078,42568229.67529297,20276556.01501465,5588400.363922119,-10745372.772216797,-2440337.4195098877,-18052528.381347656,-36751811.98120117,-53501888.275146484,-71759384.15527344,37130439.75830078,22932561.87438965,13412835.121154785,-718141.6153907776,-223610.5054616928,-10445293.426513672,-25773332.595825195,-35256027.22167969,-27449863.43383789,25591505.05065918,24277946.47216797,14749321.937561035,7137624.263763428,-454588.74106407166,7452881.813049316,-13756815.910339355,-12935911.178588867,-18772247.314453125,24649288.177490234,24469116.2109375,16951356.887817383,-113417.01447963715,-6852950.572967529,-6211865.425109863,-7111620.4261779785,17933225.631713867,18121021.270751953,10277257.919311523,6235424.995422363,10406549.453735352
0.115,-94040168.76220703,-133431610.10742188,-189267684.93652344,-62407474.517822266,-105859458.92333984,40217060.08911133,9882310.86730957,-21371316.90979004,-23974348.068237305,-38990272.521972656,-51342178.34472656,-103520774.8413086,-103588081.35986328,-205200775.14648438,39167701.721191406,17297512.05444336,-10482800.483703613,-6552238.941192627,-18361799.240112305,-29177690.505981445,-51471141.81518555,-77098976.1352539,-109047821.04492188,42041805.267333984,19976734.161376953,5346996.784210205,-10061741.828918457,61299.70774054527,-14020978.927612305,-30756208.419799805,-47646556.85424805,-64300086.975097656,36758331.298828125,21502531.051635742,12152511.596679688,-2177584.409713745,-290468.30534935,-9086732.864379883,-22269756.317138672,-31426334.381103516,-23374614.715576172,23561956.40563965,22241083.1451416,12509684.562683105,4065849.781036377,-765530.4074287415,7837854.862213135,-12031332.969665527,-11272859.573364258,-16091735.83984375,21688745.498657227,21769033.432006836,14581413.269042969,-336769.9384689331,-8059476.852416992,-4954278.469085693,-5188008.785247803,15556067.46673584,15534833.908081055,7710772.0375061035,5330505.847930908,8331267.356872559
0.12,-104150398.25439453,-140396728.515625,-192918121.33789062,-66290122.985839844,-106219131.46972656,34154754.638671875,5462205.88684082,-24353099.822998047,-25959102.630615234,-39373908.99658203,-50634510.0402832,-100967185.9741211,-100985351.5625,-202351501.46484375,33191284.1796875,12647870.063781738,-12790353.775024414,-8093643.1884765625,-18186458.587646484,-28634912.490844727,-48544551.849365234,-74027107.23876953,-105499893.18847656,37762828.8269043,16929695.12939453,2276315.212249756,-11119582.176208496,1025327.8017044067,-12926430.702209473,-27183567.04711914,-43966159.82055664,-59668838.50097656,34070751.19018555,18981727.600097656,9071192.741394043,-3398740.530014038,-383320.51038742065,-8866095.542907715,-20768659.591674805,-28738796.23413086,-20954401.01623535,21090204.2388916,19823858.2611084,10790569.305419922,2250739.574432373,-982776.2842178345,8925021.171569824,-10222647.666931152,-9641394.61517334,-14373934.745788574,19233268.73779297,19509300.231933594,13614356.04095459,-344253.89766693115,-7506687.641143799,-2972929.7161102295,-3306389.093399048,14664783.477783203,14449027.061462402,5244305.13381958,5859878.063201904,7600832.462310791
0.125,-118631599.42626953,-154601226.80664062,-204907669.0673828,-76832122.80273438,-114343452.45361328,26176174.16381836,-1678210.973739624,-31739027.02331543,-33425708.770751953,-47367053.9855957,-56807312.01171875,-103458694.45800781,-103339347.83935547,-208339691.16210938,25193286.895751953,5865273.475646973,-18138490.676879883,-13361338.61541748,-23575918.197631836,-33709537.506103516,-52699260.71166992,-77517051.69677734,-108387184.1430664,31805107.11669922,13489981.651306152,-1660580.039024353,-14169590.950012207,-728745.8777427673,-16548006.057739258,-29674228.66821289,-45094100.95214844,-60170459.74731445,32363128.662109375,18359834.671020508,7671486.854553223,-3480628.490447998,-438213.9444351196,-11291221.618652344,-23280410.766601562,-29694549.560546875,-21183076.858520508,22347974.77722168,21140380.859375,12381681.442260742,4060442.9244995117,-929376.9001960754,9268356.323242188,-9444475.173950195,-8754336.3571167,-13558815.002441406,22225404.739379883,21773122.787475586,17421825.408935547,-99295.04245519638,-5794519.901275635,-328420.34101486206,-1502655.3869247437,18639898.3001709,18352500.915527344,7394839.286804199,8879725.456237793,10750700.950622559
0.13,-127986091.61376953,-166429656.98242188,-216958129.8828125,-85606742.85888672,-124001548.76708984,20131439.208984375,-7067770.004272461,-37756183.62426758,-40095676.42211914,-55658027.64892578,-64503196.716308594,-110114898.68164062,-109880653.38134766,-219056869.50683594,19164182.662963867,1203567.8625106812,-22150871.27685547,-17941486.358642578,-30370338.439941406,-40377475.73852539,-60743366.24145508,-84443954.46777344,-114392028.80859375,27562543.869018555,11577132.225036621,-3443857.431411743,-17296333.31298828,-3724105.5965423584,-21895935.05859375,-35550849.91455078,-48827083.587646484,-62795646.66748047,32563533.782958984,19474590.301513672,8972296.714782715,-2747228.8608551025,-474070.1913833618,-14979111.671447754,-27602264.404296875,-32693874.35913086,-21957828.521728516,26255722.045898438,24980188.369750977,15999320.030212402,7824939.250946045,-685386.8365287781,8567483.901977539,-8969408.03527832,-7878308.296203613,-12444457.054138184,28565137.86315918,26724100.11291504,23442178.72619629,146786.80896759033,-3767285.3469848633,2477270.1263427734,770882.4872970581,24861572.265625,24596580.505371094,13062404.63256836,13163627.624511719,16123134.61303711
0.135,-133952865.60058594,-173425033.56933594,-226402496.33789062,-90314308.1665039,-130936141.96777344,15985759.735107422,-10881359.100341797,-40825504.302978516,-42979736.328125,-59271640.77758789,-68805435.18066406,-118613739.01367188,-118451217.65136719,-227892456.0546875,15088288.307189941,-1672123.3129501343,-24259315.490722656,-19562858.58154297,-34142673.49243164,-44298698.42529297,-66803230.28564453,-89970115.6616211,-118793830.87158203,24379203.79638672,9137668.60961914,-3746713.161468506,-19513284.68322754,-5400055.408477783,-24057489.3951416,-39111064.91088867,-51323642.73071289,-64258918.76220703,31938081.741333008,19069074.630737305,9843590.73638916,-2812245.1305389404,-559799.2539405823,-16940271.377563477,-29677724.838256836,-34024871.826171875,-20801542.282104492,27762203.216552734,26276878.356933594,17484615.325927734,9883135.795593262,-502315.81926345825,8492007.2555542,-7289972.78213501,-5888832.092285156,-10144676.208496094,32269630.432128906,29439664.840698242,26595521.926879883,171096.87626361847,-1772335.8869552612,5152097.225189209,3801260.232925415,28124664.306640625,27915658.950805664,17081445.693969727,16855195.999145508,20883499.145507812
0.14,-142832061.76757812,-180727996.82617188,-237208938.5986328,-94567481.9946289,-135780227.6611328,13924851.417541504,-13894341.468811035,-42760314.94140625,-43295364.37988281,-59180042.2668457,-69077720.64208984,-125975639.34326172,-126105926.51367188,-233902603.14941406,13046333.312988281,-3673565.8645629883,-25971448.89831543,-18492321.014404297,-33546382.904052734,-44104679.107666016,-68066444.39697266,-92627395.62988281,-121366630.55419922,22068470.001220703,5771915.912628174,-4062738.8954162598,-20457279.205322266,-4128019.332885742,-21246685.028076172,-38139663.69628906,-51479717.25463867,-65325256.34765625,30172908.782958984,17098329.544067383,8757038.116455078,-4081777.572631836,-663257.1220397949,-15932703.018188477,-28373844.146728516,-32743530.2734375,-18393676.7578125,25833435.05859375,24162096.02355957,16082389.831542969,9036173.820495605,-516567.7070617676,9742499.351501465,-4901085.376739502,-3480458.974838257,-7750368.595123291,31873388.290405273,28883396.14868164,25956634.521484375,3736.010752618313,-297926.72395706177,7273674.964904785,6592601.299285889,27423618.31665039,27280096.05407715,16982809.06677246,18933065.41442871,24159337.997436523
0.145,-148248992.91992188,-184908065.79589844,-243563308.7158203,-96191261.2915039,-136081024.16992188,16716972.351074219,-12629832.26776123,-41947475.43334961,-40778820.0378418,-56082656.86035156,-65474227.90527344,-126637771.60644531,-127064697.265625,-234979049.6826172,15798667.907714844,-2178344.964981079,-25300273.895263672,-14864656.448364258,-29227079.391479492,-40288543.701171875,-64624816.89453125,-92027381.89697266,-122063880.92041016,23528543.47229004,5499606.609344482,-2930912.0178222656,-18928544.998168945,-633631.7658424377,-16192750.930786133,-34784461.975097656,-50037300.10986328,-66438842.7734375,30253547.66845703,17189460.75439453,8388150.215148926,-4806123.25668335,-668435.3351593018,-13490528.106689453,-26105737.686157227,-30814304.35180664,-17057081.22253418,24521398.544311523,22835462.57019043,15170438.766479492,7050748.825073242,-617653.0718803406,10087528.228759766,-4056248.188018799,-2748443.841934204,-7010204.792022705,30811729.431152344,27994686.126708984,24682613.372802734,-173758.16404819489,272201.41887664795,7978768.825531006,7598292.827606201,25965129.852294922,25890365.600585938,15268367.767333984,19133966.44592285,25998098.373413086
0.15,-135479675.29296875,-171646713.25683594,-227449890.13671875,-87337638.85498047,-124263099.67041016,22666099.548339844,-5525413.513183594,-35049842.834472656,-33783081.0546875,-47838848.11401367,-56814132.69042969,-114736358.64257812,-115172294.61669922,-220465072.63183594,21796739.57824707,3382946.729660034,-19153633.11767578,-9501775.741577148,-22616025.924682617,-33743984.22241211,-56690395.35522461,-85103805.54199219,-115238143.92089844,28082155.227661133,9801052.09350586,858633.5778236389,-14547680.854797363,2219285.249710083,-12587192.53540039,-30916717.529296875,-46262203.216552734,-63100753.78417969,31455411.911010742,19433288.57421875,10282930.374145508,-3683740.6158447266,-586414.3371582031,-11653599.739074707,-24881467.819213867,-28886236.1907959,-16757175.44555664,25143182.7545166,23580837.24975586,15922376.63269043,5389658.9279174805,-638466.7754173279,7360765.9339904785,-5469571.113586426,-4293310.165405273,-7745724.678039551,30047004.69970703,27428405.76171875,24019395.82824707,-263496.8161582947,500961.5421295166,6734243.869781494,6426048.755645752,25105892.181396484,25079250.33569336,14507613.182067871,17365352.630615234,25240222.930908203
0.155,-103580307.00683594,-136129364.01367188,-182355392.4560547,-67992095.94726562,-98890701.29394531,23272001.266479492,1001741.5285110474,-24626161.575317383,-24820419.311523438,-35372638.70239258,-44448429.107666016,-91771888.73291016,-91911514.28222656,-183259826.66015625,22631769.18029785,6925278.663635254,-10093952.178955078,-5797767.162322998,-16288049.697875977,-26492561.34033203,-45490146.63696289,-70143814.08691406,-96350845.33691406,28173067.092895508,12837451.934814453,3936514.139175415,-9866362.571716309,1886476.0398864746,-11359534.26361084,-26068195.343017578,-39154270.17211914,-51815849.30419922,27619352.340698242,18234930.03845215,11067138.671875,-1973709.5832824707,-587013.840675354,-10735123.634338379,-23891267.776489258,-25329185.485839844,-15623913.764953613,22985179.901123047,21582311.630249023,14601634.979248047,3719477.891921997,-582653.3436775208,3370139.1220092773,-7120449.066162109,-6196798.801422119,-8356237.411499023,25686378.479003906,23699930.19104004,21174047.470092773,-318373.59070777893,999904.453754425,4059804.4395446777,3941679.4776916504,22099487.3046875,22056184.768676758,13181679.725646973,13655119.895935059,20615863.800048828
0.16,-71741752.62451172,-96557548.52294922,-130478042.60253906,-50306377.41088867,-72421936.03515625,14433314.323425293,-132696.04742527008,-18289020.538330078,-20132528.30505371,-25531833.64868164,-34456119.537353516,-69060485.83984375,-68916229.24804688,-136903640.7470703,14078198.432922363,3159167.0513153076,-4962482.452392578,-6894644.737243652,-13043689.727783203,-21686237.335205078,-35369415.283203125,-53072723.388671875,-72776359.55810547,19144289.016723633,8937429.428100586,1940568.9239501953,-8163617.134094238,-1215289.1159057617,-10916377.067565918,-20405118.942260742,-31182874.67956543,-38274627.685546875,16478181.838989258,10634468.078613281,7400881.767272949,-1664479.9709320068,-732746.8395233154,-9761534.690856934,-21579755.783081055,-20060335.159301758,-13864466.667175293,15026773.452758789,13809074.401855469,8704335.21270752,1888388.752937317,-558171.6299057007,2309222.936630249,-7054017.543792725,-6475558.280944824,-8485917.091369629,16065622.329711914,15391215.324401855,14510464.668273926,-399057.65652656555,1016608.5958480835,1175452.2323608398,1071296.4534759521,15299371.719360352,15148677.825927734,8768800.735473633,8848547.93548584,13682951.927185059
0.165,-58499114.990234375,-76905693.05419922,-103030456.54296875,-44674587.24975586,-59998115.53955078,4637540.340423584,-6082054.615020752,-18939573.287963867,-21716535.568237305,-23593988.4185791,-31689895.629882812,-57963676.45263672,-57838184.35668945,-107207809.44824219,4411149.501800537,-3580237.38861084,-5976404.190063477,-10911494.255065918,-13090150.833129883,-20720998.764038086,-30838615.41748047,-43571197.509765625,-59079406.73828125,8173250.198364258,1657932.996749878,-3408262.7296447754,-9194606.78100586,-3988836.5268707275,-9758475.303649902,-16388660.430908203,-26881729.125976562,-32612636.56616211,5698516.845703125,2449424.982070923,2024707.317352295,-2443694.829940796,-825449.8839378357,-8209862.70904541,-18128656.3873291,-16155328.750610352,-13882263.18359375,6460461.139678955,5470175.266265869,2353666.7823791504,1111391.305923462,-555677.5331497192,5280520.439147949,-5858351.230621338,-5424778.938293457,-9208825.11138916,6724123.954772949,7414820.671081543,7578359.127044678,-442741.334438324,-562603.5332679749,-928095.281124115,-1605973.3629226685,8286694.526672363,7997844.696044922,2821278.5720825195,4864035.606384277,8418322.563171387
0.17,-61541725.158691406,-79511749.26757812,-105238838.19580078,-47215301.513671875,-61860816.955566406,4799764.633178711,-7658188.343048096,-20945653.915405273,-23953613.28125,-25861358.642578125,-33120697.021484375,-58024520.87402344,-58144554.138183594,-103361564.63623047,4494884.490966797,-4419703.960418701,-7832593.4410095215,-12238046.646118164,-13369985.580444336,-21126226.4251709,-31038120.26977539,-43639255.52368164,-59622447.9675293,6311607.837677002,-373127.37107276917,-5468286.037445068,-9476394.653320312,-3902965.784072876,-7740968.704223633,-15550578.117370605,-26906354.904174805,-36342151.6418457,4219990.253448486,1536772.2511291504,684763.2527351379,-2236164.093017578,-646470.0698852539,-6564328.670501709,-14690176.963806152,-15830465.316772461,-15940836.906433105,4819291.114807129,4021775.722503662,1696581.1252593994,2017917.8714752197,-440905.3325653076,8783446.311950684,-5250755.786895752,-4641656.875610352,-10366384.506225586,4573878.765106201,5814865.589141846,5381059.169769287,-315837.5918865204,-2817673.444747925,-1763294.3391799927,-3194973.945617676,6115144.2527771,5789111.614227295,-107318.17036867142,3602435.1119995117,7292156.69631958
0.175,-63583580.017089844,-83796531.6772461,-111708122.25341797,-46179531.09741211,-63337715.14892578,13000579.833984375,-2526054.859161377,-18197305.67932129,-20942777.633666992,-24144695.281982422,-31120573.043823242,-57971450.80566406,-58243156.43310547,-106528106.68945312,12574709.89227295,1528023.362159729,-5298491.954803467,-8556176.18560791,-11069044.11315918,-19208181.381225586,-30181697.845458984,-44618179.32128906,-62591053.0090332,13394411.087036133,4592148.303985596,-1579339.5042419434,-7140040.874481201,-1691743.25466156,-5529721.260070801,-15700942.993164062,-26560338.973999023,-39920764.9230957,10211883.544921875,7230445.384979248,4050415.515899658,-430723.51813316345,-249104.45511341095,-5556907.653808594,-11509369.850158691,-16899650.57373047,-16660429.000854492,9838932.037353516,9119544.982910156,6537003.040313721,3172201.8718719482,-171110.24260520935,9358275.413513184,-5333418.369293213,-4555609.226226807,-9817416.191101074,9110911.36932373,9986168.86138916,8092824.935913086,14597.437344491482,-3182430.2673339844,-1136454.1053771973,-2671712.1601104736,8900599.479675293,8703936.576843262,1723667.2639846802,5090200.901031494,9005010.604858398
0.18,-52785720.82519531,-71141517.63916016,-96880432.12890625,-36537582.39746094,-52314315.79589844,17121736.526489258,2185420.513153076,-11701635.360717773,-14046617.50793457,-16033378.601074219,-22836212.158203125,-48171039.58129883,-48336254.11987305,-91843254.08935547,16716056.823730469,6267385.482788086,250388.0262374878,-3936737.537384033,-6909558.296203613,-14421111.106872559,-24259849.548339844,-37453464.50805664,-54248199.462890625,18139970.779418945,9375885.963439941,3265890.35987854,-4276520.252227783,-423329.8897743225,-3900457.1437835693,-13386437.41607666,-21499982.833862305,-34642921.447753906,13324981.689453125,11257329.940795898,6728419.303894043,1138431.429862976,119060.04697084427,-5395940.30380249,-8034187.316894531,-15257799.14855957,-13253804.206848145,13884495.735168457,13199258.804321289,10440227.508544922,2903967.6189422607,121407.59080648422,7661724.56741333,-4588163.85269165,-4000954.1511535645,-6309450.626373291,13013559.341430664,13281198.501586914,10935187.339782715,401394.63543891907,-685777.0085334778,644869.3871498108,-321124.3152618408,11709705.352783203,11701296.80633545,5050154.209136963,6938170.909881592,10472241.401672363
0.185,-31768268.585205078,-43370426.177978516,-61316764.83154297,-23147010.803222656,-31565795.8984375,11563578.605651855,1098316.5502548218,-6482913.017272949,-9013231.27746582,-6655113.220214844,-12719980.239868164,-29779220.581054688,-29725202.560424805,-56082462.310791016,11313999.17602539,4542855.739593506,4108263.9694213867,-3373160.8390808105,-3658895.0157165527,-9498480.796813965,-15156833.64868164,-22737546.920776367,-34376052.85644531,13546329.498291016,8122210.502624512,3363184.2136383057,-3617160.0818634033,-1929885.6258392334,-3207212.6865386963,-8120781.898498535,-12777207.374572754,-22241718.292236328,8042891.502380371,8480309.48638916,4643190.383911133,782638.1325721741,299454.5102119446,-5551962.375640869,-4118885.5171203613,-9830394.744873047,-7233417.03414917,11809970.85571289,11250308.0368042,8953337.669372559,1553493.9765930176,293993.0260181427,6637308.597564697,-2077994.5850372314,-1926566.8392181396,-1529768.8245773315,10947503.089904785,11027051.92565918,9907651.901245117,623105.4663658142,2635938.1675720215,2474805.8319091797,1891653.4185409546,10486874.5803833,10556263.92364502,5737083.435058594,6438838.958740234,9898676.872253418
0.19,-11636357.307434082,-17171237.94555664,-27217590.33203125,-13193045.616149902,-13732128.143310547,3457788.7058258057,-2495599.7467041016,-4714010.238647461,-8179215.431213379,-1380639.7914886475,-6141109.943389893,-12729424.476623535,-12554826.736450195,-19853099.822998047,3328434.705734253,13282.55608677864,4707411.766052246,-6374392.986297607,-2343194.4847106934,-6752642.1546936035,-7938391.68548584,-9166290.283203125,-15059936.5234375,5221895.694732666,3350561.6188049316,-353726.5956401825,-4847065.448760986,-4627348.899841309,-2890563.726425171,-2790688.0378723145,-5322223.663330078,-11240879.05883789,-389931.67877197266,2506054.8782348633,103182.65110254288,-660962.7604484558,303910.37464141846,-5158947.944641113,-392005.7713985443,-3622748.1365203857,-2519977.09274292,6380131.721496582,6013129.234313965,4535351.276397705,756565.5708312988,331072.21126556396,7209041.118621826,1281146.6455459595,1157126.1882781982,1835531.47315979,5033713.817596436,5436392.307281494,5812114.715576172,564640.22397995,4160458.0879211426,3078189.8498535156,2213072.7767944336,6176110.744476318,6200694.0841674805,3329698.5626220703,3506796.5984344482,7566299.915313721
0.195,-3431762.6953125,-7324597.8355407715,-15111349.105834961,-10829608.917236328,-8591609.954833984,848618.8054084778,-3665496.349334717,-5322970.390319824,-9232487.678527832,-812619.8053359985,-4148406.982421875,-6741481.781005859,-6560288.906097412,-5317502.021789551,689080.8939933777,-1924355.0300598145,3891488.3136749268,-8301121.711730957,-1586041.4505004883,-5982968.807220459,-5929573.535919189,-4286836.14730835,-7355780.124664307,2083178.997039795,840978.6224365234,-2631329.298019409,-5631095.409393311,-5270099.639892578,-1900951.0278701782,-324773.72884750366,-2875078.2012939453,-7435599.803924561,-4027407.646179199,-188085.1686000824,-1934526.2050628662,-943581.6407203674,202901.98922157288,-3906034.469604492,2169679.1648864746,-337638.82517814636,-1086907.148361206,3350474.1191864014,3071129.083633423,2409710.8840942383,1094232.9168319702,279997.8256225586,7716699.600219727,3591251.6117095947,3530588.6268615723,3126552.8202056885,1257461.428642273,2088582.5157165527,2454272.0317840576,309483.97517204285,3478136.5394592285,2279671.6690063477,1044494.2712783813,2748899.9366760254,2741095.542907715,737292.3493385315,915843.8444137573,4900969.982147217
0.2,-11083002.090454102,-15402805.32836914,-26095705.032348633,-16448423.385620117,-15545243.263244629,1822331.0708999634,-3974402.1892547607,-7658053.874969482,-10196246.147155762,-2685043.8117980957,-4833201.4083862305,-12791659.355163574,-12584975.242614746,-14202632.904052734,1570717.453956604,-2026337.3851776123,2945125.8182525635,-6929061.8896484375,-298423.6478805542,-5857071.876525879,-8489780.42602539,-7854840.7554626465,-11364315.032958984,4420917.510986328,1491991.1623001099,-1510439.8727416992,-5037078.380584717,-2851119.7566986084,-169509.94729995728,-929499.6857643127,-4979138.374328613,-9796041.488647461,-1909478.0683517456,1639264.1067504883,-360437.6018047333,602579.4744491577,75782.57471323013,-2527706.6230773926,2851437.3302459717,-962894.7377204895,-1695885.419845581,4405860.424041748,4023190.975189209,3929000.3776550293,1578321.6953277588,161541.95368289948,6996552.94418335,3695441.0076141357,3882689.952850342,3673312.187194824,2449501.2760162354,3332605.6003570557,2200117.349624634,68125.54597854614,2181458.9500427246,1237560.1530075073,306049.9131679535,2549910.7837677,2578553.9150238037,526918.1132316589,1107811.8085861206,3492045.4025268555
0.205,-25837656.021118164,-28916067.123413086,-41996109.00878906,-25533559.799194336,-24887598.037719727,-433025.3601074219,-7678062.915802002,-11462664.604187012,-11514507.293701172,-4863351.345062256,-6282094.478607178,-21566349.029541016,-21263181.686401367,-27186809.539794922,-684784.6508026123,-4268424.034118652,1615192.4133300781,-4931910.991668701,709899.2466926575,-5640182.971954346,-11914879.79888916,-12828447.341918945,-17567705.154418945,5599314.212799072,1591541.2902832031,-166755.7656764984,-4293430.328369141,-77233.6944937706,828911.1852645874,-2474939.8231506348,-7864965.438842773,-13084710.121154785,593898.8924026489,3843827.00920105,1514205.2173614502,2133510.3511810303,711.5288753993809,-2073666.8109893799,1891863.226890564,-3458132.028579712,-2103029.251098633,6623327.732086182,6066079.616546631,5937189.102172852,1307769.536972046,-8203.45152169466,5970349.311828613,2151215.3148651123,2579372.4060058594,4436335.08682251,5989674.091339111,6495868.682861328,4039136.8865966797,-5002.2294744849205,1738254.7855377197,1139086.7233276367,1064023.8523483276,4412844.657897949,4447526.454925537,2520133.7337493896,3425408.363342285,4093852.0431518555
0.21,-31755090.713500977,-32144508.361816406,-43574451.4465332,-30219001.77001953,-26564905.166625977,-6609374.046325684,-13496116.638183594,-14635243.41583252,-13258795.738220215,-5812902.450561523,-7005549.430847168,-22584486.00769043,-22212095.260620117,-25678913.116455078,-6787879.467010498,-8684929.847717285,143331.66182041168,-5508002.758026123,206577.1371126175,-5294451.2367248535,-12605060.577392578,-12665047.645568848,-17192125.32043457,2184760.570526123,-945060.7299804688,-1469014.6446228027,-4625066.757202148,-189389.6609544754,-181436.4790916443,-3051057.5771331787,-8130713.46282959,-13279439.926147461,-610543.7874794006,2962062.358856201,915178.8353919983,1603538.155555725,-32418.400049209595,-2640677.2136688232,596513.2117271423,-5140560.626983643,-1575823.0686187744,6876785.755157471,6269345.283508301,5501638.412475586,641776.978969574,-187693.92371177673,5926975.250244141,661476.1352539062,1247185.230255127,4823738.098144531,7525530.815124512,7737875.461578369,5376836.29989624,53780.43279051781,2204729.5570373535,1900879.7407150269,2382851.3622283936,5676843.643188477,5624671.936035156,4497457.504272461,5170203.20892334,5686464.786529541
0.215,-24909448.623657227,-24213211.059570312,-33283561.70654297,-28025419.235229492,-21416124.34387207,-10812744.140625,-15952871.322631836,-15169542.31262207,-14232434.272766113,-5542751.789093018,-6647733.211517334,-17257831.573486328,-16934715.270996094,-14341737.747192383,-11020854.949951172,-11458646.774291992,-769951.2839317322,-8040455.8181762695,-1811604.4998168945,-5470252.513885498,-11153042.793273926,-9000052.452087402,-12547781.944274902,-2380964.517593384,-3969241.3806915283,-3933655.261993408,-5869131.565093994,-2778970.0031280518,-2474019.0505981445,-3154437.0651245117,-6544376.850128174,-11924837.112426758,-3924137.3538970947,173840.80588817596,-983923.4948158264,-562013.2684707642,-150509.89389419556,-3359482.526779175,-29746.04070186615,-5463877.6779174805,-1428116.4407730103,5095589.637756348,4643096.446990967,3348839.044570923,609147.846698761,-357026.72600746155,6736088.752746582,311587.6913070679,937249.0048408508,3887416.362762451,5987163.543701172,6455212.593078613,5086915.493011475,78744.91065740585,2568051.338195801,2624960.6609344482,2769986.629486084,5320753.09753418,5177320.957183838,4727650.165557861,5029615.40222168,6337776.660919189
0.22,-21509132.385253906,-22846937.17956543,-34557147.97973633,-26760374.069213867,-21506586.0748291,-9096166.610717773,-13461499.214172363,-14670866.966247559,-14521234.512329102,-6546637.535095215,-7193458.080291748,-18438619.61364746,-18225072.860717773,-15668451.309204102,-9500903.129577637,-10600469.589233398,-1738175.392150879,-9483216.285705566,-4395014.28604126,-7377307.415008545,-12322584.15222168,-10294402.122497559,-14818866.729736328,-3144928.9321899414,-4358444.690704346,-4337631.702423096,-7251051.902770996,-4160460.948944092,-4073709.487915039,-4903142.929077148,-7269396.781921387,-14551820.755004883,-4496154.308319092,-659937.858581543,-1055360.5556488037,-1866633.8920593262,-407563.0307197571,-3717222.9290008545,-521504.7597885132,-6289932.727813721,-3137291.669845581,3845504.9991607666,3632671.594619751,2422107.934951782,1669346.4517593384,-514694.6907043457,7440009.593963623,519828.2599449158,1082108.2592010498,2005202.5318145752,4605747.699737549,5603301.048278809,4580914.497375488,-10887.213982641697,1946630.4779052734,3110866.3082122803,2285201.31111145,4882704.734802246,4723797.32131958,3901503.801345825,4409764.289855957,5783175.945281982
0.225,-35968914.03198242,-41008937.83569336,-60281066.89453125,-33943977.35595703,-34078102.111816406,-3519966.8407440186,-9709622.383117676,-16074146.270751953,-15528898.239135742,-10550431.251525879,-10400334.358215332,-32595050.811767578,-32411315.91796875,-38724533.08105469,-4111751.079559326,-7757159.70993042,-3794290.781021118,-8378060.340881348,-6339228.15322876,-10915032.386779785,-18533699.03564453,-20295690.536499023,-28564889.907836914,781921.6847419739,-1576407.6709747314,-2214928.62701416,-8230947.494506836,-1974788.0697250366,-3829396.0094451904,-8629966.735839844,-11924482.345581055,-22756307.60192871,225443.3035850525,2328249.216079712,1643127.5606155396,-803891.8375968933,-648804.9626350403,-4129862.7853393555,-1803262.1145248413,-9023321.151733398,-5917663.57421875,5409463.882446289,5268321.514129639,4115929.60357666,3141608.476638794,-608633.0413818359,7614339.351654053,59192.21043586731,572697.639465332,796149.1346359253,6750709.533691406,7832806.587219238,5644195.079803467,-120755.24777173996,444127.55966186523,3978458.881378174,2360840.5590057373,6129075.527191162,5970475.673675537,4239207.744598389,5095948.696136475,6001723.766326904
0.23,-57259128.57055664,-65224906.92138672,-90866333.0078125,-44274650.57373047,-49264209.74731445,1987078.7858963013,-7323479.175567627,-18486112.594604492,-16741628.646850586,-14497131.34765625,-13755044.937133789,-48492542.2668457,-48225078.58276367,-64011436.462402344,1408087.0151519775,-4909945.487976074,-5954692.363739014,-5815046.787261963,-6439629.554748535,-13326539.039611816,-25169540.405273438,-31243953.704833984,-43083377.838134766,6400250.9117126465,2334753.7517547607,105543.97851228714,-8428791.046142578,2111359.5962524414,-2069063.9019012451,-11645000.457763672,-16494667.053222656,-30354936.599731445,7554078.578948975,7000550.746917725,4865081.787109375,1331336.9750976562,-697115.6001091003,-4981809.139251709,-3377657.651901245,-12379973.411560059,-7294716.835021973,9130496.978759766,8720602.035522461,6816932.678222656,3869566.2021636963,-564362.108707428,7543497.562408447,-1308543.8013076782,-732014.7752761841,1123116.6124343872,11463320.7321167,12005272.86529541,7775638.580322266,-139149.33800697327,-1177524.209022522,5143316.268920898,3467452.7645111084,8407350.540161133,8216266.632080078,6449112.415313721,6767558.574676514,8306875.228881836
0.235,-64481552.12402344,-73674797.05810547,-101120162.96386719,-47374614.71557617,-53795761.10839844,5950793.743133545,-5177651.405334473,-18696779.251098633,-16078418.731689453,-14260170.936584473,-13370138.168334961,-52734996.7956543,-52392650.60424805,-71302238.46435547,5520874.0234375,-2357584.4764709473,-6371602.535247803,-3367500.3051757812,-4664916.9921875,-12358350.75378418,-26710899.353027344,-34474346.16088867,-46847537.994384766,10463395.118713379,5036482.810974121,968489.6469116211,-7890725.135803223,5063288.21182251,165028.1548500061,-12156471.252441406,-17307104.110717773,-32039608.001708984,12416611.671447754,9884577.751159668,6152684.211730957,2280346.8704223633,-608189.3444061279,-5968780.517578125,-4344737.529754639,-14564796.447753906,-7001673.221588135,11985581.398010254,11090468.406677246,8126068.115234375,3605844.9745178223,-438711.553812027,7760710.2394104,-3049990.8924102783,-2364233.4938049316,1505595.9224700928,14778129.577636719,14590271.949768066,8987000.465393066,-114920.99612951279,-2646602.153778076,5289072.9904174805,4033010.959625244,9615837.097167969,9453216.552734375,8615909.576416016,7939117.431640625,11423684.120178223
0.24,-62656616.2109375,-72935111.99951172,-101914642.33398438,-46564617.15698242,-53856342.31567383,8597457.885742188,-2991467.7143096924,-17949672.69897461,-14773384.094238281,-12684198.379516602,-11716755.867004395,-51654140.47241211,-51366237.64038086,-72198219.2993164,8221280.097961426,-347054.8093318939,-6154812.335968018,-2060752.3918151855,-3568225.145339966,-10771925.926208496,-26180818.557739258,-34773822.78442383,-46406543.73168945,12431180.000305176,5737799.644470215,906749.1888999939,-7825642.108917236,6178889.751434326,1549268.126487732,-12998161.315917969,-17864347.457885742,-33128334.045410156,13296298.027038574,10287644.386291504,5715573.787689209,1689235.2104187012,-583785.9511375427,-6878510.95199585,-5692857.74230957,-16841672.897338867,-8506826.400756836,12428637.504577637,11173658.37097168,7876796.722412109,3596759.31930542,-426874.5183944702,8884598.731994629,-5116240.02456665,-4368163.585662842,-424173.7723350525,15529470.443725586,14529389.381408691,9247083.66394043,-171160.7426404953,-4240709.30480957,3812692.165374756,2692434.310913086,9788352.012634277,9768365.859985352,9131592.750549316,8715616.226196289,13848520.278930664
0.245,-77791717.52929688,-91569236.7553711,-126650093.07861328,-56098621.3684082,-68197036.74316406,10179689.407348633,-3204491.8537139893,-21462499.618530273,-17495225.90637207,-17622304.916381836,-16196424.48425293,-63070426.94091797,-62927249.908447266,-93193275.45166016,9672291.75567627,216406.79240226746,-8746542.930603027,-2849020.481109619,-6419111.251831055,-13942015.647888184,-31720525.74157715,-44244075.775146484,-58012577.056884766,14526041.030883789,5590435.028076172,911036.6702079773,-9807215.690612793,6682623.863220215,912481.0099601746,-18020175.93383789,-24187139.5111084,-42784809.11254883,13933820.724487305,10778122.901916504,5593883.514404297,1027616.9776916504,-672332.2868347168,-8145648.002624512,-9049226.760864258,-22096387.86315918,-14235903.7399292,12642408.37097168,11336510.65826416,8187869.071960449,5138391.494750977,-616952.657699585,11117503.16619873,-7554014.205932617,-6713729.381561279,-4512026.786804199,17164432.525634766,14863595.962524414,11038259.506225586,-292329.341173172,-5413107.395172119,2444788.2175445557,854380.190372467,11588032.722473145,11654752.731323242,9393046.379089355,10818665.504455566,16413173.67553711
0.25,-109086807.25097656,-128662536.62109375,-171046798.7060547,-75460891.72363281,-94302604.67529297,11449607.849121094,-5644456.86340332,-28882404.327392578,-24310863.494873047,-28777397.15576172,-26212316.513061523,-85027435.30273438,-84974205.01708984,-127997558.59375,10770522.117614746,-346802.4432659149,-14038178.443908691,-5573874.473571777,-12212056.159973145,-21192647.93395996,-42392604.82788086,-60859260.55908203,-79417678.83300781,18335977.55432129,6339907.169342041,1040939.3310546875,-13242105.484008789,7233363.151550293,-1122736.4540100098,-24868341.44592285,-33619194.03076172,-57636474.609375,17375291.82434082,13099998.474121094,6513441.08581543,1135654.9263000488,-726919.949054718,-9699231.147766113,-12939339.637756348,-29382892.608642578,-20696393.966674805,14982789.039611816,13773674.011230469,10283294.677734375,7406956.195831299,-825329.7209739685,13243090.629577637,-9350516.319274902,-8295007.705688477,-7678856.372833252,21739551.544189453,17876960.75439453,14893616.676330566,-351803.66039276123,-4971407.413482666,3046045.0649261475,923485.1002693176,15603828.430175781,15539375.305175781,11206501.007080078,14085965.156555176,19795078.27758789
0.255,-113925186.15722656,-136656814.5751953,-179850540.1611328,-81417236.328125,-99839546.20361328,13323390.96069336,-5001401.424407959,-31155422.21069336,-26712053.298950195,-33143959.045410156,-28128849.029541016,-89969505.3100586,-89883354.18701172,-134394348.14453125,12583375.930786133,-255424.8869419098,-16543695.449829102,-7213000.774383545,-14552778.244018555,-23590665.817260742,-45206844.329833984,-65073745.72753906,-85582885.7421875,21126773.834228516,7925437.450408936,1094596.5051651,-14872230.529785156,8126657.485961914,-1239933.1331253052,-25699769.973754883,-35027187.34741211,-61935169.2199707,19979892.73071289,14831967.3538208,6833631.0386657715,1286085.0095748901,-651848.8526344299,-9920339.584350586,-13200162.887573242,-32906524.658203125,-21875501.63269043,16931419.372558594,15744592.666625977,12072128.295898438,7647866.725921631,-809633.0761909485,13223820.686340332,-9462121.00982666,-8238336.563110352,-8091998.100280762,24589443.20678711,20171226.501464844,16305183.410644531,-350266.5162086487,-3785458.80317688,4046500.2059936523,1927019.9537277222,17131280.89904785,16894880.294799805,12321072.578430176,14694552.421569824,20817714.69116211
0.26,-62216251.373291016,-79456558.22753906,-116351341.2475586,-57352462.76855469,-62011775.970458984,14357779.502868652,1943378.210067749,-22057506.561279297,-17160083.770751953,-20174571.990966797,-10606286.04888916,-59935188.29345703,-59757022.857666016,-90085159.30175781,13631877.899169922,648514.2111778259,-12453054.428100586,-3917182.9223632812,-8408170.700073242,-14280112.266540527,-31456729.888916016,-44635112.76245117,-60692630.767822266,17342786.78894043,7648498.058319092,1100941.53881073,-12503380.77545166,10878118.515014648,3771313.6672973633,-17029790.8782959,-22845539.093017578,-47835842.13256836,15050469.398498535,11830709.457397461,4903950.6912231445,748198.0323791504,-537700.1762390137,-7176880.359649658,-8354043.006896973,-28110139.846801758,-17102132.79724121,12949375.15258789,11755908.966064453,10089758.87298584,4365893.363952637,-603739.6192550659,10960973.739624023,-8807164.192199707,-7753655.433654785,-8007534.027099609,19131137.84790039,15899055.480957031,10306633.949279785,-454816.87784194946,-5353763.103485107,1620813.8465881348,-268289.11900520325,10977292.06085205,10866562.843322754,8151781.08215332,9173780.44128418,15304781.913757324
0.265,12534836.769104004,9583072.662353516,-21820434.5703125,-20568834.30480957,-3292133.331298828,10319857.597351074,9155096.054077148,-9069759.368896484,-746642.4703598022,2546547.4128723145,18454143.524169922,-14560256.958007812,-14307851.791381836,-28626745.223999023,9561833.381652832,-751108.8848114014,-6249346.2562561035,3800801.5155792236,2925992.965698242,1666500.6875991821,-10039725.303649902,-13304953.575134277,-21878448.486328125,5281589.508056641,2776963.949203491,392121.94085121155,-8688453.674316406,16647598.266601562,12876836.776733398,-5042792.797088623,-5146293.163299561,-26828199.38659668,2568929.1954040527,3823063.373565674,1305211.067199707,-276526.7491340637,-519701.3020515442,-2359977.7221679688,-1941158.652305603,-16585149.765014648,-11440367.698669434,2469128.8471221924,1401922.7027893066,3861191.987991333,-366322.6068019867,-498756.2298774719,9547433.853149414,-8999943.733215332,-8417553.901672363,-9973469.734191895,6827136.516571045,5360135.555267334,-911432.3258399963,-725493.4310913086,-11027251.243591309,-4370983.600616455,-6579122.066497803,-585765.3021812439,-287923.00820350647,-968327.2242546082,104139.51426744461,5332292.079925537
0.27,45652816.77246094,58971355.43823242,27387224.197387695,-4820640.563964844,31133359.909057617,-1796630.859375,6390182.4951171875,-6088051.795959473,8756570.816040039,16815155.029296875,38843315.12451172,11060574.531555176,11368763.92364502,1390789.7472381592,-2630458.8317871094,-7544023.9906311035,-6055247.3068237305,10060996.055603027,10837877.27355957,12609184.265136719,2873972.6543426514,5578641.414642334,1938349.2469787598,-9671115.87524414,-5919842.24319458,-2366050.7202148438,-8335641.860961914,23060493.46923828,21130641.93725586,2108304.977416992,6610468.38760376,-14336410.522460938,-9127095.222473145,-4441825.866699219,-2003314.9719238281,-1648168.8022613525,-626834.3329429626,1525286.9129180908,2287411.2129211426,-3097681.0455322266,-7759235.382080078,-7382356.643676758,-8253417.96875,-2872054.8152923584,-2970421.79107666,-683470.4875946045,11853241.920471191,-8954998.970031738,-8747910.499572754,-11612977.027893066,-2578315.019607544,-3415012.1212005615,-8725696.563720703,-970035.0761413574,-16277931.213378906,-8288990.020751953,-11297489.166259766,-8579279.899597168,-8013228.416442871,-8058023.452758789,-5057706.356048584,-791067.7194595337
0.275,18138414.38293457,42869270.32470703,10804391.860961914,-19755392.07458496,26106246.948242188,-20199958.80126953,-9100016.593933105,-16617881.774902344,4619797.229766846,15303067.207336426,41013156.89086914,8649795.532226562,9014331.817626953,-3241135.597229004,-21025278.091430664,-18793483.73413086,-13150182.723999023,9679383.277893066,11230472.564697266,14109459.87701416,3550422.6684570312,7633574.485778809,5788399.696350098,-21003757.47680664,-14513809.204101562,-7206174.850463867,-12377512.93182373,25541440.963745117,24728366.85180664,4026228.427886963,10897614.479064941,-10487360.954284668,-13624461.17401123,-8643190.383911133,-4068012.237548828,-3707042.2172546387,-779799.9978065491,2745757.3413848877,4860044.479370117,9601168.632507324,-3344875.3356933594,-9894619.941711426,-10707925.796508789,-6155684.947967529,-2546099.6627807617,-1021696.925163269,16205053.329467773,-5744052.886962891,-5571625.709533691,-8224820.137023926,-2927450.8953094482,-4183797.836303711,-8121866.226196289,-992520.3323364258,-15577265.739440918,-5376257.89642334,-8656437.873840332,-7798983.097076416,-7385878.562927246,-7800708.293914795,-2437823.2955932617,1547522.3064422607
0.28,-27752000.80871582,2585593.2235717773,-23210699.0814209,-43533653.259277344,6911468.982696533,-39914203.64379883,-29716699.600219727,-30858329.77294922,-6635382.652282715,7174786.09085083,33637584.6862793,-241789.37077522278,157341.79317951202,-6961701.8699646,-40588569.64111328,-30613384.246826172,-20734086.990356445,3689184.4272613525,7889449.119567871,11822406.768798828,1454853.0578613281,6990413.188934326,7358048.915863037,-28390985.4888916,-20321426.391601562,-12185555.458068848,-16400730.13305664,22786355.97229004,24184619.903564453,5796653.270721436,13500006.675720215,-5416902.542114258,-14454671.859741211,-9938309.669494629,-5577551.364898682,-5987403.869628906,-854535.2220535278,2619462.013244629,7759246.349334717,20139322.28088379,3436222.3148345947,-7292038.917541504,-8178549.766540527,-6254267.21572876,-1658649.0869522095,-1221701.0259628296,17786951.065063477,14125.268906354904,277852.6246547699,-726089.9543762207,397416.1148071289,-679034.3523025513,-3981590.747833252,-858937.2038841248,-10582315.444946289,1063815.8321380615,-1481183.7673187256,-3342351.198196411,-3285340.7859802246,-3794773.1018066406,3061728.9543151855,6780585.289001465
0.285,-50319847.106933594,-17728391.647338867,-33145793.914794922,-55694198.60839844,-2120449.3045806885,-56681999.20654297,-46196643.8293457,-39768989.56298828,-15892089.84375,1950441.837310791,27526456.832885742,-318969.33913230896,79348.43748807907,6282243.728637695,-57174026.48925781,-40411170.959472656,-23800672.53112793,-3132965.326309204,5332294.464111328,10700412.75024414,2106408.8344573975,10817462.921142578,15047821.998596191,-35751930.236816406,-24539146.423339844,-15756605.14831543,-16850019.454956055,18426471.710205078,21863893.508911133,8406492.233276367,15609196.662902832,1718696.3558197021,-18873004.913330078,-12622097.969055176,-7371583.938598633,-6927933.216094971,-756979.5250892639,3117416.3818359375,9635893.821716309,25337495.803833008,8083766.937255859,-7160243.034362793,-8045395.851135254,-6553712.368011475,-2526522.159576416,-1128349.781036377,14917778.968811035,3059877.1572113037,3223375.082015991,3745533.227920532,-1504287.1236801147,-1179171.8006134033,-4220887.184143066,-755735.9337806702,-8700318.336486816,3207285.4042053223,1501335.859298706,-3435291.051864624,-3561579.704284668,-3453422.5463867188,3843240.976333618,6625047.206878662
0.29,-54968738.5559082,-23082485.19897461,-33284305.572509766,-60199039.459228516,-6434702.8732299805,-67946800.2319336,-55297481.536865234,-44772285.46142578,-22027940.75012207,-2420505.2852630615,22150568.00842285,-1146766.4241790771,-743078.2318115234,13578991.889953613,-68371681.2133789,-47942798.61450195,-25260976.791381836,-8383654.594421387,2654089.2124176025,8212111.473083496,-97579.81449365616,10048535.346984863,17129079.818725586,-43047767.639160156,-29174901.962280273,-18514984.130859375,-15979694.366455078,16143302.917480469,18703104.01916504,7592849.7314453125,12846636.772155762,1622311.4728927612,-26251926.42211914,-17428823.471069336,-9196930.885314941,-6049965.858459473,-537737.0715141296,3844268.321990967,7922903.537750244,22786632.537841797,6275297.164916992,-11292053.22265625,-12076422.691345215,-8335764.8849487305,-3944240.093231201,-825059.4139099121,11538431.167602539,564825.4156112671,494715.78001976013,1601419.8064804077,-7846462.249755859,-6324516.296386719,-8688914.29901123,-690985.7988357544,-12224648.475646973,-500103.29484939575,-2327234.0297698975,-7936697.483062744,-8022138.595581055,-7173734.664916992,-203113.31748962402,1922032.8330993652
0.295,-67333114.62402344,-39917766.57104492,-53005390.16723633,-69631805.41992188,-20218181.610107422,-72225227.35595703,-58778190.61279297,-50803001.403808594,-28426132.202148438,-11047020.91217041,13129005.432128906,-14169297.218322754,-13727146.14868164,-3409212.589263916,-72702407.83691406,-52853328.704833984,-29612911.224365234,-12871256.828308105,-2746289.7300720215,1298220.0384140015,-9279679.298400879,-1374499.6786117554,5834974.765777588,-45249412.536621094,-32932575.225830078,-21278314.5904541,-18076808.92944336,15466763.496398926,15073367.11883545,2450042.0093536377,5522968.769073486,-7692268.848419189,-28689697.265625,-20059278.48815918,-10163937.56866455,-5262731.075286865,-404577.2850513458,2850983.142852783,4596845.1499938965,16419702.529907227,1866914.7491455078,-13210712.432861328,-13998033.52355957,-8939271.926879883,-3397746.0861206055,-533165.2760505676,11966178.894042969,-2552274.465560913,-2670593.738555908,-1098304.5101165771,-9163002.014160156,-8030891.418457031,-9631290.435791016,-529785.0966453552,-14045734.405517578,-2734337.568283081,-5310915.470123291,-8907094.955444336,-8926801.681518555,-7893191.337585449,-1587400.0787734985,1585429.5492172241
0.3,-87578056.33544922,-65645774.841308594,-82537513.73291016,-81982353.21044922,-37266170.501708984,-70775581.35986328,-59426548.00415039,-56737274.169921875,-34573936.462402344,-20333848.95324707,4136291.50390625,-29900049.209594727,-29442403.79333496,-25626653.67126465,-71301002.5024414,-54354686.73706055,-35092807.76977539,-16816164.016723633,-8981516.83807373,-6034765.720367432,-18359582.901000977,-12895237.922668457,-6288479.804992676,-40943172.454833984,-33029964.447021484,-23010305.404663086,-22802886.962890625,13950613.975524902,12725444.793701172,-1200798.749923706,1190525.1741409302,-14870936.393737793,-23434482.57446289,-17585660.934448242,-10040850.639343262,-6521021.842956543,-494651.6156196594,-61151.31080150604,5008480.072021484,14293297.76763916,2523482.7995300293,-8362605.094909668,-9295473.098754883,-6301977.634429932,-1217680.9310913086,-452915.6982898712,15307303.428649902,489314.34750556946,579895.01953125,3226132.392883301,-1671652.4362564087,-1841352.5819778442,-3344665.765762329,-287339.32971954346,-7691340.923309326,2368794.4412231445,-302382.230758667,-2613394.4988250732,-2619804.859161377,-2084554.4338226318,4019873.1422424316,9564197.540283203
0.305,-97103286.74316406,-76766563.41552734,-92082420.3491211,-86998168.9453125,-42137645.72143555,-68488288.87939453,-59980278.01513672,-58821201.32446289,-37514057.15942383,-23441122.05505371,1736853.1227111816,-33025878.90625,-32630855.560302734,-27286085.12878418,-68990516.66259766,-53823978.424072266,-37153835.29663086,-19057510.375976562,-12057384.490966797,-8097918.510437012,-19385643.005371094,-13128879.54711914,-5923755.168914795,-36428676.60522461,-30460620.880126953,-22675149.91760254,-26104515.075683594,11332574.844360352,12993161.20147705,726434.588432312,3551057.5771331787,-12039519.309997559,-17894214.630126953,-13438537.59765625,-9659411.430358887,-8982860.565185547,-669654.4885635376,-2615175.247192383,9939414.024353027,18472492.218017578,8217951.774597168,-1641882.300376892,-2636432.17086792,-3020907.402038574,-350113.00444602966,-622132.6589584351,17629764.556884766,8454635.620117188,8720480.918884277,12085312.843322754,6398820.400238037,5694213.390350342,4060823.917388916,-165023.98252487183,2459880.828857422,10492270.469665527,8786384.582519531,4733488.082885742,4759469.509124756,4376264.0953063965,11351765.632629395,18698848.724365234
0.31,-95514549.2553711,-72823379.51660156,-84982879.63867188,-86475791.93115234,-38721820.83129883,-69420066.8334961,-62445442.19970703,-59059097.29003906,-38771106.7199707,-22659294.12841797,3073121.7861175537,-28509372.71118164,-28202318.19152832,-17721586.227416992,-69915321.35009766,-54617897.033691406,-36898551.94091797,-20078695.29724121,-12652985.572814941,-6922369.480133057,-16775150.299072266,-8715347.290039062,-1239257.4548721313,-37474063.873291016,-29772405.62438965,-21915220.260620117,-26895904.541015625,9194748.878479004,14016210.556030273,3701492.0711517334,5834516.525268555,-7389943.1228637695,-18928731.91833496,-13108374.59564209,-9947654.724121094,-10097079.277038574,-680597.8417396545,-2970304.250717163,13215293.884277344,21563323.974609375,10683777.809143066,-583087.9807472229,-1492676.4965057373,-3163594.4843292236,-1845795.750617981,-874770.6413269043,18108301.162719727,13020946.502685547,13202960.014343262,15526379.585266113,6396662.23526001,6227428.913116455,5381106.853485107,-258322.98398017883,6435415.267944336,13055322.647094727,12362822.532653809,5991266.72744751,6032928.943634033,4605165.958404541,12947553.634643555,20563135.147094727
0.315,-101195610.04638672,-77680366.51611328,-92633651.73339844,-91667915.34423828,-44905147.552490234,-71815826.41601562,-65825134.27734375,-62547008.5144043,-42687023.1628418,-26218576.431274414,-478817.4629211426,-33749977.111816406,-33462547.302246094,-24962406.158447266,-72432655.33447266,-57638725.28076172,-39624549.865722656,-22085224.151611328,-15047819.137573242,-9195820.808410645,-20607078.552246094,-13859494.20928955,-8540969.848632812,-41078365.325927734,-32601524.353027344,-23182752.60925293,-28333595.275878906,7932005.405426025,12783123.970031738,1055787.0864868164,887433.2308769226,-12332911.491394043,-22762422.561645508,-16527513.50402832,-10784997.940063477,-9070599.555969238,-503457.9634666443,-1874632.477760315,9805080.41381836,16907827.377319336,5723594.188690186,-4477482.318878174,-5438983.44039917,-6193599.700927734,-2890157.93800354,-975825.4289627075,19408500.67138672,9879937.171936035,9881879.806518555,10046822.547912598,1445166.9454574585,1646343.1119918823,2401117.8016662598,-400406.8374633789,2114510.5361938477,9161531.448364258,8546630.859375,3111406.3262939453,3032167.1962738037,670583.7845802307,9515624.046325684,16755388.259887695
0.32,-116917510.98632812,-96925285.33935547,-119530914.30664062,-102404479.98046875,-61011501.31225586,-70902717.59033203,-66444686.88964844,-67793312.0727539,-48008953.09448242,-33701133.728027344,-8147007.942199707,-48587535.8581543,-48270431.51855469,-47370506.286621094,-71726814.27001953,-59438335.41870117,-45230983.73413086,-24911081.314086914,-19183282.85217285,-14897082.328796387,-29831188.201904297,-26424539.56604004,-24092353.82080078,-40531856.536865234,-34764106.75048828,-25600999.83215332,-31597085.95275879,6737704.753875732,9818911.5524292,-5618925.57144165,-6976575.3746032715,-22924873.35205078,-21245210.647583008,-18449447.631835938,-11076306.343078613,-7496965.408325195,-337039.5600795746,-1140881.6576004028,3047093.152999878,8611900.329589844,-150945.85716724396,-5906656.742095947,-7199892.997741699,-7418643.474578857,-642598.1521606445,-834641.0989761353,22158710.479736328,4093143.939971924,4132786.273956299,3607625.0076293945,994107.723236084,672290.9212112427,2309135.675430298,-368001.46102905273,-2614306.926727295,6073138.71383667,4886684.417724609,3199290.990829468,2945900.4402160645,55108.390748500824,8006788.25378418,15337319.374084473
0.325,-121068962.09716797,-104485435.48583984,-130242492.67578125,-104091003.41796875,-65178421.02050781,-66148162.841796875,-62360664.36767578,-67002311.70654297,-47619068.14575195,-34420879.36401367,-8600928.30657959,-52482456.20727539,-52188442.23022461,-52123283.38623047,-67091697.692871094,-56667694.091796875,-46507259.368896484,-24984142.303466797,-19206808.09020996,-16180416.107177734,-32470611.572265625,-29393178.939819336,-27332063.674926758,-35885837.55493164,-31966480.255126953,-25480051.040649414,-32813751.220703125,5978174.686431885,8946662.902832031,-8242394.44732666,-7368639.945983887,-25025962.829589844,-14609757.423400879,-16111515.045166016,-9957086.563110352,-6632523.059844971,-288335.7107639313,-1187944.769859314,322015.76232910156,6240533.351898193,906543.1952476501,-1895952.4631500244,-3448956.9664001465,-4602292.537689209,3553707.3612213135,-569894.4926261902,22989789.962768555,2510101.318359375,2833015.6803131104,4446732.997894287,6642066.478729248,5721678.256988525,6512121.200561523,-138970.0621366501,-1218394.160270691,8300663.948059082,6824707.984924316,7376366.61529541,7155176.639556885,4450026.512145996,10921858.787536621,18725002.28881836
0.33,-101659042.35839844,-83530197.14355469,-103703727.72216797,-89782119.75097656,-46540767.669677734,-61539508.81958008,-55719051.361083984,-57458366.39404297,-38762676.23901367,-23261157.989501953,3107249.2599487305,-35767417.907714844,-35546241.760253906,-26109678.268432617,-62418334.9609375,-50526401.51977539,-39402656.55517578,-20285522.4609375,-12192867.279052734,-9207720.756530762,-23522006.98852539,-16788576.126098633,-12311743.73626709,-32776557.92236328,-25647310.256958008,-21340608.596801758,-28894865.036010742,7001095.294952393,11854792.594909668,-3712216.854095459,948696.3748931885,-15584601.402282715,-10435351.371765137,-12268261.909484863,-7579419.6128845215,-5953659.0576171875,-265471.0114002228,-1222715.4970169067,3451833.0097198486,11434753.41796875,6959357.738494873,2774828.1955718994,1383260.8461380005,-669804.0962219238,5820268.630981445,-350907.02772140503,19850721.35925293,5232548.236846924,5815357.208251953,10474879.264831543,11225192.070007324,10640778.541564941,9451637.268066406,120063.49861621857,3775765.1805877686,12300074.577331543,11092984.199523926,10090884.2086792,10140401.840209961,8275437.355041504,13650644.302368164,21727193.83239746
0.335,-78274299.62158203,-56116519.927978516,-69686408.99658203,-72721015.93017578,-24464696.884155273,-58754631.04248047,-49610397.33886719,-46515270.2331543,-28270875.930786133,-9739754.676818848,16533489.227294922,-16396356.582641602,-16158504.486083984,226754.42695617676,-59472679.138183594,-44745948.791503906,-29758415.22216797,-13952630.043029785,-3790035.4862213135,-625772.4165916443,-12951134.68170166,-3683959.9609375,1836584.9256515503,-32393981.93359375,-20335424.423217773,-15991648.67401123,-23106555.938720703,9395868.301391602,15697125.434875488,2180385.3511810303,8009657.859802246,-7210044.860839844,-11156179.428100586,-9764532.089233398,-4672966.003417969,-4880595.684051514,-205744.10259723663,-989923.5367774963,7391895.771026611,16170690.536499023,10011217.11730957,4175842.28515625,3109404.5639038086,1266335.4873657227,4856399.5361328125,-230762.21346855164,16010295.867919922,7885333.061218262,8529523.849487305,14131154.06036377,11192941.665649414,11577386.856079102,8379904.747009277,246813.68470191956,6463166.7137146,13608688.354492188,12756958.961486816,8995418.548583984,9223022.4609375,8176371.5744018555,13095088.005065918,21376771.926879883
0.34,-75886718.75,-53068515.77758789,-68109741.2109375,-69063606.26220703,-22486293.79272461,-55455039.978027344,-45161766.052246094,-42379501.34277344,-24354135.513305664,-5859155.178070068,19369781.494140625,-15268883.70513916,-14856925.964355469,-4757681.369781494,-56055355.072021484,-41143329.62036133,-25903795.24230957,-10776048.66027832,-1510377.1686553955,1390978.0979156494,-11662726.402282715,-4656210.899353027,-1719786.8824005127,-30383022.30834961,-17638887.405395508,-12924223.899841309,-21138280.868530273,10617679.595947266,17187667.846679688,3483846.426010132,6648772.716522217,-9605690.002441406,-11181908.60748291,-7701311.5882873535,-1984350.9197235107,-4177688.1217956543,-193630.8592557907,-973914.5040512085,7826358.795166016,14655198.097229004,7816647.052764893,4696279.048919678,3590623.8555908203,2037016.1533355713,3226679.0866851807,-165351.13751888275,15811793.327331543,8834797.859191895,9459688.186645508,13528213.500976562,11234740.257263184,12146792.4118042,7457567.6918029785,204999.93860721588,5938050.270080566,13464104.652404785,12719024.658203125,8447709.083557129,8496480.941772461,7468051.910400391,12573134.422302246,21584100.7232666
0.345,-90389961.24267578,-70408538.81835938,-92765434.26513672,-76716300.96435547,-36262008.66699219,-51571125.03051758,-43073974.609375,-44490154.26635742,-26922988.891601562,-10783998.489379883,13372849.464416504,-27645198.822021484,-27026483.5357666,-29182611.4654541,-52107234.954833984,-39550479.888916016,-28154596.32873535,-11709954.261779785,-5260977.745056152,-2281340.3606414795,-17248863.220214844,-14124484.062194824,-14453858.375549316,-26476310.72998047,-16378089.904785156,-12755597.114562988,-23512897.491455078,9167004.585266113,16633026.123046875,1554913.1631851196,1297973.9904403687,-16873975.75378418,-8064474.105834961,-5443481.4453125,-497723.40059280396,-4622779.846191406,-282653.24234962463,-1115939.8555755615,5953408.718109131,10469465.255737305,5418447.971343994,6860765.9339904785,5375829.219818115,3266349.0772247314,3348021.0304260254,-147503.01837921143,18480571.746826172,9599950.790405273,10277085.304260254,12665202.140808105,14309541.702270508,14995756.149291992,9679214.477539062,64143.165946006775,5304544.925689697,14620243.072509766,13842496.871948242,11053849.220275879,10752709.38873291,8929021.835327148,14991689.682006836,25196523.666381836
0.35,-97178428.64990234,-78453102.1118164,-104280059.81445312,-80893722.53417969,-43098434.44824219,-51107654.5715332,-44496059.41772461,-46452003.479003906,-29668270.111083984,-14290789.604187012,9648245.811462402,-33099822.998046875,-32387565.61279297,-37550529.47998047,-51540317.53540039,-40004722.595214844,-30070711.135864258,-13858532.905578613,-8599839.210510254,-4771488.666534424,-20048624.03869629,-17381599.42626953,-17831094.74182129,-26765472.412109375,-16545532.2265625,-13921376.22833252,-25638803.482055664,6655632.972717285,16281478.881835938,972400.3672599792,-461995.8996772766,-18627079.010009766,-7781590.938568115,-5883335.113525391,-1213652.7299880981,-5447642.3263549805,-395822.9124546051,-664780.31873703,4922477.245330811,9195318.222045898,5632275.581359863,7474519.2527771,5834595.203399658,3393966.9132232666,4289816.379547119,-243695.64652442932,19579566.955566406,9994744.300842285,10712009.42993164,12685479.164123535,15240844.7265625,15636220.932006836,10896058.082580566,-84789.91687297821,5612150.6690979,15122102.737426758,14236023.902893066,12207350.730895996,11770728.11126709,9094749.450683594,16531621.932983398,27583646.774291992
0.355,-87427619.93408203,-66811882.01904297,-89519927.97851562,-75965644.83642578,-36104339.599609375,-54643768.310546875,-47876602.17285156,-45226181.03027344,-29199316.024780273,-12054094.314575195,12166342.735290527,-26469268.798828125,-25744817.73376465,-22800300.59814453,-54922645.568847656,-41856204.986572266,-28087211.60888672,-14775087.356567383,-7897513.389587402,-3663539.6480560303,-18058904.64782715,-12867029.190063477,-11071578.979492188,-32818931.579589844,-18686214.447021484,-14905826.568603516,-24696615.21911621,5670551.300048828,16655387.878417969,1998138.9045715332,929534.7332954407,-15347513.198852539,-14012453.079223633,-10414263.725280762,-3727763.4143829346,-5416244.983673096,-494152.87375450134,489276.55816078186,5084577.560424805,9674215.316772461,5067434.787750244,3279088.7355804443,1955490.5891418457,556260.4069709778,3695952.4154663086,-490507.3046684265,17776937.48474121,7988045.215606689,8573777.198791504,10146241.188049316,9771249.771118164,10315354.347229004,6822647.0947265625,-205446.10917568207,5294321.537017822,11713830.947875977,10521948.81439209,7758304.595947266,7473518.371582031,4435037.612915039,12647804.260253906,23714908.599853516
0.36,-77533523.55957031,-56097652.435302734,-76312156.6772461,-71205421.4477539,-30969230.65185547,-56359687.80517578,-48743286.1328125,-43510543.82324219,-28177797.317504883,-9993558.883666992,14190547.943115234,-22372806.549072266,-21606788.635253906,-11535459.518432617,-56568119.049072266,-42647949.21875,-25329286.575317383,-14933358.192443848,-6102111.339569092,-3018790.7218933105,-17829971.313476562,-11462433.815002441,-8735738.754272461,-36689460.75439453,-20702114.10522461,-15090380.668640137,-22909975.051879883,6327298.641204834,16552652.359008789,1378454.566001892,-165197.40223884583,-14509473.80065918,-19886690.139770508,-14295695.304870605,-5895514.011383057,-4802687.644958496,-642526.388168335,1429517.5075531006,4979386.329650879,7651300.90713501,1556848.8836288452,-1706799.6263504028,-2665171.3848114014,-2772599.935531616,1562532.7825546265,-784212.052822113,16609046.936035156,4545660.495758057,4904256.343841553,4883247.375488281,3585961.34185791,4414007.186889648,1418143.630027771,-301945.44792175293,4386797.4281311035,7013377.1896362305,5433836.936950684,2172550.4398345947,2054368.257522583,-997992.5155639648,6878380.298614502,17561292.64831543
0.365,-82192665.10009766,-63346691.1315918,-86461563.11035156,-75378135.68115234,-39176208.49609375,-53566207.88574219,-46369754.791259766,-44785259.24682617,-30347419.73876953,-13820757.865905762,10187120.43762207,-30122257.232666016,-29326887.130737305,-19712593.07861328,-53896526.33666992,-41644821.16699219,-26173484.802246094,-16420883.178710938,-7394828.796386719,-6019607.5439453125,-22677881.240844727,-17410608.291625977,-15626775.741577148,-33125980.377197266,-20279224.395751953,-15104207.992553711,-23565032.958984375,6103027.820587158,15467587.4710083,-1390964.9848937988,-4383441.44821167,-16687246.322631836,-18122068.405151367,-12722209.930419922,-6313966.274261475,-4958342.0753479,-811161.2796783447,1596019.7448730469,4718524.45602417,4249559.8793029785,-730226.6955375671,-1308743.1192398071,-2270230.293273926,-2605681.6577911377,357249.4089603424,-925258.3980560303,19046825.408935547,3959980.7262420654,4211868.2861328125,2850120.5444335938,4548595.428466797,5437068.939208984,1649583.101272583,-343287.22953796387,4936665.5349731445,7115843.296051025,5436590.671539307,2550606.4891815186,2421731.71043396,-404361.1288070679,6838134.288787842,17426504.135131836
0.37,-95156761.1694336,-78631919.86083984,-104956642.1508789,-85452941.89453125,-52028625.48828125,-52906314.849853516,-46838699.34082031,-49613960.26611328,-35987838.74511719,-21308240.89050293,3272279.0241241455,-40850791.931152344,-40186412.8112793,-31613338.470458984,-53467700.95825195,-42642337.799072266,-30989776.611328125,-20482690.811157227,-11819189.071655273,-10780515.670776367,-28260471.34399414,-22990993.49975586,-20949085.235595703,-29470956.802368164,-19896282.196044922,-16795028.686523438,-26798109.05456543,3145783.9012145996,14007255.554199219,-3263228.65486145,-6889618.873596191,-15771632.194519043,-13493350.982666016,-9051865.577697754,-6420958.042144775,-6127372.264862061,-828413.188457489,1641759.3955993652,5587104.320526123,4221098.42300415,2054523.4680175781,2682818.4127807617,1531170.9642410278,99604.33095693588,1713239.4313812256,-829854.1903495789,23544612.884521484,7769774.913787842,8025580.406188965,7603025.913238525,10053773.880004883,11037777.9006958,6487540.245056152,-276623.6662864685,7043744.5640563965,12414124.488830566,10910338.401794434,7514984.607696533,7298871.994018555,5314003.944396973,12675139.427185059,23487070.083618164
0.375,-103297615.05126953,-85496589.66064453,-109626670.83740234,-93593521.11816406,-57395168.30444336,-59799041.748046875,-54306915.283203125,-56176902.770996094,-42533996.58203125,-27138015.747070312,-1270342.1115875244,-44534160.61401367,-44134277.34375,-31047286.987304688,-60507900.23803711,-48652618.408203125,-36993492.126464844,-26125703.811645508,-16474889.755249023,-14311303.13873291,-30774309.158325195,-23192348.48022461,-18720817.56591797,-34430282.59277344,-23870283.126831055,-20976188.65966797,-30444742.20275879,-1168627.9773712158,12458024.978637695,-2911538.1240844727,-6147106.647491455,-11452947.616577148,-15494956.970214844,-10349311.828613281,-8301314.353942871,-6935347.557067871,-689272.4633216858,2260247.4689483643,7245089.530944824,7202816.963195801,6148503.78036499,3000909.5668792725,1868796.3485717773,652385.413646698,4479104.995727539,-685468.4352874756,26843301.77307129,11973166.465759277,12115322.11303711,13904483.795166016,10993371.963500977,12409475.326538086,8443421.363830566,-164256.2597990036,8180006.02722168,16511466.979980469,14932694.435119629,9354512.214660645,9123031.616210938,8575338.363647461,16550945.281982422,27429779.052734375
0.38,-106774536.1328125,-87248062.13378906,-107888946.53320312,-97939567.56591797,-58736907.958984375,-66303718.56689453,-61982353.21044922,-61502471.923828125,-47150798.79760742,-30281539.916992188,-3708875.894546509,-46273143.76831055,-46025749.20654297,-29517147.064208984,-67013092.041015625,-54654369.35424805,-41278900.146484375,-30364723.205566406,-19451564.78881836,-16649055.480957031,-32758159.637451172,-24306262.969970703,-18889276.5045166,-41844181.060791016,-29729721.069335938,-24711643.21899414,-32865493.774414062,-3618992.805480957,10614717.483520508,-2940782.7854156494,-6723723.888397217,-11680503.845214844,-21545145.03479004,-15480779.647827148,-10721305.847167969,-6276221.27532959,-679410.8152389526,2764499.1874694824,7663449.287414551,7176280.0216674805,4976624.965667725,-720453.679561615,-1662867.546081543,-1458760.380744934,6426770.210266113,-782323.8968849182,28111692.428588867,12364639.282226562,12267993.927001953,14505853.652954102,6950445.652008057,8667647.361755371,5765819.549560547,-195474.2968082428,7440266.132354736,15456789.016723633,13349980.354309082,6527732.849121094,6315710.544586182,6649953.842163086,14566474.914550781,25256591.796875
0.385,-113759201.04980469,-97152458.19091797,-121026123.046875,-101128326.41601562,-66453369.140625,-59591964.72167969,-58930175.78125,-62482582.092285156,-48196044.921875,-32844970.703125,-7128678.798675537,-55694705.963134766,-55355045.318603516,-45118465.423583984,-60283302.307128906,-51660285.94970703,-42013156.89086914,-30580171.585083008,-20719762.802124023,-19103982.92541504,-37548988.342285156,-32619464.874267578,-30741975.784301758,-37301639.556884766,-28880336.76147461,-23446088.790893555,-33568462.37182617,-2932923.3169555664,8787216.186523438,-5643280.029296875,-11658473.96850586,-20228771.209716797,-19086391.44897461,-15373791.694641113,-9934080.123901367,-4731698.989868164,-959608.0780029297,1712635.87474823,5825797.080993652,1694758.2960128784,-980890.8700942993,-139842.13769435883,-1097080.111503601,-1006168.4846878052,6834902.286529541,-1124243.7362670898,28236070.63293457,9929403.305053711,9823144.912719727,10256675.720214844,7688971.996307373,8801765.441894531,5389624.59564209,-427971.4524745941,7402291.297912598,12938961.029052734,10474609.375,6200448.513031006,5953047.275543213,5541523.9334106445,12327740.669250488,23059471.130371094
0.39,-122891235.3515625,-113000190.73486328,-145760452.2705078,-102874267.578125,-78717330.93261719,-41017688.7512207,-45214328.76586914,-58259765.625,-45837089.53857422,-34631938.93432617,-10883267.402648926,-69083175.65917969,-68611305.2368164,-69523246.76513672,-41773193.359375,-38993721.00830078,-38927013.3972168,-27186775.20751953,-20447572.708129883,-20986763.00048828,-42839591.97998047,-43063957.21435547,-46501960.75439453,-19819766.998291016,-18539358.139038086,-16980215.072631836,-32500843.048095703,-1179999.7091293335,7750485.420227051,-9448620.796203613,-17291908.264160156,-29701753.616333008,-5182467.937469482,-6794871.807098389,-5132651.329040527,-3627307.415008545,-1219314.5751953125,-1185537.0998382568,2747752.904891968,-4108831.8824768066,-4843461.036682129,8746266.36505127,7460352.420806885,4680982.58972168,6535024.642944336,-1329740.1666641235,26953811.645507812,8280978.202819824,8613294.60144043,8092337.608337402,17637399.673461914,17330240.24963379,11562500.0,-614085.9723091125,9968505.859375,13788857.460021973,11783024.787902832,12504132.270812988,12229202.270507812,10218706.130981445,15532877.922058105,26860498.428344727
0.395,-123487182.6171875,-118381210.32714844,-156029037.47558594,-99907447.8149414,-82955017.08984375,-26525743.48449707,-32976879.119873047,-51695362.09106445,-41823265.075683594,-32847206.115722656,-11182209.968566895,-73379615.7836914,-73011230.46875,-77178565.9790039,-27323579.788208008,-26903778.076171875,-33942333.22143555,-23233980.178833008,-18317840.576171875,-20340665.817260742,-43710296.630859375,-45972518.92089844,-51213932.037353516,-5437871.932983398,-7530219.554901123,-10892491.340637207,-30188491.821289062,-960598.4091758728,7763983.726501465,-11230104.446411133,-18576353.073120117,-31096588.134765625,6915205.955505371,1454370.9754943848,-660248.339176178,-3345785.8562469482,-1042570.7101821899,-4422411.918640137,-228030.41338920593,-5080529.689788818,-3241251.4686584473,17922203.063964844,16301391.6015625,10418854.713439941,6061454.772949219,-1069784.2836380005,23410968.780517578,7929813.861846924,8812915.802001953,10503766.059875488,27668243.408203125,26141971.588134766,18305332.18383789,-467696.875333786,12846543.312072754,16626605.987548828,15610472.679138184,19236610.412597656,19062244.415283203,16683712.005615234,20769067.764282227,32839229.583740234
0.4,-112673645.01953125,-107529205.32226562,-141129135.13183594,-92496200.56152344,-74534843.44482422,-26471656.799316406,-31183145.52307129,-46964656.829833984,-38195529.93774414,-26993406.295776367,-7243884.086608887,-65031761.169433594,-64948860.16845703,-61855762.48168945,-27140787.12463379,-24464548.110961914,-30235910.415649414,-21143238.067626953,-14750184.059143066,-17132780.075073242,-39801677.70385742,-40631084.44213867,-43132934.5703125,-6279868.125915527,-5828544.139862061,-10275681.495666504,-28063112.258911133,-2296193.1228637695,8374645.233154297,-10464478.492736816,-16180458.068847656,-25346670.150756836,5418275.833129883,359706.8786621094,-976764.3213272095,-3240672.826766968,-516445.93477249146,-6195497.035980225,-2645399.570465088,-3118439.4359588623,-229484.2153787613,17822618.48449707,16166296.005249023,9823945.999145508,5074454.784393311,-521022.9158401489,18995965.9576416,6513307.094573975,7531984.806060791,12770831.108093262,27473863.60168457,25652299.880981445,17882307.052612305,-53722.795099020004,12719878.196716309,16883621.215820312,16545398.712158203,18692348.48022461,18700214.385986328,17973712.921142578,20945337.295532227,33220417.022705078
0.405,-101489608.76464844,-94117507.93457031,-120667076.11083984,-86107589.72167969,-63452396.392822266,-34153362.27416992,-35958526.611328125,-45674926.7578125,-36088672.63793945,-20986413.955688477,-3061470.2701568604,-54588020.32470703,-54646846.771240234,-44198280.334472656,-34615043.64013672,-29495515.823364258,-29655292.510986328,-20880926.13220215,-11652371.406555176,-13935974.12109375,-35735584.2590332,-35190769.19555664,-34427200.31738281,-15998410.22491455,-12300751.686096191,-14028922.080993652,-27546335.220336914,-3417872.667312622,9001617.431640625,-9342923.164367676,-14784428.596496582,-20725473.403930664,-4612476.348876953,-7044039.726257324,-5074267.387390137,-2930721.2829589844,-146485.92472076416,-6143990.993499756,-4211738.109588623,-3277823.2097625732,-402512.93778419495,10357341.766357422,8948036.193847656,4138381.004333496,3675041.1987304688,-175086.51316165924,16956098.556518555,3717245.8171844482,4414581.298828125,11070147.514343262,19574893.951416016,18088193.893432617,11874617.576599121,288078.54652404785,10383359.909057617,14255877.494812012,13934330.940246582,12626896.858215332,12724262.237548828,14062058.448791504,16127712.24975586,27902585.983276367
0.41,-100910293.57910156,-92484931.94580078,-116909950.25634766,-85540260.3149414,-60865821.838378906,-37934303.283691406,-38905361.17553711,-46528697.9675293,-35910346.98486328,-19348087.310791016,-2590019.941329956,-52266002.6550293,-52173748.01635742,-42324951.171875,-38388206.481933594,-33787536.62109375,-31555175.78125,-21570674.896240234,-11154596.328735352,-13370913.5055542,-35245822.90649414,-35203056.33544922,-34097972.86987305,-21272211.0748291,-17817367.553710938,-17261713.0279541,-28825750.35095215,-3849525.4516601562,9143954.277038574,-9576402.66418457,-16215845.108032227,-21942222.595214844,-10082946.77734375,-10895898.818969727,-8071236.610412598,-2919369.4591522217,-184387.87758350372,-5355199.813842773,-4236646.1753845215,-5940644.74105835,-2758163.2137298584,5397588.25302124,4286750.316619873,224309.86166000366,3106086.9693756104,-211744.47238445282,18651996.612548828,2514358.9973449707,2902274.8470306396,8080256.462097168,14495079.99420166,13384005.546569824,8172566.4138793945,401922.70278930664,9912813.186645508,12749344.825744629,12068718.910217285,8939287.185668945,8990962.982177734,10839772.22442627,12982151.985168457,23965929.03137207
0.415,-108529762.2680664,-100520980.83496094,-127970474.24316406,-89644477.84423828,-66204849.24316406,-36208515.16723633,-38453895.568847656,-47831367.49267578,-37463630.67626953,-22214757.919311523,-5252158.641815186,-56684112.548828125,-56373291.015625,-51053829.193115234,-36915863.037109375,-34012603.759765625,-34048576.35498047,-22978321.075439453,-13254323.959350586,-15371562.957763672,-37467517.8527832,-38117813.11035156,-38796543.12133789,-19380569.458007812,-17684333.80126953,-17488765.716552734,-30785503.387451172,-4731822.0138549805,8602939.60571289,-10487100.601196289,-17634214.401245117,-25998451.232910156,-7518616.676330566,-8206449.508666992,-7499736.785888672,-3718915.4624938965,-346366.5544986725,-4861922.740936279,-2455293.4169769287,-6971287.727355957,-3523432.2547912598,7179159.164428711,6212119.102478027,1270506.1435699463,4265636.444091797,-294512.3016834259,21919456.481933594,4885462.284088135,5328817.844390869,8191370.964050293,16037908.554077148,15331439.971923828,9661708.83178711,474515.1698589325,13113988.876342773,14370033.264160156,13179026.60369873,10393936.157226562,10413806.915283203,11338974.952697754,14841444.01550293,25215082.1685791
0.42,-113561752.31933594,-106316314.69726562,-136491058.34960938,-93155601.50146484,-70883132.93457031,-34577201.84326172,-38210159.30175781,-48690391.540527344,-39308284.759521484,-25282001.495361328,-7283414.363861084,-60024238.58642578,-59706432.3425293,-54970516.204833984,-35484062.19482422,-32963745.1171875,-35584423.06518555,-24562038.42163086,-15326109.886169434,-17246294.021606445,-39060226.44042969,-38972602.84423828,-40796649.93286133,-16931203.842163086,-15382203.102111816,-16099735.260009766,-31980428.69567871,-6147868.633270264,8003663.063049316,-10297251.70135498,-16216016.76940918,-27470788.955688477,-3945112.2283935547,-4801131.248474121,-5619874.477386475,-4849875.450134277,-274723.6490249634,-4592215.061187744,221849.2329120636,-4417125.225067139,-1737406.1346054077,10714731.216430664,9693799.97253418,3867474.5559692383,6262509.822845459,-79292.893409729,23861972.80883789,8803399.085998535,9533748.626708984,10906538.009643555,18608840.942382812,18600727.081298828,11854732.513427734,676784.5749855042,17308498.38256836,16778844.833374023,14951777.458190918,12507113.456726074,12608800.888061523,12983194.351196289,18059190.75012207,28203981.399536133
0.425,-110722312.9272461,-104402084.35058594,-133808624.26757812,-92601509.09423828,-69937408.44726562,-34752498.626708984,-38857730.865478516,-48463291.16821289,-39427413.94042969,-24820463.180541992,-6419101.715087891,-58575054.16870117,-58443241.119384766,-49660125.732421875,-35514247.89428711,-32770492.553710938,-35521141.052246094,-24949331.283569336,-14874530.792236328,-16587503.433227539,-38184776.306152344,-36741039.27612305,-38034976.959228516,-16933116.912841797,-15054510.116577148,-14986582.75604248,-31707698.822021484,-6359054.5654296875,8346113.204956055,-8515097.618103027,-12925957.679748535,-24572759.6282959,-3930910.348892212,-5058952.808380127,-5401704.788208008,-5173615.9324646,-8949.246257543564,-3924566.2689208984,2289249.4201660156,-1136871.2186813354,562348.2465744019,11080709.457397461,9951648.712158203,4283610.3439331055,7578417.778015137,300788.938999176,24059284.210205078,10830643.653869629,11749650.001525879,12293495.178222656,17795280.45654297,18527347.564697266,11122545.24230957,880194.1275596619,19078073.501586914,17418605.80444336,15179998.397827148,11771729.469299316,11959849.35760498,13110390.663146973,18647874.83215332,28932458.877563477
0.43,-104748161.31591797,-99630104.0649414,-126460243.22509766,-89667503.3569336,-66357475.28076172,-33987201.69067383,-38040733.337402344,-47234130.859375,-37821857.45239258,-22045833.587646484,-4199352.741241455,-55183578.49121094,-55199172.97363281,-43074989.318847656,-34433307.64770508,-32335948.944091797,-34440326.69067383,-23840005.87463379,-12614880.561828613,-14076177.597045898,-36042636.87133789,-34114353.17993164,-34409191.1315918,-16180521.011352539,-16073829.650878906,-14458732.604980469,-30523012.161254883,-4562188.625335693,9505187.034606934,-6714531.898498535,-11035815.238952637,-20544462.203979492,-4581652.641296387,-6415416.717529297,-6426657.199859619,-4146805.2864074707,167866.23001098633,-2797031.4025878906,2715386.8675231934,-575420.1412200928,1525481.3432693481,9840584.754943848,8747089.385986328,3507217.8840637207,8259268.760681152,450265.91420173645,24209579.467773438,10215039.253234863,11111236.572265625,10848480.224609375,16198003.768920898,17104862.213134766,9538040.161132812,870304.0480613708,18029628.75366211,16637107.849121094,14749358.177185059,10271544.456481934,10404265.403747559,12507120.132446289,17527475.357055664,28051996.2310791
0.435,-103433479.30908203,-99515731.81152344,-125285995.48339844,-89216796.875,-66395339.96582031,-31958482.74230957,-35988643.646240234,-46742523.193359375,-37222148.89526367,-21600599.28894043,-3846895.217895508,-54923923.49243164,-54934398.65112305,-44055915.83251953,-32364231.10961914,-30875728.607177734,-34019031.5246582,-22968240.73791504,-11613821.983337402,-12795668.601989746,-35409873.962402344,-34273769.37866211,-34842201.232910156,-13336571.69342041,-16041141.510009766,-14208207.130432129,-29754045.486450195,-2472444.2958831787,10108851.432800293,-6966582.775115967,-12451542.854309082,-20779212.951660156,-2887937.068939209,-5067720.890045166,-5944270.610809326,-2428200.0064849854,143165.7075881958,-1825204.9684524536,1409278.8696289062,-2884635.2100372314,592781.3649177551,10626762.390136719,9707612.991333008,4528251.647949219,9610918.998718262,244857.35595226288,25615766.525268555,9039501.190185547,9825265.884399414,8694193.840026855,17504793.167114258,17882226.943969727,10321693.420410156,662662.2080802917,15922172.546386719,15944037.437438965,14999547.958374023,11105513.572692871,11082516.67022705,12623366.355895996,17494779.586791992,27826414.108276367
0.44,-109126953.125,-106622741.69921875,-134472930.90820312,-93648475.64697266,-72571670.53222656,-30828351.974487305,-35206138.610839844,-48489814.75830078,-39406703.94897461,-25369348.526000977,-6286768.436431885,-60122638.70239258,-60071178.4362793,-54515926.361083984,-31571027.755737305,-29389181.13708496,-35234283.447265625,-23556074.142456055,-13051010.131835938,-14290184.020996094,-37501235.96191406,-38255657.19604492,-40947528.83911133,-11301819.801330566,-14709637.641906738,-13994561.195373535,-30056394.577026367,-1847560.5249404907,9652445.793151855,-9300406.455993652,-15841796.875,-27062578.201293945,-548515.796661377,-1852980.7329177856,-2866528.5110473633,-1159400.463104248,41404.6049118042,-1496787.190437317,-702866.8522834778,-5805563.449859619,-1790088.8919830322,13182319.641113281,12337330.81817627,7471535.205841064,11675651.550292969,-77025.84564685822,28010509.490966797,9193893.432617188,9931288.719177246,7917986.3929748535,20499986.64855957,20104717.254638672,12798836.708068848,434228.3010482788,13969017.028808594,15767779.350280762,15371492.385864258,13569252.967834473,13444701.194763184,12957596.778869629,18726682.662963867,28060503.005981445
0.445,-116354057.31201172,-115924949.6459961,-147645904.54101562,-98996086.12060547,-80180137.63427734,-29689437.866210938,-35066001.892089844,-50553394.31762695,-41738853.454589844,-29099203.10974121,-8593175.888061523,-67345504.76074219,-67285636.90185547,-67585815.4296875,-30739114.76135254,-27902454.376220703,-36438068.38989258,-24023626.32751465,-14317769.050598145,-16195590.97290039,-39962356.56738281,-43148029.32739258,-48384574.89013672,-10921968.460083008,-12847595.21484375,-13103141.784667969,-30467542.64831543,-1932919.0254211426,9618679.04663086,-11042032.241821289,-17617303.8482666,-33811786.65161133,360370.81480026245,143066.4211511612,749982.1782112122,-853100.4786491394,-25205.383077263832,-1715801.9542694092,-2006792.5453186035,-7265154.838562012,-3612234.115600586,14788687.705993652,13788499.83215332,9726728.439331055,12554154.396057129,-287254.78053092957,30267549.514770508,10498673.439025879,11303940.773010254,8574247.360229492,21905887.603759766,20877517.700195312,14229741.096496582,266279.28018569946,12521325.11138916,16034208.297729492,15236171.72241211,15042247.772216797,14903172.492980957,12835965.156555176,19737775.802612305,27663736.34338379
0.45,-116377098.0834961,-117512161.25488281,-151229705.81054688,-97859397.8881836,-80452484.13085938,-25161870.9564209,-31881980.895996094,-48547039.03198242,-39645084.381103516,-26755256.65283203,-6705481.52923584,-68762977.60009766,-68747688.29345703,-70661727.90527344,-26108905.792236328,-24599151.611328125,-34586330.41381836,-22012685.775756836,-12343325.6149292,-14896923.065185547,-38772800.44555664,-43174350.73852539,-48775466.91894531,-8696258.544921875,-10063971.519470215,-10730242.729187012,-29370735.16845703,-1023469.9249267578,11393242.835998535,-9393290.519714355,-14959402.084350586,-32731697.08251953,1256943.2258605957,570920.4077720642,2348298.3112335205,-1065625.786781311,-73960.7885479927,-2168319.9405670166,-1373641.848564148,-6329659.461975098,-2050138.7119293213,14907313.346862793,13739987.37335205,9729778.289794922,11006534.576416016,-378245.7113265991,31344347.00012207,11655433.654785156,12587644.577026367,10176965.713500977,21691144.943237305,20131042.48046875,14084810.256958008,149001.49405002594,12246540.069580078,17073225.021362305,15642780.303955078,15046304.702758789,14883238.792419434,13255962.371826172,20428382.873535156,27574146.270751953
0.455,-105467544.55566406,-105445976.25732422,-136593963.62304688,-87534515.38085938,-69467369.07958984,-17654983.520507812,-25093173.98071289,-41025814.056396484,-32485893.24951172,-17831665.0390625,141058.549284935,-59721691.1315918,-59758441.92504883,-56749736.78588867,-18214822.76916504,-19014654.1595459,-29007362.365722656,-17856555.938720703,-7601789.951324463,-10072802.543640137,-32921207.427978516,-35560222.62573242,-38434280.39550781,-2798222.541809082,-6028702.259063721,-7297053.337097168,-26387718.200683594,601724.0285873413,14040241.241455078,-4704975.605010986,-8813634.872436523,-22984798.431396484,3952448.606491089,1471106.5292358398,2088543.8919067383,-944873.2137680054,-121534.96593236923,-2645402.193069458,555528.2235145569,-3433782.3390960693,3000080.347061157,15319025.993347168,14231773.376464844,8653399.467468262,8582331.657409668,-373374.73034858704,30759572.982788086,11855494.499206543,12845136.642456055,12541778.564453125,22219524.383544922,20181245.803833008,13988767.623901367,161717.78738498688,13626650.8102417,18577497.482299805,17331403.732299805,15062602.043151855,14845688.819885254,15002860.069274902,21520650.86364746,29130924.224853516
0.46,-89765319.82421875,-86050338.74511719,-111931198.12011719,-74233108.52050781,-53950431.82373047,-12203026.77154541,-19319456.100463867,-32378242.49267578,-24911144.256591797,-8381870.269775391,8104276.657104492,-45497592.92602539,-45562877.6550293,-35411876.6784668,-12488988.876342773,-13930473.327636719,-22824367.52319336,-14277486.801147461,-3316408.157348633,-5161122.798919678,-26191616.05834961,-25257358.55102539,-24885990.142822266,3037503.957748413,-2385733.127593994,-4401230.335235596,-22856029.510498047,1247269.868850708,15537117.958068848,-335020.84016799927,-3597155.3325653076,-13614101.40991211,6905732.154846191,3404199.1233825684,2525500.774383545,21123.751997947693,-98238.58737945557,-2900020.5993652344,1750261.4259719849,-614406.8241119385,7377182.0068359375,16680458.068847656,15808199.882507324,8467066.764831543,7938318.252563477,-188248.02339076996,28917505.264282227,11042477.60772705,11963734.62677002,14517189.025878906,23784349.44152832,21583089.82849121,14574921.607971191,413136.92927360535,15510281.562805176,18908798.217773438,18619480.13305664,15572348.594665527,15374503.135681152,16492143.630981445,22166599.27368164,30786920.54748535
0.465,-80060752.86865234,-73433677.67333984,-96321563.72070312,-67187271.11816406,-45272766.11328125,-12038485.527038574,-18614015.579223633,-28636871.337890625,-21848272.3236084,-4381529.808044434,12258243.560791016,-36965663.90991211,-36984477.99682617,-25244886.39831543,-12291417.121887207,-12511399.269104004,-19802761.07788086,-13178381.91986084,-1594322.8006362915,-3388651.132583618,-23233129.501342773,-20568714.141845703,-19763303.756713867,4396663.665771484,-1321859.359741211,-3244566.6790008545,-20574520.111083984,574409.0676307678,15410241.12701416,934928.834438324,-2909450.7694244385,-12839146.614074707,7411072.731018066,4678754.806518555,5083620.548248291,1485141.5157318115,51834.95581150055,-2821897.7451324463,920157.6113700867,-140303.68626117706,7149368.762969971,17713151.931762695,16875293.731689453,9722490.310668945,9664077.758789062,184245.66090106964,27028274.536132812,9504034.996032715,10367245.6741333,14212196.350097656,24335733.41369629,22501676.559448242,14831057.54852295,802677.9294013977,15973212.242126465,17081258.77380371,17513628.005981445,15629981.994628906,15542955.39855957,15636712.074279785,20821132.65991211,29617301.94091797
0.47,-80542755.12695312,-73987556.45751953,-98123420.71533203,-68800666.80908203,-47004810.33325195,-14880104.064941406,-21485849.380493164,-31008277.893066406,-23616069.793701172,-5762946.128845215,11355182.647705078,-38293498.99291992,-38139175.41503906,-31691316.604614258,-15145047.187805176,-14613471.031188965,-20506687.16430664,-14245361.328125,-1942906.2604904175,-4583847.522735596,-24528738.021850586,-23337913.513183594,-24573928.833007812,2099311.590194702,-2725111.0076904297,-3749024.1527557373,-20458869.93408203,-142025.426030159,14743021.011352539,-352588.0575180054,-5598496.437072754,-17921787.26196289,5646542.549133301,4162249.0882873535,7869997.978210449,2315798.044204712,264740.85450172424,-2935452.2228240967,-989831.3283920288,-1846376.5382766724,3881094.6941375732,17720476.150512695,16723464.965820312,11438095.092773438,11875563.621520996,519994.67611312866,26227783.203125,7984682.083129883,8972610.473632812,11761063.575744629,23219175.338745117,22069803.23791504,14349910.736083984,1054264.6646499634,15023657.79876709,14766304.016113281,15105685.234069824,15047844.886779785,15003885.269165039,13119504.928588867,18270914.07775879,26056919.09790039
0.475,-84701393.1274414,-79471069.3359375,-105563529.96826172,-72743843.07861328,-51708038.330078125,-16478553.771972656,-23235054.01611328,-34927753.44848633,-26553472.5189209,-7921527.862548828,8693881.98852539,-42690532.68432617,-42305030.822753906,-40100624.084472656,-16702243.80493164,-16915180.206298828,-22260057.44934082,-16135984.420776367,-2976979.7325134277,-6175721.168518066,-26538911.819458008,-26881757.736206055,-29029724.12109375,632347.1665382385,-4093134.4032287598,-4957116.12701416,-22048746.10900879,-267671.6148853302,14197330.474853516,-1521394.6104049683,-7194547.176361084,-19820861.81640625,4300221.920013428,2991008.758544922,8035512.924194336,1584095.3588485718,401544.7199344635,-4022203.9222717285,-1840885.9968185425,-2898301.124572754,2832581.043243408,17807304.38232422,16757827.758789062,12351179.122924805,12585401.53503418,566174.9839782715,26590110.778808594,7769552.230834961,8982107.162475586,10256778.717041016,22435054.779052734,21855480.194091797,14355315.208435059,1045822.1435546875,14923470.497131348,14755455.97076416,14644524.574279785,15143220.901489258,14967728.614807129,11904334.06829834,17495134.353637695,24412090.301513672
0.48,-83739265.44189453,-78543182.37304688,-103386352.5390625,-71964340.20996094,-50981575.01220703,-15103106.498718262,-21277959.8236084,-35335861.20605469,-27153926.849365234,-7407723.903656006,8431867.599487305,-41898056.03027344,-41404392.24243164,-35699470.52001953,-15393992.42401123,-16357439.041137695,-22310211.181640625,-17435777.66418457,-3674358.84475708,-6110969.066619873,-26172025.680541992,-24921756.744384766,-25024824.142456055,2256815.6719207764,-3328865.5281066895,-5644272.327423096,-23708919.525146484,-425640.37442207336,13685277.938842773,-879755.7353973389,-5119022.369384766,-15529175.758361816,5038124.084472656,2967698.097229004,5697819.232940674,-220797.16622829437,376153.94592285156,-5788842.678070068,-632080.8529853821,-1258486.3901138306,6092555.522918701,18913467.407226562,18032949.447631836,11924089.431762695,11468951.225280762,337542.17624664307,27173046.112060547,9535275.45928955,10780995.36895752,12141403.198242188,23530752.182006836,23174106.59790039,15826573.371887207,934630.9900283813,17003351.21154785,17379482.26928711,17108329.77294922,16747194.290161133,16419015.884399414,13453041.076660156,19817798.614501953,27432357.788085938
0.485,-76566963.19580078,-70752113.34228516,-92229057.31201172,-66197547.912597656,-44960609.436035156,-11824354.17175293,-16765266.418457031,-31617071.1517334,-24726467.13256836,-4471565.246582031,11541939.735412598,-36029106.14013672,-35631221.771240234,-22877845.764160156,-12374723.434448242,-13045921.325683594,-20162919.998168945,-16806030.2734375,-3034080.5053710938,-4243228.912353516,-23653631.21032715,-19395412.44506836,-16829711.9140625,4948737.621307373,-937820.315361023,-4886009.693145752,-23550226.21154785,-613039.6723747253,13620721.817016602,895552.5755882263,-1413534.6412658691,-10761532.7835083,6843843.460083008,4204669.47555542,3932845.3540802,-1243844.1514968872,216390.922665596,-6636053.085327148,1381024.4798660278,1245777.8453826904,9787230.491638184,19877248.764038086,19142389.29748535,10510378.83758545,9503053.665161133,71942.64978170395,26893779.754638672,11642045.021057129,12621742.248535156,15185667.037963867,24913925.170898438,24473249.435424805,17420726.776123047,876012.2060775757,19108524.322509766,19428279.876708984,19241237.64038086,18315324.783325195,18050926.208496094,15673945.426940918,22470689.77355957,31879165.649414062
0.49,-69145568.84765625,-64251197.814941406,-84178909.30175781,-60480686.18774414,-39625408.17260742,-8772754.669189453,-12514032.363891602,-27115022.659301758,-21056972.50366211,-1100072.8607177734,15489864.349365234,-31105987.548828125,-30861968.994140625,-16754419.326782227,-9532007.217407227,-9970493.31665039,-17240961.0748291,-14086935.043334961,-537645.6379890442,-1798866.7488098145,-21174327.850341797,-16845123.291015625,-13861676.216125488,5830604.076385498,713753.4618377686,-2995051.383972168,-21134904.861450195,304881.12568855286,14660705.56640625,2001395.7023620605,-16655.469313263893,-11048569.679260254,7640349.864959717,5119660.377502441,4620811.462402344,-121319.2418217659,36519.09902691841,-5513556.003570557,1952106.9526672363,818449.1395950317,8931541.442871094,18761411.666870117,17968832.01599121,8954836.84539795,7982839.584350586,-57937.104254961014,25389293.670654297,10860321.044921875,11518646.240234375,14299086.570739746,23717876.434326172,23042802.810668945,16549816.131591797,808245.5396652222,17760639.190673828,17416791.915893555,17078258.514404297,17255519.86694336,17252840.042114258,15390663.146972656,21450576.782226562,31788845.06225586
0.495,-66828300.47607422,-63964981.07910156,-85175735.47363281,-58867069.244384766,-38813930.51147461,-8119449.615478516,-10999705.31463623,-25204030.990600586,-18820196.1517334,1014600.7537841797,17035539.627075195,-30749052.047729492,-30521829.60510254,-22238197.326660156,-8772690.773010254,-10051161.766052246,-15384926.795959473,-11420218.467712402,2380096.912384033,-391662.061214447,-20486841.201782227,-19865255.35583496,-18413852.69165039,4446336.269378662,-137253.7463903427,-1703832.0302963257,-18361455.9173584,2450530.2906036377,16127338.409423828,1333959.3410491943,-2491585.2546691895,-15574672.69897461,6389546.3943481445,4454473.972320557,5993545.055389404,2352653.5034179688,-13401.876203715801,-3456685.781478882,177604.98821735382,-3526324.2721557617,3248924.0169525146,15615027.42767334,14744022.369384766,7936891.078948975,7921920.7763671875,-41863.79164457321,23449863.43383789,6161118.984222412,6712475.299835205,7932123.184204102,19581010.818481445,18766492.84362793,12692304.611206055,661274.7311592102,12779665.94696045,11745683.670043945,10878871.91772461,13249142.64678955,13429704.666137695,12163862.228393555,16509849.548339844,25929069.51904297
0.5,-69949226.37939453,-67569740.29541016,-90151168.82324219,-61419124.603271484,-41936946.868896484,-11010334.968566895,-13369507.789611816,-26693403.244018555,-19903383.255004883,721557.6171875,14992042.541503906,-33845455.169677734,-33510963.439941406,-30472143.173217773,-11373380.661010742,-13444955.825805664,-15838705.062866211,-11735526.084899902,2989673.137664795,-1066428.8997650146,-22044147.491455078,-25245851.516723633,-25102924.346923828,1987723.8273620605,-3290963.4113311768,-2625143.28956604,-17885574.340820312,3716898.9181518555,16304039.001464844,-763198.0776786804,-6968826.2939453125,-20550586.700439453,3423382.520675659,2519750.3566741943,5169202.80456543,3964375.4959106445,169168.6064004898,-2303760.290145874,-2453777.79006958,-8367983.818054199,-2881296.6346740723,12597310.066223145,11870690.34576416,7355232.238769531,9339043.617248535,106791.94331169128,22669460.29663086,1118540.644645691,1745964.4079208374,917490.6015396118,15094849.586486816,14546709.060668945,8581274.032592773,601631.8202018738,8298498.153686523,6778446.197509766,5332544.803619385,9193937.301635742,9289629.936218262,8726140.975952148,11844442.367553711,19607816.696166992
