time,Fp1,Fpz,Fp2,AF3,AF4,F7,F5,F3,F1,Fz,F2,F4,F6,F8,FT7,FC5,FC3,FC1,FCz,FC2,FC4,FC6,FT8,T7,C5,C3,C1,Cz,C2,C4,C6,T8,TP7,CP5,CP3,CP1,CPz,CP2,CP4,CP6,TP8,P7,P5,P3,P1,Pz,P2,P4,P6,P8,PO7,PO5,PO3,POz,PO4,PO6,PO8,CB1,O1,Oz,O2,CB2
0.0,1456576.943397522,6630616.664886475,4686873.912811279,-645598.5307693481,-1348268.2704925537,-1831639.4090652466,-1537395.0004577637,-1510433.316230774,-1492153.0485153198,-512039.3633842468,-2842433.214187622,-701424.8371124268,-202228.03950309753,342622.42913246155,-2443807.363510132,-1491681.0989379883,-1494766.2353515625,-1424625.7543563843,-1072579.3838500977,-1993151.7839431763,-542467.1173095703,-1175314.4264221191,-817820.6086158752,-1635313.7493133545,-1499460.1011276245,-1482126.3551712036,-1510384.5596313477,-1638108.9687347412,-502649.4264602661,-1983339.0712738037,-2591603.994369507,-1286266.0884857178,-2103597.640991211,-2110278.606414795,-717258.095741272,-1102963.2091522217,-1647931.0989379883,-368901.7593860626,-800137.8178596497,-566991.4484024048,-1028073.1916427612,-2093467.2355651855,-2082025.0511169434,-2150063.7531280518,-894592.8812026978,-262682.4378967285,-309439.3014907837,-785648.8227844238,-978475.4514694214,-1902399.5399475098,-2070512.7716064453,-2124988.794326782,-2147458.076477051,-259138.49472999573,266742.5870895386,-1363925.3377914429,-1348786.2348556519,-238626.71852111816,-2086683.0348968506,-251286.53645515442,299478.4414768219,457218.61720085144
0.005,-7791660.785675049,-20904460.906982422,-14997617.721557617,2819631.338119507,-5022213.459014893,684462.6665115356,-1664406.5380096436,-1489533.6627960205,-2265502.9296875,-784985.5422973633,9898814.20135498,-1053822.1597671509,-1889144.0629959106,-5197606.086730957,-1114642.5008773804,-1592922.9259490967,-1661008.9540481567,-498603.5227775574,589393.675327301,453551.9480705261,879473.3285903931,1621420.7410812378,5322028.636932373,-76476.59629583359,-2396290.063858032,-1393863.6779785156,-2602786.064147949,-470578.78971099854,11730566.97845459,2698966.5031433105,-1397728.3239364624,2366969.108581543,-2696986.9136810303,-2604749.2027282715,-4940292.3583984375,-4112505.9127807617,-2719489.336013794,3029300.6896972656,5724580.764770508,2857960.7009887695,12186225.891113281,-2326136.589050293,-1941017.985343933,-3520754.098892212,-2807750.701904297,1984698.8916397095,1975583.6725234985,3514589.786529541,7506940.3648376465,7116279.602050781,-1589271.7838287354,-3019836.42578125,-4015417.0989990234,1986498.9519119263,7329770.565032959,3980140.209197998,4355768.68057251,1951210.856437683,-2784074.306488037,2538516.5214538574,11145199.7756958,19152853.01208496
0.01,-16478796.005249023,-25444126.12915039,-9069953.918457031,303331.1665058136,3801737.3085021973,-13306390.762329102,-5526123.046875,-5158873.081207275,-5912943.8400268555,1204178.3332824707,20697336.196899414,9494463.920593262,13909108.16192627,15361938.4765625,-12414794.921875,-5317824.840545654,-5229980.46875,-3502972.12600708,2873791.6946411133,6118308.544158936,8811491.966247559,17074609.756469727,25163206.100463867,-7731270.790100098,-8264790.5349731445,-4942608.833312988,-6463043.212890625,410406.619310379,20292371.74987793,10652982.711791992,10091626.167297363,16068256.378173828,-5860513.210296631,-5898772.239685059,-9338914.87121582,-6632929.801940918,-3022864.34173584,6307067.87109375,13182474.136352539,11842694.282531738,26094774.24621582,-5354870.796203613,-4920338.153839111,-7159143.924713135,-5468897.819519043,3765650.0339508057,3297750.71144104,9136541.366577148,14039634.704589844,15980557.441711426,-4424146.65222168,-6355666.637420654,-7679467.678070068,3890720.6058502197,12170663.833618164,9241431.23626709,9832691.192626953,3854469.060897827,-5935574.054718018,4601434.230804443,17669319.15283203,27251274.10888672
0.015,-23025606.155395508,-8301704.406738281,17916067.123413086,-7509139.537811279,20852115.631103516,-39279304.50439453,-12097846.984863281,-11528134.3460083,-11537693.02368164,4642103.672027588,27415931.701660156,26646282.196044922,41214359.283447266,53848659.51538086,-32933456.420898438,-11642688.751220703,-11287123.680114746,-9471320.152282715,4860888.957977295,12803073.88305664,20202285.766601562,39846275.329589844,53072017.669677734,-22104862.213134766,-18232297.897338867,-11157278.060913086,-12155947.6852417,479006.91628456116,24161006.927490234,19373008.728027344,26891426.08642578,35214355.46875,-11643439.292907715,-11898769.37866211,-13482948.303222656,-8548796.653747559,-3016873.836517334,8304654.121398926,19246419.90661621,23087648.391723633,37334461.2121582,-11152102.47039795,-10905057.907104492,-13021530.151367188,-8892287.254333496,3594980.478286743,2911923.64692688,13518366.813659668,16669502.258300781,22156883.239746094,-10504467.010498047,-12116808.891296387,-13262984.275817871,3944108.009338379,12481825.828552246,11716708.183288574,12356577.87322998,3907656.192779541,-11560997.96295166,4430486.679077148,17993249.893188477,25622272.491455078
0.02,-25748125.076293945,13554832.458496094,41880023.95629883,-15358826.637268066,30673698.42529297,-59493244.17114258,-17805934.90600586,-17095811.84387207,-16435007.095336914,6171694.278717041,27950990.676879883,35943202.97241211,58186294.55566406,79522338.8671875,-49466194.15283203,-17098405.838012695,-16647996.90246582,-14766645.431518555,4755336.284637451,14797900.199890137,25809780.12084961,52885902.404785156,70111885.07080078,-33634738.92211914,-27695795.0592041,-16629053.115844727,-17030242.919921875,-817070.9013938904,24269374.84741211,22686080.932617188,34368412.017822266,45637863.15917969,-18686326.98059082,-18962202.072143555,-16988576.889038086,-10246943.473815918,-3874685.287475586,7899481.773376465,20311883.9263916,27904228.21044922,40327854.15649414,-18196002.960205078,-17996891.021728516,-19924022.674560547,-12502556.800842285,-107259.40018892288,962345.7789421082,12763551.712036133,14450624.465942383,21715484.619140625,-17774621.963500977,-19035596.84753418,-20070133.209228516,382903.0990600586,8203129.768371582,8129499.435424805,8728802.680969238,294030.5769443512,-18431148.529052734,610829.6513557434,13468801.498413086,21538373.947143555
0.025,-25704124.450683594,29320158.004760742,50000514.98413086,-20687406.539916992,25727434.158325195,-66366622.92480469,-21743877.410888672,-20964937.210083008,-20231229.782104492,3317918.300628662,21968069.076538086,30559118.270874023,54322036.74316406,78119148.25439453,-56477684.020996094,-20878232.955932617,-20563592.9107666,-18426391.6015625,1995395.0643539429,9870716.094970703,21714368.82019043,49066989.89868164,67123146.0571289,-38429084.77783203,-34285003.662109375,-20522346.49658203,-20799440.383911133,-3355918.8842773438,21762821.197509766,18396820.068359375,27109689.712524414,41395748.138427734,-25777227.4017334,-25897510.528564453,-19970354.080200195,-11935509.68170166,-5689767.837524414,5922220.230102539,16496315.002441406,23591636.657714844,34298229.2175293,-25326488.494873047,-24862760.543823242,-26929092.407226562,-15259410.858154297,-6051438.331604004,-820740.282535553,7770413.875579834,9349839.210510254,14564192.771911621,-24695344.924926758,-26080673.217773438,-27216760.635375977,-5669076.442718506,3635188.579559326,100973.42729568481,659971.9524383545,-5783490.6578063965,-25498371.124267578,-5450665.9507751465,8456033.706665039,18166271.209716797
0.03,-27376098.6328125,36214931.48803711,47430496.21582031,-25628835.678100586,13485342.025756836,-67923423.76708984,-25701189.041137695,-24863168.716430664,-24430313.110351562,-2958596.706390381,13000850.677490234,18333026.885986328,40954460.14404297,64979171.75292969,-59225799.560546875,-24785707.473754883,-24600204.467773438,-22261928.55834961,-1888243.317604065,2387811.1839294434,13651249.885559082,39115547.18017578,55020660.400390625,-40413322.44873047,-38772148.13232422,-24498371.124267578,-24985025.40588379,-5972389.221191406,18243976.593017578,11575320.24383545,15617602.348327637,31729948.043823242,-30844348.907470703,-30893013.00048828,-22144786.834716797,-12781685.829162598,-6870543.956756592,4838768.005371094,12589653.968811035,17314001.083374023,26745973.587036133,-30556056.97631836,-29763704.299926758,-32063034.057617188,-15602273.941040039,-9123703.956604004,68083.0106139183,4904617.3095703125,6283425.331115723,7806778.430938721,-29502635.955810547,-31209823.608398438,-32326778.411865234,-9037088.394165039,4607170.581817627,-4610085.487365723,-4035287.380218506,-9050907.135009766,-30624252.319335938,-8658692.359924316,8656098.365783691,15653353.691101074
0.035,-32380752.563476562,33409904.47998047,42511653.900146484,-31077804.565429688,5653378.009796143,-71201614.37988281,-29550266.26586914,-28627361.297607422,-28394237.518310547,-8691872.596740723,7042306.900024414,11072566.032409668,34508079.528808594,60340385.43701172,-61727699.279785156,-28655218.12438965,-28393974.30419922,-26200172.424316406,-4613741.874694824,-1508905.4107666016,9614159.58404541,36770553.58886719,50358329.77294922,-42485031.12792969,-41186153.411865234,-28271141.052246094,-28892679.21447754,-7362324.237823486,16073532.104492188,8913163.185119629,12550535.202026367,28886943.817138672,-31185373.306274414,-31317615.509033203,-22419509.887695312,-11679891.586303711,-6174543.857574463,5941605.091094971,12791895.866394043,17148830.41381836,26307191.848754883,-31012073.516845703,-30163490.295410156,-32479049.682617188,-12875297.546386719,-5456130.9814453125,4105675.220489502,8542373.657226562,8702781.677246094,9410194.396972656,-29828922.271728516,-31547716.14074707,-32394588.470458984,-5582325.458526611,11917231.559753418,112660.85505485535,757925.3315925598,-5448792.934417725,-30844085.693359375,-5156355.857849121,16304332.733154297,16873445.510864258
0.04,-34925518.03588867,25844966.888427734,38957756.04248047,-33073925.018310547,6105645.656585693,-71859657.28759766,-30049839.01977539,-29074472.427368164,-28842035.2935791,-9826967.239379883,7616072.654724121,12046992.301940918,37877449.03564453,65682945.251464844,-60916503.90625,-29223981.857299805,-28768262.86315918,-26991594.314575195,-4942585.468292236,-233842.81992912292,11418313.980102539,42740829.46777344,56574943.54248047,-42134422.302246094,-39689151.763916016,-28640832.901000977,-29216907.501220703,-7353387.832641602,16472904.205322266,11339664.459228516,18043006.896972656,34017791.748046875,-26956247.329711914,-27134916.305541992,-20393569.946289062,-9129721.641540527,-4750164.50881958,7725092.887878418,15870105.743408203,22414560.317993164,32490180.96923828,-26650133.13293457,-26017694.4732666,-28185264.587402344,-9222957.611083984,1672191.5006637573,8189826.011657715,15007519.721984863,14036613.464355469,17924913.40637207,-25749971.389770508,-27160999.298095703,-27819549.560546875,1621109.962463379,19287324.905395508,10478922.843933105,11167686.462402344,1760985.9704971313,-26276845.932006836,1876970.0527191162,26269720.07751465,23639711.380004883
0.045,-30539974.212646484,21642141.342163086,37066242.21801758,-28886787.41455078,10164418.22052002,-64786117.55371094,-25582658.767700195,-24685287.475585938,-24461269.37866211,-5807392.597198486,12927803.993225098,16037950.51574707,42563556.67114258,69934242.24853516,-54631362.91503906,-24870969.772338867,-24315795.8984375,-22894918.44177246,-3245235.2046966553,3246251.8215179443,15052233.695983887,48006145.47729492,64497276.306152344,-37126842.4987793,-34023944.85473633,-24177148.818969727,-24705043.79272461,-6710746.765136719,18202980.041503906,14453019.142150879,23314918.518066406,39209377.28881836,-22019990.921020508,-22114723.205566406,-17551069.259643555,-7105965.614318848,-4672448.635101318,8014702.796936035,17438879.013061523,26100730.895996094,37066421.50878906,-21484657.287597656,-21058437.34741211,-23120872.497558594,-8021192.55065918,4961917.400360107,8768103.59954834,17224512.100219727,16381101.608276367,23896457.67211914,-20915948.86779785,-22094915.39001465,-22916633.60595703,5178401.470184326,20241987.228393555,16694219.589233398,17310781.478881836,5157365.322113037,-21142736.434936523,5227746.00982666,30389722.82409668,30644880.294799805
0.05,-27877750.396728516,14532185.554504395,30940082.550048828,-23943138.122558594,11355081.558227539,-56048110.96191406,-19559146.881103516,-18899738.311767578,-18738924.026489258,-723839.8194313049,18740957.260131836,17880052.56652832,43073966.97998047,68683853.14941406,-47570404.052734375,-18975393.295288086,-18478055.953979492,-17135305.404663086,-905398.2496261597,6421000.003814697,16938735.961914062,48599548.33984375,67730468.75,-30113172.53112793,-27220188.14086914,-18340600.967407227,-18901750.564575195,-5734246.253967285,19652778.62548828,15426083.5647583,24963430.404663086,40301891.3269043,-18752626.419067383,-18803823.471069336,-15713998.794555664,-6366291.046142578,-5616042.613983154,7037013.530731201,16328962.326049805,25244974.13635254,36535045.6237793,-18214246.74987793,-17826286.31591797,-19855407.71484375,-9410881.042480469,3077497.959136963,6641586.3037109375,14518722.534179688,14518328.666687012,23377784.729003906,-17727178.5736084,-18926555.633544922,-20050018.310546875,3458528.2802581787,15955187.797546387,15681107.521057129,16158008.575439453,3308688.4021759033,-18111455.9173584,3483139.991760254,27334026.336669922,31686613.082885742
0.055,-39521717.0715332,-12388928.413391113,12385399.81842041,-26193683.624267578,7632417.20199585,-55299736.02294922,-16781692.504882812,-16426681.518554688,-16215005.874633789,545940.5779838562,22835376.739501953,17542058.94470215,42402454.3762207,67869781.49414062,-44668872.83325195,-16287563.32397461,-15894266.128540039,-14406795.501708984,690229.594707489,9543924.331665039,17367490.768432617,49991306.30493164,69917091.3696289,-24870569.229125977,-22447801.58996582,-15762847.900390625,-16342788.696289062,-4095098.9723205566,21184709.548950195,16287757.873535156,28322734.832763672,41344024.658203125,-14963342.666625977,-15143671.035766602,-14872321.128845215,-5356614.112854004,-5108169.5556640625,6932314.872741699,15998497.96295166,24437038.42163086,37116714.47753906,-14637155.532836914,-14241709.70916748,-16225721.35925293,-9777276.992797852,2502074.0032196045,6315485.000610352,13372426.986694336,13713754.653930664,23328496.9329834,-14098958.015441895,-15370569.229125977,-16547821.044921875,2779694.3187713623,13190006.256103516,14338206.29119873,14775306.701660156,2697237.014770508,-14770389.556884766,2975401.1631011963,24317937.85095215,29357009.887695312
0.06,-59593852.99682617,-52261054.99267578,-12210928.916931152,-33982757.568359375,3034678.4591674805,-61037239.07470703,-17703918.45703125,-17542097.091674805,-17139163.970947266,-1934652.9245376587,25459329.60510254,17851520.538330078,44596118.92700195,71992553.7109375,-43853710.17456055,-17235763.549804688,-16892625.80871582,-15211222.648620605,1173208.1174850464,12977270.126342773,18349065.78063965,56707748.41308594,75607925.41503906,-21746822.357177734,-20044519.424438477,-16745624.542236328,-17281581.87866211,-2230504.274368286,23640367.50793457,19378334.045410156,36371604.919433594,45936672.21069336,-9198175.430297852,-9541566.848754883,-13900761.604309082,-2956050.157546997,-2630771.3985443115,8388793.9453125,18945678.7109375,28085897.44567871,43863925.93383789,-8987621.307373047,-8655838.012695312,-10607331.275939941,-7299330.234527588,6968751.430511475,9639594.078063965,17418674.46899414,17512428.283691406,29290904.998779297,-8474765.77758789,-9723300.93383789,-10669204.711914062,7021498.203277588,14739667.892456055,17887020.111083984,18451993.942260742,7109745.025634766,-9213813.781738281,7424355.506896973,26686141.967773438,30410758.97216797
0.065,-64934463.50097656,-66362037.658691406,-19390813.82751465,-36482379.91333008,3634009.1228485107,-62872577.66723633,-18599008.560180664,-18379339.21813965,-17851327.896118164,-2754638.433456421,27153285.98022461,20234682.083129883,48225551.60522461,77262351.9897461,-40751995.08666992,-18093019.485473633,-17752746.58203125,-15945261.001586914,1650845.4084396362,15344764.709472656,20475370.407104492,64360687.255859375,81132675.17089844,-19782030.10559082,-19009229.66003418,-17604963.302612305,-18111259.46044922,-1531520.6050872803,25794425.96435547,22680852.89001465,42802555.084228516,50315780.63964844,-5948329.925537109,-6296485.424041748,-13002688.40789795,-914932.6682090759,-1160768.985748291,9530396.461486816,22459682.46459961,33335350.036621094,50873500.82397461,-5667653.0838012695,-5352678.7757873535,-7373852.252960205,-5470907.211303711,10407488.822937012,12700657.844543457,21487449.645996094,21593320.846557617,34646827.697753906,-5183044.910430908,-6435836.7919921875,-7186738.967895508,10387057.304382324,15991197.58605957,21201190.948486328,21908657.07397461,10528896.33178711,-5868665.2183532715,10885116.577148438,30137710.571289062,33380542.755126953
0.07,-46123836.517333984,-33949203.49121094,2172839.641571045,-28446695.32775879,10486409.187316895,-57352077.48413086,-16773666.381835938,-16287687.301635742,-15800424.575805664,2266096.1151123047,28520015.716552734,23539993.286132812,49368144.98901367,77762382.50732422,-36877395.62988281,-16173059.463500977,-15822257.995605469,-13984767.91381836,3767354.2499542236,15969253.540039062,22768133.16345215,65850082.39746094,80019996.6430664,-20098546.981811523,-19418289.184570312,-15743422.508239746,-16263881.68334961,-2305788.278579712,25759275.436401367,22539480.209350586,40620517.73071289,48908538.818359375,-10316734.313964844,-10550750.732421875,-13565553.665161133,-1539505.6009292603,-3032766.342163086,8757726.669311523,22207530.975341797,34052150.72631836,49162147.521972656,-10028576.850891113,-9543073.654174805,-11699543.952941895,-8184867.858886719,5546541.213989258,11184411.04888916,19075019.83642578,19787904.739379883,30033880.23376465,-9415991.78314209,-10781473.159790039,-11627603.530883789,5661982.536315918,12401365.280151367,16986339.569091797,17669261.932373047,5693671.226501465,-10174832.344055176,6133030.414581299,27582054.138183594,30111452.102661133
0.075,-22804044.723510742,11326818.466186523,31077352.52380371,-17896310.806274414,17650354.385375977,-52173522.94921875,-13456533.432006836,-12729294.776916504,-12287972.450256348,10404220.581054688,30727689.743041992,25696062.088012695,47504600.524902344,73460731.50634766,-37034599.30419922,-12749556.541442871,-12370282.173156738,-10579498.291015625,7506896.495819092,16547267.91381836,24289237.97607422,61581268.310546875,73733512.87841797,-23508171.08154297,-21354394.912719727,-12372184.753417969,-12867510.795593262,-2967105.8654785156,24128625.869750977,19273305.892944336,32870403.289794922,43117309.5703125,-19172424.31640625,-19333759.307861328,-15425192.832946777,-3907285.451889038,-6282689.571380615,7079746.723175049,18428285.598754883,29768892.288208008,40681312.561035156,-19045692.443847656,-18342969.89440918,-20550155.639648438,-13296045.303344727,-4468649.864196777,6723374.366760254,12249548.91204834,13572902.67944336,18846010.208129883,-18254714.965820312,-19698459.62524414,-20839076.99584961,-4242835.521697998,6556497.097015381,7911688.327789307,8430508.613586426,-4304971.694946289,-19180219.650268555,-3796007.8716278076,20217588.424682617,19763975.143432617
0.08,-16607231.140136719,24545450.21057129,39766208.64868164,-14953818.321228027,19050449.37133789,-53265323.638916016,-11476001.739501953,-10734389.305114746,-10244776.725769043,14868513.107299805,33528076.171875,25555465.698242188,45437732.6965332,69485099.79248047,-40604335.78491211,-10745795.249938965,-10320797.92022705,-8614895.820617676,10202507.019042969,18031980.514526367,24718799.591064453,58517910.00366211,70310386.65771484,-26919919.967651367,-22895904.541015625,-10287665.367126465,-10703024.864196777,-2498761.1770629883,23192846.298217773,16751729.965209961,28813629.150390625,39584945.67871094,-23665542.602539062,-23802986.14501953,-16219095.230102539,-4895328.044891357,-7415240.287780762,6425848.484039307,15660313.606262207,26537683.486938477,36326881.408691406,-23619213.104248047,-22938322.067260742,-25046838.760375977,-15043107.032775879,-9887394.905090332,4723439.693450928,9078711.50970459,10372812.271118164,13594248.77166748,-22818841.9342041,-24228288.650512695,-25576564.78881836,-9791732.788085938,4437840.461730957,3306452.0359039307,3705863.9526367188,-9783814.430236816,-23829181.671142578,-9234990.119934082,15765066.146850586,11805571.556091309
0.085,-21407241.821289062,12448443.412780762,32689949.03564453,-18458877.563476562,15808965.682983398,-55989234.924316406,-11788317.680358887,-11184618.949890137,-10742387.771606445,12903187.75177002,33980365.75317383,23665025.71105957,44909599.30419922,69457870.48339844,-41566543.57910156,-11158435.821533203,-10729730.606079102,-9096949.577331543,9068974.494934082,18005941.39099121,23993013.381958008,60474235.53466797,72814704.89501953,-26070890.426635742,-21586921.69189453,-10540665.626525879,-10956086.158752441,-2408262.4912261963,23406839.37072754,16722202.30102539,31416759.490966797,40880237.5793457,-20719907.760620117,-20773586.27319336,-14378701.210021973,-3781770.706176758,-6422184.944152832,6800029.754638672,16482612.609863281,28659391.403198242,40509941.10107422,-20502950.66833496,-20101196.2890625,-22066402.435302734,-12185279.846191406,-7989796.6384887695,6843252.182006836,12432287.216186523,12995785.7131958,18095563.888549805,-19819648.74267578,-21247812.271118164,-22580566.40625,-8142295.837402344,6943372.2496032715,5654890.060424805,6070811.748504639,-7989381.313323975,-20865953.44543457,-7393821.716308594,17004467.010498047,12199865.341186523
0.09,-17053222.65625,15959471.702575684,35187397.00317383,-19823593.139648438,13741437.911987305,-53435955.04760742,-12902184.48638916,-12331051.82647705,-12192135.81085205,8819111.824035645,30313610.076904297,21773126.60217285,44917186.73706055,71901519.77539062,-37347602.84423828,-12390614.50958252,-12068784.713745117,-10455596.923828125,5030480.861663818,14350707.054138184,22446401.596069336,64104270.935058594,75489479.0649414,-21343673.706054688,-17678625.106811523,-11746653.55682373,-12328505.516052246,-4382071.018218994,23234008.7890625,16756868.362426758,34705993.65234375,42628486.63330078,-16494878.768920898,-16442449.569702148,-11395370.483398438,-3129652.0233154297,-6191838.264465332,6646900.653839111,18271697.998046875,33015357.971191406,45538536.071777344,-16097978.591918945,-15931701.66015625,-17847463.607788086,-9501643.180847168,-5718820.571899414,9280390.739440918,16580715.17944336,15908027.648925781,22794355.392456055,-15443076.133728027,-17028545.379638672,-18278072.357177734,-5910126.209259033,9106690.406799316,7838027.000427246,8316661.834716797,-5734561.920166016,-16613046.646118164,-5141629.219055176,18347951.889038086,14696568.489074707
0.095,-2524185.1806640625,41512329.1015625,50949527.740478516,-16118247.985839844,15077646.255493164,-46961402.893066406,-12761650.085449219,-12056906.700134277,-12241838.455200195,8467602.729797363,26107154.846191406,21324018.478393555,43962944.03076172,72904029.8461914,-32294185.638427734,-12258769.035339355,-12126165.390014648,-10474557.876586914,2555138.8263702393,10026498.794555664,21121221.5423584,64756340.02685547,72850601.19628906,-17467168.8079834,-14068924.903869629,-11796885.49041748,-12573714.256286621,-7072858.810424805,22352668.76220703,14417480.46875,33455387.115478516,40241359.71069336,-17037761.688232422,-17039350.509643555,-9932234.764099121,-4588165.283203125,-7669691.08581543,5359148.979187012,17112182.6171875,33482448.57788086,43171073.91357422,-16735582.35168457,-16546831.130981445,-18526834.48791504,-10602972.030639648,-8422115.325927734,8756005.28717041,15579510.688781738,13212812.423706055,19266286.849975586,-16033472.061157227,-17689792.63305664,-18994375.228881836,-8372162.818908691,7147428.035736084,4262776.3748168945,4725801.944732666,-8324419.021606445,-17342460.63232422,-7909159.183502197,14737874.984741211,10782550.811767578
0.1,5127517.7001953125,53705940.24658203,57786968.23120117,-12053583.145141602,16725454.330444336,-42737449.645996094,-10733671.188354492,-9989486.694335938,-10145750.045776367,12581521.034240723,26765289.306640625,22157596.588134766,42067611.69433594,71047416.68701172,-30831090.927124023,-10176604.270935059,-10170067.78717041,-8465636.253356934,4582386.016845703,10248187.065124512,21028778.076171875,62452026.3671875,67615333.5571289,-17307687.759399414,-12900271.41571045,-9920346.2600708,-10720766.067504883,-7644895.553588867,22379560.470581055,10837908.744812012,29907703.399658203,34831058.502197266,-20652591.705322266,-20898120.880126953,-10558426.856994629,-6400511.264801025,-8791658.401489258,3864128.351211548,13018854.141235352,29012174.606323242,35441864.013671875,-20579967.498779297,-20241949.0814209,-22312652.587890625,-13205516.815185547,-12870755.195617676,6713409.900665283,10568146.705627441,6329668.045043945,11115339.279174805,-19971483.23059082,-21445854.18701172,-22879093.170166016,-12618809.700012207,2796696.424484253,-1871028.184890747,-1514097.5713729858,-12685435.29510498,-21257255.55419922,-12559729.57611084,8634465.217590332,2422382.8315734863
0.105,144174.85892772675,36548557.28149414,46089744.567871094,-11156786.918640137,16008373.260498047,-42490882.873535156,-8397211.074829102,-7909355.163574219,-7707940.578460693,16697345.733642578,31743339.53857422,22687385.55908203,40183609.00878906,68555969.23828125,-31885437.01171875,-7875230.312347412,-7798373.222351074,-6087559.700012207,8671181.678771973,14995475.769042969,21887260.43701172,60420578.00292969,66205978.39355469,-18909265.518188477,-13740753.173828125,-7648760.795593262,-8311684.608459473,-6122250.556945801,23935688.018798828,8729507.446289062,28946737.28942871,30886976.24206543,-22306711.196899414,-22749267.578125,-11660191.535949707,-6369924.068450928,-8335602.760314941,2997349.0238189697,9615016.93725586,24654037.475585938,30366964.34020996,-22244468.688964844,-21864849.090576172,-23970046.997070312,-13339216.232299805,-13866419.792175293,6191182.1365356445,6720417.499542236,1428804.5167922974,6878754.138946533,-21869421.005249023,-23156740.188598633,-24523464.20288086,-13713827.133178711,165336.31086349487,-4588040.351867676,-4334947.109222412,-13790563.583374023,-23014179.229736328,-13774536.1328125,5694397.926330566,-1366145.6108093262
0.11,-5887290.000915527,16736818.313598633,33116466.522216797,-12518296.241760254,13589432.716369629,-43794300.0793457,-8325470.924377441,-8178228.378295898,-7674263.477325439,16656541.82434082,34599510.192871094,21568878.173828125,38853279.11376953,67577316.28417969,-32489959.716796875,-7902411.937713623,-7612564.563751221,-5950725.078582764,9955167.770385742,18459245.681762695,22310832.977294922,60355594.635009766,69646667.48046875,-19445674.896240234,-15327036.85760498,-7560002.80380249,-8124134.063720703,-5436403.751373291,25468107.223510742,8655361.17553711,30936353.68347168,30648639.678955078,-21582210.540771484,-21961362.838745117,-12176677.703857422,-5151798.725128174,-7690095.901489258,2699355.125427246,9390716.552734375,24624774.932861328,31112417.221069336,-21295097.35107422,-20992315.2923584,-23051399.23095703,-11146306.991577148,-12304827.690124512,7235798.358917236,6135488.986968994,1597779.0355682373,8313044.548034668,-21017452.239990234,-22414556.5032959,-23472919.464111328,-12370510.10131836,790013.2536888123,-3487382.8887939453,-3248315.5727386475,-12474872.589111328,-22093210.220336914,-12237713.813781738,6862071.990966797,2053737.1635437012
0.115,-6481109.142303467,16527366.638183594,32939254.760742188,-15197963.71459961,10654160.499572754,-45843051.91040039,-11148064.613342285,-11042185.78338623,-10491224.28894043,12975997.924804688,31779132.843017578,19078531.26525879,37823703.76586914,66840370.178222656,-32765838.623046875,-10663039.207458496,-10250781.059265137,-8633348.46496582,7392441.272735596,16868942.260742188,21459020.614624023,60996280.670166016,72743110.65673828,-19196260.452270508,-17281349.182128906,-10232999.801635742,-10851371.765136719,-6902143.478393555,25707675.93383789,8810163.497924805,32183650.970458984,32261909.48486328,-22270359.03930664,-22414638.51928711,-12804084.777832031,-4778987.407684326,-7976107.120513916,2706492.1855926514,10813679.695129395,26894243.240356445,33396060.943603516,-21858551.025390625,-21604942.321777344,-23546737.670898438,-9825839.042663574,-12831552.505493164,7596332.07321167,6511542.320251465,4024247.169494629,10175062.17956543,-21431386.947631836,-23068834.30480957,-23899009.704589844,-12884480.476379395,2742615.6997680664,-2978573.5607147217,-2668253.6602020264,-13157402.038574219,-22507116.317749023,-12617243.766784668,7844050.884246826,5225094.318389893
0.12,-6022701.263427734,25476696.014404297,38657905.57861328,-18028621.673583984,7825649.738311768,-47682575.22583008,-13886212.348937988,-13497438.430786133,-12988062.858581543,9976011.276245117,27047258.377075195,16615299.224853516,36244182.58666992,63617977.142333984,-33439071.655273438,-13114130.020141602,-12834415.435791016,-11213348.388671875,4826146.125793457,13038366.317749023,19897558.212280273,60028556.82373047,70769355.77392578,-19614816.665649414,-19071931.838989258,-12716614.723205566,-13447649.002075195,-8488137.245178223,25121202.46887207,7509747.9820251465,30013551.712036133,31963378.90625,-25970817.56591797,-25966398.239135742,-14092510.223388672,-5450809.955596924,-8261491.775512695,2773427.4864196777,10476341.247558594,26340421.676635742,31753026.962280273,-25715221.405029297,-25444072.723388672,-27225028.99169922,-10750512.12310791,-16918401.71813965,6371139.049530029,5262451.171875,4112074.375152588,7945388.317108154,-25123134.61303711,-26747129.440307617,-27687778.47290039,-16739618.301391602,3109359.2643737793,-6112463.95111084,-5735262.393951416,-17213439.94140625,-26126678.466796875,-16632181.167602539,5000429.153442383,839601.9339561462
0.125,-971219.7780609131,33547016.143798828,43497798.919677734,-15492007.2555542,7138804.4357299805,-43300746.91772461,-12613543.510437012,-11991347.312927246,-11479239.463806152,11077203.750610352,25103353.50036621,14797801.01776123,32955810.546875,57693412.78076172,-31381763.458251953,-11617630.958557129,-11613046.646118164,-9990996.360778809,5454500.675201416,11249431.610107422,18453451.15661621,55962661.74316406,63540851.59301758,-19351106.643676758,-18783119.201660156,-11336726.188659668,-12108079.91027832,-8513050.079345703,24177629.470825195,4690016.746520996,24834106.4453125,27046266.555786133,-29655296.325683594,-29670335.76965332,-14734989.166259766,-5758324.146270752,-7927999.973297119,2214525.2227783203,7265844.821929932,21911544.799804688,25318536.75842285,-29622507.095336914,-29353847.50366211,-30996026.99279785,-12375235.557556152,-21909187.31689453,4728574.275970459,2390219.6884155273,598763.7042999268,1930280.6854248047,-29048028.94592285,-30449371.337890625,-31650630.950927734,-21617120.74279785,499944.92530822754,-11946232.795715332,-11566496.849060059,-22116579.055786133,-29983264.923095703,-21738582.611083984,-744825.6611824036,-8750205.993652344
0.13,20496774.673461914,51822002.41088867,53856906.89086914,-2620880.126953125,10190559.387207031,-27349025.72631836,-7083772.1824646,-6535219.192504883,-6118795.871734619,15111965.17944336,24926006.317138672,12560489.654541016,27281450.271606445,50729999.54223633,-22669593.811035156,-6215757.846832275,-6377609.729766846,-4833741.188049316,7664999.961853027,11118814.468383789,16886417.388916016,49091335.29663086,53390911.10229492,-15165131.568908691,-14792798.042297363,-6072807.788848877,-6836509.227752686,-8275619.5068359375,22332612.991333008,1451210.9756469727,18628866.19567871,17884042.739868164,-29476913.452148438,-29517761.23046875,-12970248.222351074,-5129580.020904541,-8263604.164123535,470899.46269989014,3482246.3989257812,17718994.140625,17808362.96081543,-29461364.74609375,-29237003.326416016,-30844839.096069336,-13110532.760620117,-25020805.35888672,3719006.5383911133,-460361.68932914734,-3725454.092025757,-4426660.060882568,-28973386.764526367,-30351268.768310547,-31618686.67602539,-24857168.197631836,-3989436.8648529053,-17481737.13684082,-17103378.295898438,-25215236.66381836,-30078062.057495117,-24982715.606689453,-5632495.403289795,-14803413.391113281
0.135,51581130.98144531,77811157.2265625,67421951.29394531,14009037.971496582,12999967.575073242,-6422092.437744141,-1538538.8135910034,-1203607.0823669434,-1077253.5800933838,17378526.68762207,22736946.10595703,8349081.039428711,19663072.58605957,41837429.04663086,-9789704.322814941,-1015993.9527511597,-1171562.0756149292,242647.09651470184,7807686.328887939,9478892.32635498,14247140.884399414,41465042.11425781,42016002.6550293,-6973718.643188477,-8543363.571166992,-982493.1025505066,-1813826.084136963,-9341132.164001465,19703588.485717773,-1164903.998374939,13230825.424194336,7780770.778656006,-24935756.68334961,-24879894.256591797,-9305871.963500977,-4173799.0379333496,-9915769.577026367,-1715817.3322677612,1682040.3337478638,16525386.810302734,13279234.886169434,-24764919.28100586,-24552404.403686523,-26245048.52294922,-12838026.04675293,-25223503.11279297,3358816.8621063232,-2043532.133102417,-5735268.115997314,-7789193.153381348,-24267171.85974121,-25910634.994506836,-27062738.4185791,-25173301.696777344,-7639430.046081543,-20222064.971923828,-19769416.80908203,-25443214.416503906,-25711862.564086914,-25172725.677490234,-7025795.936584473,-13017602.920532227
0.14,62721923.828125,77398674.01123047,62451038.3605957,19153182.983398438,8014086.723327637,3879657.983779907,-236172.4227666855,14921.42304778099,-119721.80008888245,14641069.412231445,18461830.139160156,1900406.002998352,11036836.624145508,27444976.806640625,-1296929.8362731934,104944.47499513626,-39895.53079009056,1305125.35572052,5291074.275970459,5935274.124145508,10240231.51397705,35097026.82495117,30053728.103637695,236633.71801376343,-4077387.3329162598,114765.89739322662,-883463.5615348816,-10623426.43737793,17728298.18725586,-3275779.2472839355,9233421.325683594,-88445.97637653351,-19157915.115356445,-18976907.73010254,-6563933.372497559,-3146695.375442505,-10930349.349975586,-2842068.1953430176,1348212.718963623,15362245.559692383,11918768.882751465,-18901021.95739746,-18641426.08642578,-20451316.833496094,-11758082.389831543,-22455665.588378906,3683971.643447876,-2401976.1085510254,-5703869.342803955,-7738863.945007324,-18351253.509521484,-20184337.615966797,-21319225.311279297,-22318229.67529297,-8380295.753479004,-19842805.862426758,-19319410.32409668,-22646924.97253418,-19912128.448486328,-22322257.99560547,-5190101.146697998,-7789891.719818115
0.145,40660217.28515625,35453907.01293945,30608774.185180664,7808179.85534668,-5503039.836883545,-3001517.2958374023,-3053805.8280944824,-2776774.6448516846,-2902425.2891540527,8963723.182678223,15123400.688171387,-5273426.532745361,2012562.2749328613,7758518.218994141,-2570060.0147247314,-2631358.861923218,-2858049.8695373535,-1485251.3074874878,2767775.774002075,3004264.1162872314,5810326.099395752,29889921.188354492,18211309.4329834,1158322.2150802612,-4022072.3152160645,-2543097.496032715,-3678940.0577545166,-10528241.157531738,16944921.493530273,-6219858.646392822,5443111.419677734,-5735503.673553467,-16137556.076049805,-15966091.15600586,-6748311.996459961,-1919471.7407226562,-9637463.569641113,-2623927.116394043,-190791.11516475677,10260822.296142578,10056794.166564941,-15983496.66595459,-15679724.69329834,-17528411.865234375,-9864667.892456055,-17847425.46081543,4944300.651550293,-2633240.9381866455,-6656521.320343018,-7597629.070281982,-15429506.301879883,-17182376.861572266,-18428165.435791016,-17601922.9888916,-6523237.228393555,-18693479.537963867,-18277765.27404785,-17960681.915283203,-16735622.40600586,-17684358.596801758,-2063595.0565338135,-5310050.964355469
0.15,12900056.838989258,-5337762.832641602,1105936.7656707764,-6282174.110412598,-17579788.208007812,-15976695.06072998,-6303910.255432129,-6081420.8984375,-6035521.984100342,5827354.907989502,13747738.8381958,-10676546.096801758,-6189139.842987061,-9336626.052856445,-9813063.621520996,-5808664.321899414,-6069619.655609131,-4664650.917053223,2189547.7771759033,2019357.2044372559,2691231.7276000977,24811738.967895508,8236325.263977051,-3869961.738586426,-6907028.1982421875,-5617702.960968018,-6730815.410614014,-10095553.398132324,16039491.653442383,-10636663.436889648,700838.5062217712,-10845841.407775879,-17555604.934692383,-17513084.411621094,-8829398.155212402,-1234647.9892730713,-7804171.562194824,-2305772.7813720703,-3641243.4577941895,3396293.878555298,5297957.420349121,-17584873.19946289,-17274730.682373047,-19052518.844604492,-8008806.228637695,-14305376.052856445,6516813.7550354,-3713819.5037841797,-9898711.204528809,-10565736.770629883,-16980514.526367188,-18644857.40661621,-19870037.078857422,-14148796.081542969,-4058548.927307129,-19539058.685302734,-19390975.952148438,-14342639.923095703,-18028928.756713867,-14106364.250183105,704374.8497962952,-5743154.525756836
0.155,12675962.448120117,3538394.2127227783,5851142.406463623,-8029748.916625977,-19004343.032836914,-20706995.010375977,-7283264.16015625,-7201292.037963867,-7068424.224853516,7965310.573577881,12620837.211608887,-12517267.227172852,-11112689.971923828,-15119580.268859863,-15313617.706298828,-6894587.03994751,-7020604.610443115,-5661388.874053955,2839378.833770752,1986470.103263855,2184989.9291992188,20816860.19897461,2533348.798751831,-9311776.161193848,-9343441.9631958,-6671142.578125,-7628970.623016357,-11250446.319580078,14338448.524475098,-14733810.424804688,-3521606.683731079,-14894333.839416504,-21652172.088623047,-21694700.241088867,-10435229.301452637,-2215052.604675293,-8290600.776672363,-2698577.1656036377,-6397944.450378418,1168097.734451294,342157.5427055359,-21784605.026245117,-21472679.138183594,-23136056.900024414,-7838912.010192871,-14610545.15838623,6956432.819366455,-5292968.273162842,-12880783.081054688,-14972515.106201172,-21020284.65270996,-22773159.02709961,-23793178.55834961,-14626860.618591309,-2761016.607284546,-22256965.63720703,-22256244.659423828,-14578081.130981445,-22150045.39489746,-14272401.809692383,2025889.1582489014,-5322061.061859131
0.16,33020072.93701172,44952259.0637207,32868942.260742188,-937663.1379127502,-13632480.62133789,-17324575.424194336,-7026964.18762207,-6999416.828155518,-6835198.879241943,11808910.369873047,10564574.241638184,-11556382.179260254,-11390603.065490723,-10269954.681396484,-16543937.683105469,-6726772.785186768,-6701754.570007324,-5432389.736175537,3049658.77532959,1936964.2734527588,3695424.795150757,20227361.67907715,2028120.2793121338,-11009427.070617676,-10214828.491210938,-6526641.368865967,-7367156.505584717,-13182662.010192871,13293435.096740723,-15954033.851623535,-4320627.689361572,-15444337.844848633,-25272876.739501953,-25293157.57751465,-11001977.920532227,-4526873.588562012,-10647600.173950195,-3042500.9727478027,-6126996.040344238,5244641.7808532715,-513475.06046295166,-25394706.72607422,-25072097.778320312,-26672245.025634766,-9816529.273986816,-18550371.170043945,5750912.666320801,-5952230.930328369,-12594294.548034668,-16155664.443969727,-24558649.06311035,-26331975.93688965,-27258785.247802734,-18575567.2454834,-3245283.365249634,-23977603.912353516,-23812219.619750977,-18458459.854125977,-25914896.01135254,-18071981.43005371,864963.4718894958,-3960883.378982544
0.165,39828010.55908203,59780979.15649414,42500514.98413086,-546916.9020652771,-13404992.10357666,-16877500.534057617,-8398768.424987793,-8297542.572021484,-7955148.696899414,11282017.707824707,7709496.49810791,-11145954.132080078,-9417186.737060547,-4391375.0648498535,-17074052.810668945,-7952767.848968506,-7982097.148895264,-6778097.629547119,2052249.6700286865,1727504.4918060303,4611621.379852295,22708005.905151367,4426014.9002075195,-10349861.145019531,-11181110.382080078,-7742740.154266357,-8638014.793395996,-13454693.794250488,13897979.736328125,-14488780.975341797,-1723422.646522522,-12533483.505249023,-26839666.36657715,-26837316.513061523,-11859817.504882812,-6460780.620574951,-11797039.031982422,-2363704.4429779053,-4044498.920440674,10023000.717163086,2446738.2431030273,-26911457.061767578,-26607416.1529541,-28239700.317382812,-12220008.850097656,-23079244.61364746,4167460.9184265137,-4981669.4259643555,-9569207.191467285,-13219366.073608398,-26277048.110961914,-27797355.65185547,-28914239.88342285,-22957189.559936523,-5074151.039123535,-22970911.026000977,-22523155.212402344,-22998413.0859375,-27610466.00341797,-22629613.876342773,-2775235.891342163,-5721585.750579834
0.17,23937461.853027344,33656738.28125,24905660.62927246,-10869721.412658691,-21970180.51147461,-23181673.049926758,-11932661.056518555,-11777436.256408691,-11172728.538513184,5383505.344390869,4054799.0798950195,-13851041.793823242,-9179407.119750977,-4439090.251922607,-19346229.553222656,-11262280.464172363,-11465283.393859863,-10309506.4163208,168799.5195388794,907231.9865226746,2911872.148513794,24473697.662353516,6024822.235107422,-10747908.592224121,-13049973.487854004,-10995682.716369629,-12063618.659973145,-12127911.567687988,14458204.26940918,-13328063.96484375,574547.1715927124,-9768589.01977539,-26935031.89086914,-26982995.986938477,-13447058.67767334,-7117207.050323486,-10766174.31640625,-1086993.5750961304,-3088965.654373169,10488855.361938477,4836082.458496094,-26965238.571166992,-26720140.45715332,-28429765.701293945,-13074743.270874023,-25610832.21435547,3668467.5216674805,-3546049.3564605713,-6877146.7208862305,-10426546.096801758,-26616283.416748047,-27878005.981445312,-29236415.86303711,-25388031.005859375,-7150433.06350708,-21076318.740844727,-20569923.400878906,-25625698.08959961,-27719648.361206055,-25304557.80029297,-6693868.637084961,-11538632.3928833
0.175,11410239.219665527,10934385.299682617,9568327.903747559,-18764289.85595703,-29975093.841552734,-27467565.536499023,-14269107.818603516,-14157469.749450684,-13525401.11541748,444692.7309036255,889099.5383262634,-17629467.010498047,-10866927.146911621,-7256852.626800537,-20393497.467041016,-13625792.503356934,-13815546.035766602,-12720291.137695312,-1126982.6889038086,-356450.8557319641,181272.2682952881,23320367.81311035,6264739.990234375,-11804214.477539062,-13532826.42364502,-13341989.517211914,-14501457.214355469,-11503037.452697754,13255010.604858398,-14006800.651550293,409740.95463752747,-9352007.865905762,-26184963.22631836,-26268562.31689453,-14133839.60723877,-7016208.648681641,-9744436.264038086,-445137.29214668274,-3797506.332397461,8623483.657836914,4898630.142211914,-26156740.188598633,-25953935.623168945,-27682151.794433594,-12418225.288391113,-25909652.709960938,4148154.7355651855,-3395829.916000366,-5910401.821136475,-10427851.676940918,-25833251.953125,-27159408.569335938,-28560865.40222168,-25694074.630737305,-8341240.882873535,-20922843.93310547,-20597049.713134766,-25993732.452392578,-26892078.399658203,-25653209.686279297,-7890033.721923828,-15879470.825195312
0.18,19833200.454711914,19305532.455444336,15519876.480102539,-13600912.094116211,-28365533.82873535,-22470901.489257812,-11659460.067749023,-11582678.79486084,-11247273.445129395,3192517.5189971924,2137470.9606170654,-17478984.832763672,-10492781.639099121,-5798094.272613525,-16583831.787109375,-11313856.12487793,-11243642.807006836,-10175889.015197754,417820.5132484436,283736.9441986084,349970.13211250305,21879074.096679688,8414652.824401855,-9908811.569213867,-10219876.289367676,-11092286.109924316,-12129679.679870605,-11824372.291564941,11875526.428222656,-14513068.199157715,239687.80040740967,-8929549.217224121,-24247951.50756836,-24273777.00805664,-12603651.04675293,-6400891.304016113,-10104104.042053223,-873468.3990478516,-4180531.0249328613,8932068.824768066,5696233.749389648,-24140823.364257812,-23902219.772338867,-25556314.46838379,-11794210.433959961,-24931074.142456055,4420048.713684082,-4717389.5835876465,-5400883.674621582,-10441168.785095215,-23587360.382080078,-25139095.306396484,-26476039.88647461,-24724670.41015625,-8356800.079345703,-22147235.870361328,-21919258.11767578,-24964916.229248047,-24896774.291992188,-24604356.76574707,-5795463.085174561,-13541138.648986816
0.185,31849090.576171875,29213720.321655273,23665758.13293457,-2520509.0045928955,-20584026.336669922,-13900321.960449219,-5162395.477294922,-5036553.382873535,-4995476.722717285,12132648.468017578,9639348.983764648,-12218738.555908203,-6268235.683441162,344889.93883132935,-10110772.132873535,-5061918.258666992,-4787186.145782471,-3655155.4203033447,5271148.204803467,4740494.728088379,4430343.151092529,23265302.658081055,13976618.766784668,-4519773.483276367,-4843089.580535889,-4890074.253082275,-5684043.407440186,-10735366.821289062,13042698.860168457,-12996875.762939453,2555677.890777588,-5919445.514678955,-21454984.664916992,-21432901.38244629,-10166922.569274902,-4702929.496765137,-10290154.457092285,-1791249.394416809,-3419232.8453063965,10835960.388183594,9160941.123962402,-21323965.072631836,-20974058.151245117,-22563133.239746094,-11981085.777282715,-23383745.193481445,4000338.077545166,-6040058.135986328,-4492374.420166016,-7857896.80480957,-20613674.16381836,-22177175.521850586,-23521066.665649414,-23161825.18005371,-7901324.74899292,-22283082.962036133,-21890026.092529297,-23340278.62548828,-22145883.560180664,-23063375.47302246,-3053282.9761505127,-7027694.7021484375
0.19,25261009.216308594,9164913.177490234,12437490.463256836,210474.20799732208,-17200122.833251953,-12585035.32409668,-800267.5175666809,-646535.6349945068,-575413.0482673645,18300405.502319336,17665025.71105957,-7459854.1259765625,-2404970.169067383,4740533.828735352,-7458490.84854126,-661256.6113471985,-465996.5932369232,772474.3485450745,9847050.666809082,10129270.553588867,8234350.204467773,25584291.458129883,18690095.901489258,-376217.9911136627,-2281850.3379821777,-417579.5614719391,-1083142.876625061,-7891462.326049805,15918293.952941895,-11515501.976013184,4730110.645294189,-2628782.033920288,-19675975.799560547,-19750856.399536133,-9287546.157836914,-2296057.2242736816,-8865446.090698242,-2538527.9655456543,-3269459.9628448486,10033802.98614502,11928274.154663086,-19614007.9498291,-19146923.065185547,-20790840.14892578,-12191152.572631836,-21720975.875854492,3637670.7553863525,-6245158.1954956055,-4385072.231292725,-5558673.38180542,-18969577.78930664,-20384595.87097168,-21717483.520507812,-21536424.63684082,-7514421.463012695,-20588628.7689209,-19998468.39904785,-21733068.466186523,-20465551.376342773,-21573719.024658203,-2171940.326690674,-3253221.273422241
0.195,8635382.652282715,-18567428.588867188,-4940710.067749023,-7265655.517578125,-21868316.650390625,-19675600.051879883,-3062748.670578003,-3012575.149536133,-2661583.185195923,15556423.18725586,17507328.033447266,-9349221.229553223,-4045701.026916504,3034426.9275665283,-11415096.282958984,-2711154.6993255615,-2717108.964920044,-1454330.4443359375,9339587.211608887,10482979.774475098,7119846.820831299,24037382.125854492,16883171.08154297,-1691195.2495574951,-4816470.623016357,-2314806.6997528076,-3099292.993545532,-6716429.233551025,16616439.819335938,-13525702.476501465,2018832.4451446533,-3769357.919692993,-20265613.555908203,-20502334.594726562,-10372893.333435059,-1087062.8356933594,-7305103.778839111,-2851544.8570251465,-5164513.58795166,5844632.625579834,9786859.512329102,-20254610.061645508,-19756664.276123047,-21519929.885864258,-11618075.370788574,-20513490.676879883,4108922.9583740234,-5977011.680603027,-6259643.077850342,-7762946.128845215,-19705766.677856445,-21196004.86755371,-22325521.46911621,-20394853.591918945,-6886978.626251221,-19103475.57067871,-18591455.459594727,-20686994.552612305,-21083135.6048584,-20527490.615844727,-2642191.6484832764,-4564262.390136719
0.2,6421040.5349731445,-13216588.020324707,-2127638.578414917,-14026660.919189453,-28228912.353515625,-26255262.37487793,-9294148.445129395,-9389441.49017334,-8820425.033569336,7848125.93460083,8816295.623779297,-16550918.579101562,-10172127.723693848,-2059374.3324279785,-17548149.10888672,-8773201.942443848,-8829487.800598145,-7663840.293884277,3844076.8718719482,4335850.715637207,1999347.0907211304,18001874.923706055,9110709.190368652,-6414092.063903809,-9161118.507385254,-8317252.159118652,-9348461.151123047,-9453276.634216309,13749749.183654785,-18471279.14428711,-5043138.50402832,-9463344.57397461,-21996381.759643555,-22249700.54626465,-11436140.060424805,-2040983.2000732422,-7769662.857055664,-2585232.734680176,-7750922.679901123,2589753.3893585205,4023227.2148132324,-21882501.60217285,-21490043.64013672,-23263435.36376953,-10781769.752502441,-19996074.676513672,5237244.129180908,-6513141.632080078,-9084257.125854492,-13035527.229309082,-21313304.901123047,-23133512.496948242,-23989332.19909668,-19861515.045166016,-5696793.556213379,-19493560.791015625,-19269975.662231445,-20252269.744873047,-22713150.024414062,-19978734.970092773,-2228370.9049224854,-6740857.6011657715
0.205,19583913.803100586,16928125.381469727,16518281.936645508,-13338161.46850586,-30150823.59313965,-26545108.795166016,-12816917.419433594,-12921027.183532715,-12345986.366271973,3884915.1134490967,1217810.869216919,-21707086.56311035,-14757905.960083008,-5374416.828155518,-20018739.700317383,-12207914.352416992,-12184891.700744629,-11153598.78540039,-788942.9330825806,-2395579.8149108887,-1737817.406654358,12522928.237915039,2223441.6007995605,-8929222.106933594,-10498856.544494629,-11887728.691101074,-13049717.903137207,-13165024.757385254,10618542.671203613,-21790170.669555664,-10129349.708557129,-14158595.085144043,-22336675.6439209,-22444095.611572266,-10937660.217285156,-3397027.015686035,-9609069.82421875,-1673383.8319778442,-8594509.12475586,3363698.720932007,187925.86028575897,-22034843.44482422,-21831653.594970703,-23454753.875732422,-10741832.733154297,-19599027.633666992,6317697.048187256,-7627690.315246582,-10499846.458435059,-15736389.16015625,-21462615.966796875,-23427999.49645996,-24251354.217529297,-19408826.82800293,-4330255.98526001,-20400951.385498047,-20312637.329101562,-19808179.85534668,-22922389.98413086,-19447870.2545166,-45089.4795358181,-5586679.458618164
0.21,24820631.02722168,25268442.153930664,21783239.364624023,-10880217.552185059,-29483608.24584961,-24751735.68725586,-11334683.418273926,-11295217.514038086,-10827493.667602539,6179310.321807861,1834082.4842453003,-20960140.228271484,-14704237.937927246,-5829360.485076904,-18730993.270874023,-10640117.645263672,-10618333.81652832,-9665667.533874512,-28322.10436463356,-3647126.4362335205,-1199544.1913604736,11504853.248596191,893277.5855064392,-7396868.2289123535,-8366980.55267334,-10530806.541442871,-11605222.702026367,-13676882.74383545,10532073.020935059,-21007076.263427734,-9291596.412658691,-13698777.198791504,-20689075.469970703,-20714782.71484375,-9732232.093811035,-3043718.099594116,-10488409.996032715,-619506.8955421448,-7585208.892822266,5948420.524597168,1019874.6919631958,-20337882.99560547,-20286090.850830078,-21747949.600219727,-11685473.442077637,-18839056.01501465,6817893.028259277,-7829373.836517334,-9571029.663085938,-13723623.275756836,-19905530.92956543,-21568843.841552734,-22670955.657958984,-18720722.198486328,-3398849.4873046875,-19579019.54650879,-19294582.36694336,-19029258.728027344,-21255596.160888672,-18664274.215698242,2472621.9177246094,-2348847.1508026123
0.215,12624953.269958496,578183.1741333008,6509964.942932129,-13531167.984008789,-31072742.462158203,-26640510.55908203,-9313836.097717285,-9140027.99987793,-8756458.282470703,9068586.349487305,5850756.1683654785,-18309640.884399414,-13159838.676452637,-6055852.41317749,-18223585.12878418,-8555886.268615723,-8621808.052062988,-7674996.376037598,3492586.135864258,-1011394.0238952637,762743.5922622681,12481455.80291748,2168691.635131836,-5524439.334869385,-6721213.340759277,-8497961.044311523,-9399113.655090332,-11861979.484558105,12262199.401855469,-19229379.653930664,-6336606.025695801,-10549513.816833496,-19291749.954223633,-19459001.541137695,-9701170.921325684,-1898376.226425171,-10262761.116027832,-422321.6474056244,-7084760.1890563965,6456970.21484375,3520885.944366455,-19100114.822387695,-19093259.811401367,-20535148.62060547,-13066531.18133545,-18436738.967895508,6488729.476928711,-6764205.9326171875,-7793495.178222656,-10097983.360290527,-18811592.10205078,-20031948.08959961,-21460763.931274414,-18494989.3951416,-2987045.2880859375,-17550020.217895508,-16970706.939697266,-18723266.6015625,-19955364.227294922,-18354768.753051758,3292525.053024292,-1301351.9048690796
0.22,3658609.8670959473,-12358026.504516602,-836174.6072769165,-17724586.486816406,-34296295.166015625,-29944135.665893555,-11218031.883239746,-11046221.733093262,-10689024.925231934,7481698.513031006,3894816.1602020264,-19087512.969970703,-14112970.352172852,-7298199.653625488,-20580150.604248047,-10514264.106750488,-10555180.549621582,-9565409.660339355,3737852.096557617,-1064169.2876815796,152625.29253959656,10511049.270629883,482586.8010520935,-6782257.556915283,-8385818.4814453125,-10283905.029296875,-11112319.946289062,-12454803.466796875,12160337.448120117,-20954397.201538086,-7671150.684356689,-9880520.820617676,-20442132.9498291,-20862436.294555664,-11216506.004333496,-2787822.0081329346,-11175305.366516113,-1534313.5595321655,-8730699.53918457,4455400.9437561035,3550632.4768066406,-20439029.693603516,-20400514.602661133,-21947162.628173828,-14598600.387573242,-19372093.200683594,5459498.405456543,-6069353.5804748535,-7286438.941955566,-6993995.666503906,-20112529.754638672,-21197027.2064209,-22721548.080444336,-19457015.991210938,-2660693.883895874,-16858772.27783203,-16226945.877075195,-19707447.052001953,-21179004.669189453,-19290332.794189453,2142233.371734619,-3565201.0440826416
0.225,16645187.377929688,19139925.003051758,20289588.928222656,-15788600.92163086,-34677333.83178711,-28474145.889282227,-15482598.304748535,-15425969.123840332,-15059255.599975586,3253738.1649017334,-4662272.930145264,-22701906.204223633,-16948482.513427734,-7851421.356201172,-22851989.74609375,-14926558.494567871,-14807526.588439941,-13748218.536376953,-604368.8654899597,-6075434.684753418,-2780074.8348236084,5326124.668121338,-4349432.468414307,-9744164.46685791,-11509099.960327148,-14521966.934204102,-15399323.463439941,-16882085.8001709,9444466.590881348,-25923292.16003418,-13685218.811035156,-12368391.036987305,-23450777.053833008,-24031124.114990234,-12729365.348815918,-5940655.23147583,-13901561.737060547,-3025130.033493042,-11235713.958740234,2657356.5006256104,1129076.8384933472,-23515514.373779297,-23392616.271972656,-25068588.256835938,-16104990.005493164,-20873256.68334961,4603469.371795654,-6962825.775146484,-8293803.2150268555,-1933728.814125061,-23033372.87902832,-24304191.58935547,-25650863.647460938,-20752279.28161621,-1863646.7456817627,-17795166.015625,-17392648.696899414,-21054363.250732422,-24126605.987548828,-20612483.978271484,1091626.2865066528,-5554140.567779541
0.23,36547302.24609375,60169506.07299805,46781940.46020508,-9820185.661315918,-32605400.08544922,-22939910.888671875,-17470443.725585938,-17559406.280517578,-17170076.370239258,826276.5407562256,-11425053.596496582,-24918148.040771484,-18571779.251098633,-6865310.192108154,-22111892.700195312,-16999256.134033203,-16835233.688354492,-15717000.961303711,-4908071.517944336,-11115756.034851074,-4709347.724914551,1487973.0939865112,-7513600.826263428,-10467819.213867188,-12326068.878173828,-16673297.882080078,-17593284.606933594,-20774320.602416992,7054013.252258301,-29322340.01159668,-18451379.776000977,-13866822.242736816,-24991073.608398438,-25576063.15612793,-12653361.320495605,-7846300.6019592285,-15744393.348693848,-3232956.886291504,-11947182.655334473,3030112.9817962646,-174605.8464050293,-25084901.809692383,-24789253.23486328,-26571929.931640625,-16623477.935791016,-20711446.76208496,5197221.279144287,-7984222.888946533,-8888125.4196167,7736982.345581055,-24527078.62854004,-25950468.063354492,-27006774.90234375,-20466606.14013672,-231262.99679279327,-17371744.15588379,-17213521.95739746,-20698358.5357666,-25511148.45275879,-20319839.477539062,2426622.3907470703,-3808279.9911499023
0.235,34052097.32055664,53857131.95800781,41596790.3137207,-9871633.529663086,-34092712.40234375,-20775188.446044922,-16046176.91040039,-16257446.2890625,-15864520.072937012,715708.0173492432,-10857363.7008667,-24739349.365234375,-18579404.830932617,-6777331.829071045,-19825420.379638672,-15523111.343383789,-15555343.627929688,-14445224.76196289,-5199045.658111572,-11083057.403564453,-4209219.455718994,1717430.830001831,-6939724.445343018,-7831141.948699951,-9847101.211547852,-15469472.885131836,-16357522.964477539,-19915521.6217041,7413101.673126221,-27964855.194091797,-17985277.17590332,-12120772.361755371,-22856050.491333008,-23341995.239257812,-11017249.10736084,-5802330.017089844,-14264342.308044434,-1546467.3042297363,-10145754.81414795,4872515.2015686035,1461101.5319824219,-23053134.91821289,-22530803.680419922,-24370212.55493164,-15043775.55847168,-18423160.552978516,7447955.60836792,-6869835.376739502,-7649620.532989502,19288179.397583008,-22522697.44873047,-23851251.60217285,-24724308.013916016,-18438457.489013672,1735593.7957763672,-14141103.744506836,-14011629.104614258,-18473358.154296875,-23247438.430786133,-18211421.966552734,5398238.658905029,-117311.67137622833
0.24,9692392.349243164,5765429.496765137,8794427.871704102,-18082740.783691406,-41183109.283447266,-24883380.889892578,-14250358.581542969,-14508288.383483887,-14166811.9430542,593153.9535522461,-6849145.889282227,-24981761.932373047,-19271337.509155273,-10021435.737609863,-19329994.201660156,-13651002.883911133,-13879823.684692383,-12868644.714355469,-2865224.3614196777,-7492341.041564941,-3134665.7276153564,3083210.7067108154,-6761511.80267334,-4737822.532653809,-6525747.299194336,-13733539.581298828,-14591661.45324707,-16057212.829589844,9361006.736755371,-24348415.37475586,-15696944.236755371,-10611681.938171387,-19042314.529418945,-19364702.224731445,-9259576.797485352,-1944124.698638916,-11126552.58178711,671233.6540222168,-8040366.172790527,6116372.585296631,3091559.886932373,-19311908.721923828,-18699542.999267578,-20482652.66418457,-12022204.399108887,-16855772.018432617,9731524.467468262,-4295063.495635986,-6134245.3956604,26078176.498413086,-18772415.161132812,-19932418.823242188,-20846658.70666504,-17316915.51208496,2422076.940536499,-11751668.930053711,-11464666.366577148,-17195793.15185547,-19400215.14892578,-17025753.021240234,6267706.871032715,91050.93032121658
0.245,-4362358.093261719,-19148710.250854492,-8479253.768920898,-23882871.627807617,-47149791.7175293,-28869487.762451172,-14418892.860412598,-14585364.34173584,-14353230.476379395,191082.4030637741,-6132374.286651611,-26709156.036376953,-21127296.447753906,-14499722.480773926,-20859123.22998047,-13836816.787719727,-14004339.218139648,-13128679.275512695,-1837376.7137527466,-6015361.309051514,-3287412.643432617,1494786.9777679443,-10992321.968078613,-4318725.109100342,-4902116.298675537,-13749186.515808105,-14655810.356140137,-14472830.772399902,10084022.521972656,-23372026.443481445,-17355428.69567871,-13444725.99029541,-17828790.66467285,-17988241.19567871,-8668232.917785645,-737048.1491088867,-10224567.413330078,1424619.0786361694,-8127877.235412598,5536818.981170654,723860.6810569763,-17984943.389892578,-17565340.042114258,-19170570.373535156,-10008236.8850708,-18658658.981323242,10133575.439453125,-3623340.845108032,-7194732.666015625,24355525.970458984,-17363016.12854004,-18564514.16015625,-19641901.01623535,-19258575.439453125,653925.1804351807,-14663012.504577637,-14195445.06072998,-19132541.65649414,-18230859.756469727,-18992277.145385742,3045786.6191864014,-5096178.5316467285
0.25,9832186.698913574,11804168.701171875,11660783.767700195,-19187576.293945312,-45463001.2512207,-26357921.600341797,-15567410.469055176,-15526752.471923828,-15419789.31427002,1113249.1827011108,-9353443.145751953,-27205730.438232422,-21478807.44934082,-15101358.413696289,-21487485.885620117,-15035961.151123047,-15029232.025146484,-14209337.23449707,-3324213.2663726807,-8788056.373596191,-3915562.868118286,-2155329.2274475098,-16517518.997192383,-6154046.535491943,-4960901.260375977,-14702525.13885498,-15678818.702697754,-16962127.685546875,8842265.129089355,-26096553.802490234,-22542316.436767578,-18433610.916137695,-20367177.963256836,-20490283.966064453,-9116955.757141113,-3119324.207305908,-12499723.434448242,335453.00364494324,-10125751.495361328,3951492.3095703125,-4490817.546844482,-20321300.506591797,-20226642.608642578,-21664550.78125,-10536176.681518555,-22083448.41003418,8581351.280212402,-6390092.849731445,-10678605.079650879,17168987.274169922,-19675168.991088867,-21128133.77380371,-22271297.454833984,-22386680.603027344,-2386935.7109069824,-21360820.770263672,-20769189.834594727,-22324470.52001953,-20846088.409423828,-22163160.32409668,-1045080.9001922607,-10654500.961303711
0.255,29123407.3638916,49727958.67919922,36924938.2019043,-10832051.277160645,-39865509.033203125,-20021751.403808594,-15651868.82019043,-15447639.465332031,-15423027.992248535,2951542.854309082,-11506065.368652344,-24634748.458862305,-18825695.037841797,-10505806.922912598,-19222023.010253906,-15074578.285217285,-15133830.070495605,-14191534.042358398,-4999715.328216553,-11983831.405639648,-3404111.623764038,-3377195.119857788,-16445791.244506836,-6832095.623016357,-4839499.473571777,-14754553.79486084,-15719565.391540527,-19849697.11303711,7530910.015106201,-28757213.592529297,-24867923.736572266,-19026287.078857422,-22697957.99255371,-22942260.7421875,-9330230.712890625,-5399008.274078369,-14771746.635437012,-1021579.7424316406,-11503320.693969727,3332226.037979126,-6378283.977508545,-22610504.150390625,-22641464.233398438,-24072784.423828125,-12364007.949829102,-22755260.467529297,6744469.64263916,-9938542.366027832,-12795898.4375,11332752.227783203,-22079097.747802734,-23696083.068847656,-24766206.741333008,-22738092.42248535,-4120809.555053711,-25457843.780517578,-24788141.25061035,-22681428.909301758,-23257947.92175293,-22483547.21069336,-1451589.9419784546,-10662226.676940918
0.26,22456434.24987793,32715129.852294922,25838684.08203125,-10724390.983581543,-39651649.475097656,-17187698.364257812,-14346271.514892578,-14178386.688232422,-14144326.210021973,3465940.7138824463,-9443675.04119873,-21599472.045898438,-16059299.46899414,-5993490.695953369,-15407606.12487793,-13664124.488830566,-14035036.087036133,-12811102.867126465,-4486559.3910217285,-11445464.134216309,-2047297.0008850098,-1183187.6039505005,-10164092.063903809,-4183185.577392578,-3379766.9410705566,-13613309.860229492,-14498353.004455566,-19220598.220825195,7809612.274169922,-28276153.564453125,-21176227.569580078,-13449187.278747559,-20812891.006469727,-21162588.119506836,-8485059.73815918,-4456580.16204834,-14175021.171569824,-1169975.6383895874,-10927713.394165039,4359295.36819458,-1541651.3681411743,-20864370.346069336,-20710720.06225586,-22287801.74255371,-13204954.147338867,-19582145.69091797,6106901.6456604,-10709645.27130127,-10862195.96862793,11046715.73638916,-20478820.80078125,-21969408.03527832,-23019004.821777344,-19607767.10510254,-3491317.0337677,-23709716.796875,-23032882.690429688,-19503829.956054688,-21433177.947998047,-19293535.232543945,1471210.4797363281,-6111997.127532959
0.265,-3849759.578704834,-23642932.891845703,-11782832.145690918,-18449865.341186523,-46148208.61816406,-19791276.931762695,-12990132.331848145,-13012798.309326172,-12859580.039978027,2616625.0705718994,-5851554.870605469,-21620906.829833984,-16842504.501342773,-6984045.98236084,-13262990.951538086,-12314133.644104004,-12837286.949157715,-11347369.194030762,-2074417.8295135498,-8304507.255554199,-1566863.4176254272,-118526.22777223587,-5364849.56741333,-547266.7217254639,-1626971.8408584595,-12465286.254882812,-13305662.155151367,-16028911.590576172,8885792.73223877,-26567924.49951172,-16617931.365966797,-8007435.7986450195,-16667974.472045898,-16930072.784423828,-7390939.712524414,-1978821.7544555664,-11950925.827026367,-379916.4891242981,-9826892.852783203,5316433.906555176,5212053.298950195,-16785844.802856445,-16384056.091308594,-18123439.78881836,-12658924.102783203,-16346109.390258789,6877947.807312012,-8567797.660827637,-7003267.288208008,14434296.607971191,-16413858.413696289,-17684125.900268555,-18851434.7076416,-16634206.771850586,-1648401.7372131348,-19692041.397094727,-19123092.651367188,-16519332.885742188,-17278520.584106445,-16325864.791870117,3296179.77142334,-3328896.7609405518
0.27,-14878417.015075684,-44751228.33251953,-26295700.073242188,-22682006.8359375,-50752140.045166016,-23632743.83544922,-13171059.608459473,-13311408.042907715,-12963600.158691406,2777625.08392334,-5753970.146179199,-24197998.046875,-20355672.83630371,-11888039.588928223,-15181010.246276855,-12630914.688110352,-12893365.859985352,-11361547.470092773,-132003.44145298004,-7343011.856079102,-2521717.5483703613,-4110389.7094726562,-8649882.316589355,-920739.8295402527,-2029978.9905548096,-12698895.454406738,-13562507.629394531,-14624300.956726074,8502242.088317871,-27811664.581298828,-18265653.610229492,-9430848.121643066,-16611192.70324707,-16665578.842163086,-7730758.190155029,-2060276.746749878,-11622486.114501953,69624.99767541885,-10207111.358642578,4148318.290710449,5881729.602813721,-16566612.243652344,-16137388.229370117,-17961715.698242188,-12416038.513183594,-16795795.440673828,8366889.953613281,-6708240.985870361,-5688722.133636475,15762696.266174316,-16061662.673950195,-17376632.690429688,-18582612.991333008,-17138980.865478516,34021.73146605492,-18777740.478515625,-18361494.064331055,-17075630.18798828,-17102834.701538086,-16884681.701660156,1886773.1094360352,-5438732.624053955
0.275,3543066.5016174316,27658.15518796444,3188975.8110046387,-18303455.352783203,-47798137.66479492,-25556413.650512695,-15513285.636901855,-15557742.11883545,-15016358.375549316,4396423.816680908,-10627302.169799805,-26036977.767944336,-22598756.790161133,-14857579.231262207,-20732658.38623047,-15024788.856506348,-14881089.210510254,-13566712.379455566,-600980.5798530579,-10706504.821777344,-3696215.867996216,-11150279.04510498,-17634412.76550293,-7079412.937164307,-5786277.770996094,-14848566.055297852,-15737775.802612305,-17093347.549438477,5635688.304901123,-32626583.099365234,-26084743.49975586,-16617206.573486328,-23292238.235473633,-23239616.39404297,-9954073.905944824,-5674306.869506836,-14392001.152038574,-327626.0495185852,-12143192.291259766,1246229.1717529297,-1098752.9754638672,-23012916.564941406,-22756723.403930664,-24595407.485961914,-13753104.209899902,-20367433.547973633,9556118.01147461,-7888237.953186035,-8523129.4631958,11301134.10949707,-22369388.580322266,-23998874.66430664,-24983766.555786133,-20454250.33569336,990136.7425918579,-22187482.833862305,-21820352.55432129,-20466718.673706055,-23605323.791503906,-20233154.296875,-774036.8247032166,-9303313.255310059
0.28,27645101.54724121,57508335.11352539,41409210.205078125,-12287488.93737793,-42466777.80151367,-25746503.829956055,-18611333.8470459,-18482587.814331055,-17811418.533325195,5069528.579711914,-16620826.721191406,-25785694.122314453,-22108625.411987305,-14172637.939453125,-25983539.581298828,-17944860.458374023,-17678600.311279297,-16655563.354492188,-2955489.158630371,-15261123.657226562,-3940472.364425659,-16175992.965698242,-24838920.59326172,-14229040.145874023,-10554194.450378418,-17624145.5078125,-18509904.861450195,-20823209.762573242,1615252.0179748535,-37241050.720214844,-33403923.03466797,-22622892.379760742,-31395942.68798828,-31394721.98486328,-12229175.567626953,-9468772.888183594,-17932952.880859375,-972776.3533592224,-14248544.692993164,-868168.4732437134,-9097452.163696289,-31042575.83618164,-30916738.510131836,-32726478.576660156,-15805787.086486816,-23732378.005981445,9575761.795043945,-11699067.115783691,-12977078.437805176,3384032.726287842,-30381168.365478516,-32204715.728759766,-32909622.192382812,-23572759.6282959,820573.091506958,-27056777.954101562,-26636381.149291992,-23665546.417236328,-31617578.506469727,-23385505.67626953,-2797449.3503570557,-11081736.56463623
0.285,30976890.563964844,64932174.68261719,46560348.51074219,-11485033.03527832,-41993171.69189453,-24266788.482666016,-19509222.03063965,-19382181.16760254,-18645164.489746094,4024359.2262268066,-18248933.792114258,-24545940.399169922,-20666492.462158203,-12803152.084350586,-26201599.12109375,-18606235.50415039,-18530284.881591797,-17667745.59020996,-4434141.159057617,-16374670.028686523,-3121374.6070861816,-16760923.385620117,-26024721.145629883,-15501227.378845215,-11831377.029418945,-18337924.95727539,-19237009.048461914,-21889652.252197266,-1257926.7024993896,-38137023.92578125,-34742221.83227539,-22576513.290405273,-33201381.68334961,-33272411.346435547,-12167892.456054688,-10027360.916137695,-19449821.47216797,-1117323.0409622192,-15354660.987854004,-184761.77752017975,-10827265.739440918,-32952831.268310547,-32798496.24633789,-34530094.146728516,-16589288.711547852,-24533592.224121094,8654881.477355957,-15027956.96258545,-15385388.374328613,-1298661.5896224976,-32383747.100830078,-34042232.513427734,-34731578.8269043,-24407003.40270996,-255446.37441635132,-29677791.595458984,-29295648.5748291,-24568401.336669922,-33514026.641845703,-24301158.905029297,-4027330.8753967285,-10514624.59564209
0.29,16290870.666503906,27523981.09436035,22973365.783691406,-13992556.57196045,-44667228.69873047,-21688335.418701172,-17093666.076660156,-17168645.85876465,-16373275.756835938,3945256.7100524902,-13834856.033325195,-22395975.11291504,-18129152.297973633,-10538484.573364258,-21799406.051635742,-16164417.266845703,-16244224.548339844,-15374940.872192383,-2841295.9575653076,-12967854.499816895,-1044110.0597381592,-13405624.389648438,-21406507.49206543,-10380921.363830566,-8191717.147827148,-16039228.439331055,-16955173.49243164,-19625686.645507812,-1782121.4199066162,-35455558.77685547,-30080642.700195312,-16673393.249511719,-27642023.08654785,-27729185.104370117,-9892101.287841797,-7826951.503753662,-18651031.494140625,-454015.4039859772,-14764756.202697754,3434497.117996216,-5172554.969787598,-27533218.383789062,-27328462.600708008,-28923395.15686035,-15415015.22064209,-22698802.947998047,8266837.120056152,-14817267.417907715,-13964433.670043945,1716556.0722351074,-27060819.625854492,-28460628.509521484,-29360540.39001465,-22772670.74584961,-385363.3999824524,-27659633.63647461,-27500589.37072754,-22927120.208740234,-28121307.373046875,-22723892.211914062,-3273596.5251922607,-8746946.334838867
0.295,1716892.123222351,-3650539.8750305176,5992257.595062256,-16525939.94140625,-43677276.611328125,-23390630.7220459,-14806891.441345215,-15009155.2734375,-14097105.026245117,6342492.10357666,-7152254.104614258,-17841655.731201172,-11120134.353637695,-1960084.9151611328,-20547662.73498535,-14037505.149841309,-14019749.641418457,-13035058.975219727,737554.6097755432,-8054278.373718262,2958927.631378174,-6527872.085571289,-11870151.51977539,-6726464.27154541,-4608444.2138671875,-13985685.348510742,-14780389.785766602,-16907291.412353516,-482727.37860679626,-31464550.018310547,-22428079.60510254,-7253739.356994629,-21964191.436767578,-22087953.567504883,-8732286.45324707,-6296030.9982299805,-17442066.192626953,1007956.3856124878,-11985668.182373047,9041728.973388672,3626372.3373413086,-21933427.810668945,-21814966.201782227,-23248086.92932129,-13964470.863342285,-19977912.90283203,9290087.699890137,-10964055.061340332,-9552356.719970703,9743814.468383789,-21488498.68774414,-22911289.21508789,-23926826.47705078,-20165296.55456543,2083584.3086242676,-21504564.28527832,-21537723.541259766,-20197868.34716797,-22461223.602294922,-20047491.0736084,1120041.4896011353,-5984055.042266846
0.3,-7962687.969207764,-5012181.758880615,10945663.452148438,-22002149.58190918,-38633640.28930664,-36183078.76586914,-17611755.37109375,-17634405.1361084,-16519346.237182617,8249946.594238281,-3417582.5119018555,-11373918.533325195,803945.2433586121,14405209.5413208,-30209367.752075195,-16903326.0345459,-16684099.197387695,-15468119.621276855,2784977.436065674,-5234973.430633545,8304206.848144531,2873219.2516326904,803516.9243812561,-12498034.477233887,-8107942.581176758,-16765136.71875,-17201852.798461914,-16501161.575317383,1259232.4018478394,-27828611.373901367,-14917428.016662598,2957141.637802124,-23897798.538208008,-24116924.285888672,-11919715.881347656,-7825750.350952148,-17620811.462402344,2854840.2786254883,-7733374.118804932,15176478.385925293,10844460.487365723,-23868268.966674805,-23918521.881103516,-25250785.82763672,-14623600.959777832,-19190841.674804688,10469002.723693848,-6740874.767303467,-4740480.899810791,15493606.567382812,-23394571.30432129,-25053342.819213867,-25981533.05053711,-19381210.327148438,5622433.662414551,-15335587.501525879,-15280551.91040039,-19267227.172851562,-24191310.88256836,-19135007.858276367,6602849.48348999,-3437608.480453491
0.305,-20476404.190063477,2268949.508666992,20908306.121826172,-33326183.319091797,-36131675.720214844,-58076950.07324219,-25766542.434692383,-25440427.780151367,-24078739.166259766,6382956.027984619,-4081861.972808838,-6502947.3304748535,11440503.120422363,30060306.549072266,-48647499.084472656,-24893236.16027832,-24589097.97668457,-23017324.447631836,1251306.176185608,-5681265.830993652,12282988.548278809,10593732.833862305,11248762.130737305,-26516836.166381836,-19408041.00036621,-24545110.70251465,-24503538.131713867,-18327835.083007812,2209269.2852020264,-25412559.509277344,-10444212.913513184,10267186.164855957,-33280715.942382812,-33565540.3137207,-18638164.520263672,-11493664.741516113,-19307518.005371094,4207767.009735107,-4354581.832885742,19856092.45300293,14303414.344787598,-33169700.622558594,-33279018.40209961,-34652248.38256836,-17451484.68017578,-21723606.10961914,10257727.62298584,-5361378.192901611,-1811750.1735687256,14911502.838134766,-32641376.495361328,-34370750.427246094,-35204013.82446289,-21966089.248657227,7258155.822753906,-13432073.593139648,-13127023.696899414,-21825838.088989258,-33324375.15258789,-21698192.596435547,7759683.609008789,-3596542.5968170166
0.31,-35274551.39160156,-1447198.3909606934,20211910.247802734,-44890411.376953125,-39069587.70751953,-76697509.765625,-33788986.20605469,-33305889.129638672,-31749849.319458008,2602971.7922210693,-6313721.656799316,-5414113.521575928,14559825.897216797,35390014.6484375,-64710159.30175781,-32738941.192626953,-32429611.206054688,-30540399.5513916,-2102924.108505249,-8007889.747619629,12757235.527038574,11979124.069213867,13919528.96118164,-39620899.20043945,-31132165.908813477,-32214759.826660156,-31795843.12438965,-20430435.180664062,1731985.330581665,-24902755.737304688,-10542627.334594727,11967926.979064941,-42717540.7409668,-42999687.19482422,-24450042.724609375,-14521800.994873047,-21185632.705688477,4517224.311828613,-3528744.697570801,21805847.16796875,14643961.906433105,-42479938.50708008,-42479534.14916992,-43983253.479003906,-19471912.384033203,-24891618.728637695,9695448.875427246,-6158601.760864258,-615538.8951301575,11092023.849487305,-41864860.53466797,-43389839.17236328,-44217113.49487305,-25259098.052978516,7571811.676025391,-14972266.19720459,-14623483.657836914,-25231582.641601562,-42661361.69433594,-25083326.33972168,4643470.764160156,-6144774.913787842
0.315,-41822906.494140625,-6806542.39654541,15453783.988952637,-48258132.93457031,-42549160.00366211,-82166740.41748047,-36686168.6706543,-36365974.42626953,-34738933.56323242,1723356.6045761108,-7390352.249145508,-6198988.914489746,11565659.523010254,31180585.861206055,-70337745.6665039,-35681446.07543945,-35260169.982910156,-33326538.0859375,-3820197.820663452,-10115753.173828125,11005302.429199219,7596598.6251831055,9537810.325622559,-44823818.20678711,-35891498.56567383,-35163398.74267578,-34554737.09106445,-21547897.338867188,-117475.39043426514,-26258441.925048828,-13746068.954467773,9379630.088806152,-46053901.67236328,-46372787.47558594,-26046966.552734375,-15292189.598083496,-21913682.93762207,4301933.765411377,-4230206.489562988,21767248.153686523,13714417.457580566,-45774654.388427734,-45660003.662109375,-47172225.95214844,-17996532.440185547,-24204727.172851562,11127152.442932129,-5885960.102081299,620932.6386451721,9134531.021118164,-45050746.91772461,-46371158.599853516,-47129699.70703125,-24597492.218017578,10145153.045654297,-15175471.305847168,-15065700.53100586,-24697092.056274414,-46035343.170166016,-24461608.88671875,4307983.3984375,-6810657.024383545
0.32,-37014831.54296875,904942.0356750488,18537252.42614746,-44031291.96166992,-42568771.36230469,-77963233.9477539,-35350418.09082031,-35245410.91918945,-33644523.62060547,4568119.049072266,-8255831.718444824,-6719041.82434082,8082609.176635742,25376352.310180664,-68741065.9790039,-34540531.158447266,-33880645.751953125,-32158943.17626953,-2635359.525680542,-11286205.291748047,9818317.413330078,2032676.2199401855,3421066.7610168457,-43916698.45581055,-34318656.92138672,-34169025.42114258,-33485954.28466797,-22068286.895751953,-2786021.947860718,-28715042.114257812,-17682563.78173828,5755522.25112915,-44478557.58666992,-44940387.72583008,-24534400.939941406,-14653425.216674805,-21469100.952148438,4314682.483673096,-4813758.850097656,20969486.236572266,11819435.119628906,-44337963.10424805,-44268768.310546875,-45536190.032958984,-14250045.776367188,-19581823.348999023,13952850.341796875,-4097252.368927002,1643563.3897781372,8742424.964904785,-43559764.86206055,-44876529.693603516,-45427036.28540039,-19800765.991210938,14823290.824890137,-12917981.147766113,-12963937.759399414,-19940845.489501953,-44489925.384521484,-19592807.76977539,10247678.756713867,-3306576.0135650635
0.325,-31202468.872070312,14148898.124694824,25340597.15270996,-41016361.236572266,-42692668.91479492,-74715789.79492188,-34048805.236816406,-33911388.3972168,-32343750.0,6794449.806213379,-11296021.461486816,-8517060.279846191,5347048.759460449,21077590.942382812,-67960906.98242188,-33344139.099121094,-32512542.724609375,-30951065.063476562,-323662.4598503113,-12501794.815063477,9359155.654907227,-2922569.990158081,-2259570.837020874,-42849018.09692383,-32526710.510253906,-33055564.880371094,-32375209.80834961,-22767776.489257812,-5489471.435546875,-31905467.987060547,-22430864.334106445,1614065.5279159546,-42968219.75708008,-43553344.7265625,-23075670.24230957,-14250341.415405273,-20912733.07800293,4329153.537750244,-5967701.9119262695,18792778.01513672,7353134.1552734375,-43043426.513671875,-43111457.82470703,-44077342.98706055,-11950984.001159668,-16109655.380249023,14621872.901916504,-4291928.768157959,-314431.96535110474,5539644.718170166,-42326728.82080078,-43697879.791259766,-44078525.54321289,-16099473.95324707,16194379.806518555,-12704779.624938965,-12540714.263916016,-16205274.58190918,-42933792.11425781,-15866031.646728516,15929406.16607666,809267.5805091858
0.33,-33488601.684570312,14394748.68774414,23236204.147338867,-43789649.963378906,-47644428.25317383,-76274269.1040039,-34452663.42163086,-34085449.21875,-32523914.337158203,5064424.991607666,-15804043.769836426,-13448917.388916016,820971.3101387024,15297388.076782227,-69749092.10205078,-33699268.34106445,-32921066.284179688,-31259340.286254883,801741.6596412659,-14688036.918640137,7468422.412872314,-9225747.108459473,-9288335.800170898,-43374759.674072266,-33237041.473388672,-33327995.30029297,-32782466.888427734,-23578748.70300293,-7479682.445526123,-35710273.74267578,-28785261.154174805,-4227130.889892578,-42871379.85229492,-43406631.46972656,-22477855.682373047,-14199037.551879883,-20826789.85595703,3760818.2430267334,-9062511.444091797,14301061.630249023,583233.654499054,-43013816.833496094,-43113708.49609375,-44065773.010253906,-12314869.88067627,-16865779.876708984,11948757.17163086,-8234807.014465332,-5667136.192321777,-682549.238204956,-42423027.03857422,-43701049.8046875,-44104190.826416016,-16786743.1640625,11679239.273071289,-16641096.115112305,-16132926.940917969,-16831985.473632812,-42747257.232666016,-16700523.376464844,14248007.774353027,1477698.9221572876
0.335,-41497169.494628906,-2786365.747451782,10020004.272460938,-47920196.533203125,-54814792.63305664,-77744117.7368164,-34789947.509765625,-34294345.85571289,-32773376.46484375,1188247.3230361938,-17939373.016357422,-18495388.03100586,-4030858.039855957,8475843.42956543,-69487350.46386719,-33965709.6862793,-33405700.68359375,-31562374.114990234,147188.9168024063,-16954633.712768555,4085638.5231018066,-15993043.899536133,-16219577.78930664,-42530647.27783203,-33288825.98876953,-33489971.160888672,-33189968.10913086,-23817661.28540039,-8340685.844421387,-38635345.458984375,-33780250.549316406,-9307822.227478027,-41261894.22607422,-41622974.39575195,-21015050.888061523,-13204666.137695312,-20519802.09350586,3232751.3694763184,-12306366.920471191,9769333.839416504,-3788211.1072540283,-41238319.396972656,-41242126.46484375,-42484115.60058594,-12654088.973999023,-18542726.516723633,9502128.601074219,-12157951.354980469,-9661548.614501953,-3817255.973815918,-40738876.34277344,-41814147.94921875,-42339717.864990234,-18597362.518310547,6714900.493621826,-19460548.400878906,-18899816.513061523,-18581298.828125,-41031433.10546875,-18710107.803344727,8499369.621276855,177039.41464424133
0.34,-48267177.58178711,-24405721.66442871,-4038573.2650756836,-48488094.329833984,-57575176.23901367,-75704391.47949219,-34020450.592041016,-33638179.779052734,-32240001.678466797,-1049669.861793518,-15658797.264099121,-18442066.192626953,-3724063.1580352783,6535228.729248047,-65608924.865722656,-33181186.67602539,-32813190.460205078,-31013383.865356445,-1255120.6350326538,-17434627.532958984,2492255.449295044,-17791908.264160156,-17471788.40637207,-39361911.77368164,-30203298.568725586,-32754482.26928711,-32626731.872558594,-23194433.212280273,-8299938.201904297,-38442810.05859375,-32785526.275634766,-8715163.230895996,-37362068.17626953,-37607711.79199219,-18235519.409179688,-11032539.367675781,-19382602.69165039,4116338.7298583984,-11959491.729736328,9442290.306091309,-1445689.6781921387,-37099765.77758789,-37065643.310546875,-38533676.14746094,-10851377.487182617,-17286302.56652832,10580242.156982422,-11606132.507324219,-7745205.879211426,-12987.353838980198,-36646232.60498047,-37577205.657958984,-38176368.713378906,-17542593.002319336,7571169.376373291,-16161270.141601562,-15867654.800415039,-17501846.313476562,-37041076.66015625,-17700706.481933594,7057528.972625732,563528.3589363098
0.345,-50653598.78540039,-34297531.12792969,-8539358.139038086,-46774738.31176758,-54721996.30737305,-73290718.07861328,-33538509.368896484,-33341045.379638672,-32087631.225585938,-528703.6895751953,-11734431.266784668,-13445804.595947266,2147330.5225372314,11086969.375610352,-62938579.55932617,-32675201.416015625,-32349082.946777344,-30815397.262573242,-1962008.4762573242,-15926787.376403809,4814289.093017578,-12832945.823669434,-12550716.400146484,-37572654.724121094,-26762668.60961914,-32392799.377441406,-32225589.752197266,-22207155.227661133,-8220795.631408691,-35701805.114746094,-27251895.904541016,-3194495.20111084,-35212627.41088867,-35471649.169921875,-16333133.697509766,-9569204.330444336,-18474704.74243164,6151986.598968506,-8069202.423095703,13562635.42175293,4453154.563903809,-34861221.31347656,-34924781.799316406,-36340084.075927734,-8871082.305908203,-15414939.880371094,13079097.747802734,-8192959.785461426,-2506667.8524017334,5374772.071838379,-34451877.59399414,-35358963.01269531,-35989814.75830078,-15794815.063476562,12061915.397644043,-10903929.710388184,-10841835.975646973,-15804814.338684082,-34913108.825683594,-15841197.967529297,10263166.427612305,1781958.4608078003
0.35,-48700561.5234375,-26720539.093017578,-2387851.9535064697,-46079315.185546875,-51602176.666259766,-73673080.44433594,-34212970.73364258,-34039455.41381836,-32865386.962890625,1250441.312789917,-10413840.293884277,-9592634.201049805,6345542.430877686,15199192.04711914,-64839355.46875,-33267688.751220703,-32856807.708740234,-31530044.555664062,-1142258.1672668457,-14448431.015014648,8611968.040466309,-7775081.634521484,-9315722.465515137,-39556392.669677734,-26447994.232177734,-33027023.315429688,-32722122.192382812,-21513732.91015625,-8861793.518066406,-34408348.083496094,-24969587.326049805,-229584.4852924347,-37350185.39428711,-37659137.72583008,-16715927.124023438,-10298023.223876953,-19398572.92175293,7116166.114807129,-5449342.727661133,16895059.58557129,5954858.303070068,-37115070.34301758,-37214023.59008789,-38547832.48901367,-9560435.29510498,-17305339.813232422,12472817.420959473,-7484750.747680664,-944134.7122192383,4380804.061889648,-36706550.59814453,-37673252.10571289,-38341247.55859375,-17668155.670166016,12958477.020263672,-11651242.25616455,-11583008.766174316,-17761898.040771484,-37225406.646728516,-17635288.23852539,11161526.679992676,642464.2205238342
0.355,-42875572.204589844,-9634838.104248047,7562721.252441406,-45706989.28833008,-52088325.50048828,-74002624.51171875,-34515617.37060547,-34182125.091552734,-33048580.169677734,2853289.1273498535,-12578285.217285156,-10929777.145385742,3830648.183822632,13143971.44317627,-67131187.43896484,-33486694.3359375,-32974597.930908203,-31662801.74255371,607044.517993927,-14902158.737182617,9928131.103515625,-9636347.770690918,-13296311.378479004,-41492557.525634766,-27480052.947998047,-33158222.198486328,-32851112.365722656,-21326456.06994629,-10130499.839782715,-37205841.064453125,-29985807.418823242,-3833137.7506256104,-39641456.604003906,-39954608.91723633,-17356140.13671875,-11799960.136413574,-21777414.321899414,5704657.077789307,-7295845.985412598,15401713.371276855,1071526.050567627,-39607566.833496094,-39495536.80419922,-41003570.556640625,-11826867.10357666,-21273014.068603516,8423530.578613281,-10928159.713745117,-4959512.710571289,-2135562.1814727783,-39066761.0168457,-40141078.94897461,-40804538.72680664,-21500997.54333496,8870755.195617676,-18004182.815551758,-17854246.139526367,-21608388.900756836,-39684421.53930664,-21531906.127929688,7989735.126495361,-1500300.2882003784
0.36,-36005279.541015625,2140198.9459991455,13212962.15057373,-43317260.7421875,-54252403.259277344,-70085212.70751953,-33147727.966308594,-32638885.498046875,-31598705.291748047,3638749.122619629,-15783261.2991333,-14662663.459777832,-1049867.2723770142,8582057.95288086,-64233161.92626953,-32086513.51928711,-31551843.643188477,-30236219.40612793,1435898.1847763062,-17094610.2142334,8314144.134521484,-16133275.985717773,-19272695.541381836,-38611289.978027344,-25625501.63269043,-31723054.885864258,-31584478.3782959,-21480026.245117188,-11271611.213684082,-41643661.49902344,-36724578.857421875,-8390039.443969727,-37122783.66088867,-37417369.8425293,-15765420.913696289,-11586036.682128906,-23399827.95715332,3510441.780090332,-10743731.498718262,11771810.531616211,-3235234.9758148193,-37228748.3215332,-36827362.060546875,-38570816.04003906,-12268477.439880371,-21899589.53857422,4926055.908203125,-14130898.475646973,-8994240.760803223,-5532168.388366699,-36491718.29223633,-37660659.79003906,-38265014.6484375,-21979125.9765625,5424093.246459961,-21693025.588989258,-21561346.05407715,-22006639.48059082,-37117183.685302734,-22106939.3157959,6759441.375732422,-345239.9969100952
0.365,-33216346.740722656,803005.1589012146,11731060.028076172,-40300697.326660156,-54978485.107421875,-64150283.81347656,-31666471.481323242,-31127925.872802734,-30194652.557373047,3033031.463623047,-18226160.049438477,-16195796.966552734,-1590850.2340316772,7925192.356109619,-58500965.1184082,-30599899.291992188,-30127182.006835938,-28940034.866333008,178455.6657075882,-19597942.352294922,6569177.150726318,-19566617.965698242,-19595731.735229492,-33531848.907470703,-21609508.514404297,-30354446.411132812,-30338830.947875977,-21801143.646240234,-11848853.11126709,-43601509.09423828,-38096576.69067383,-7287186.145782471,-32823543.548583984,-33112747.192382812,-13318872.451782227,-9979317.665100098,-23273710.250854492,2876785.2783203125,-11324605.941772461,11154415.130615234,-1392181.5156936646,-32936645.5078125,-32516143.798828125,-34160083.77075195,-10849747.657775879,-19504991.53137207,4302865.028381348,-13874800.682067871,-8522300.720214844,-2068766.5939331055,-32165325.164794922,-33326225.28076172,-33926593.78051758,-19556781.768798828,5647608.757019043,-19351297.37854004,-19263742.446899414,-19505603.790283203,-32594383.239746094,-19646087.646484375,9896300.315856934,3133362.293243408
0.37,-35545394.89746094,-5466051.10168457,8099667.549133301,-40126781.46362305,-54772533.41674805,-62519588.470458984,-32433170.318603516,-32022705.078125,-31032974.243164062,1088191.6284561157,-20631952.2857666,-15480113.983154297,1420899.3911743164,10338143.348693848,-57769996.643066406,-31365669.25048828,-30960880.279541016,-29895042.419433594,-1907381.8922042847,-21633625.030517578,6382534.503936768,-18162237.1673584,-16538997.650146484,-33684772.49145508,-20862400.05493164,-31246860.50415039,-31132413.864135742,-22231426.239013672,-12252328.872680664,-43059284.21020508,-35580398.55957031,-3365396.9764709473,-34626888.275146484,-34890075.68359375,-13701972.961425781,-9910626.411437988,-23046165.466308594,3728755.9509277344,-9430038.452148438,13493871.688842773,2323255.5389404297,-34617305.755615234,-34496810.91308594,-35766544.342041016,-11189177.513122559,-20406501.77001953,4727789.402008057,-12613682.746887207,-6472158.908843994,1511498.8088607788,-34049217.224121094,-35122051.23901367,-35809036.25488281,-20582582.473754883,5817819.595336914,-17249221.801757812,-17113035.202026367,-20527917.861938477,-34264694.21386719,-20504604.33959961,11188147.54486084,2748385.6678009033
0.375,-37967555.99975586,-4247151.3748168945,8450339.317321777,-42614067.07763672,-55916049.95727539,-66073898.31542969,-34899909.97314453,-34637321.47216797,-33401004.791259766,-965001.8215179443,-24056814.193725586,-15476366.04309082,2418017.625808716,10411325.454711914,-63433189.392089844,-33871402.740478516,-33471664.428710938,-32312808.990478516,-2577012.300491333,-23321125.030517578,6575708.866119385,-17133758.544921875,-18322858.810424805,-39794712.06665039,-24843994.140625,-33702445.98388672,-33382484.436035156,-22692115.783691406,-13010827.06451416,-43402690.88745117,-35729576.110839844,-4053733.8256835938,-42661842.346191406,-42841529.846191406,-16953462.600708008,-12231222.152709961,-24290178.298950195,4186983.585357666,-8850023.26965332,14335934.63897705,860422.9092597961,-42470596.31347656,-42625240.325927734,-43725646.97265625,-14326150.894165039,-26114395.141601562,4506898.403167725,-13600638.389587402,-7728233.337402344,-1602778.434753418,-42098926.54418945,-43165225.982666016,-43873569.48852539,-26422246.9329834,3178869.4858551025,-20409694.67163086,-20202447.89123535,-26416147.232055664,-42388084.411621094,-26239803.314208984,6541535.8543396,-2662646.532058716
0.38,-36940650.939941406,1642757.8926086426,10846078.872680664,-43953800.201416016,-58614616.39404297,-67993919.3725586,-36221656.799316406,-35970085.14404297,-34578235.6262207,-2305183.6490631104,-27720941.5435791,-16916168.212890625,502365.0527000427,8147379.8751831055,-66928794.860839844,-35295379.638671875,-34866672.51586914,-33470294.952392578,-1870885.8489990234,-24821165.084838867,5624406.814575195,-19058130.264282227,-24648235.321044922,-42714187.62207031,-27524353.02734375,-34920932.76977539,-34568458.557128906,-23067529.678344727,-13906090.73638916,-45659408.56933594,-39119548.79760742,-8440798.75946045,-46407745.361328125,-46515346.52709961,-18313611.98425293,-13746791.83959961,-25739616.39404297,3824852.94342041,-10241428.37524414,12569760.3225708,-3453454.01763916,-46121871.94824219,-46231342.31567383,-47563140.869140625,-15916434.288024902,-28969440.460205078,5210103.0349731445,-14969974.517822266,-10521621.704101562,-7418148.517608643,-45662387.84790039,-46880676.26953125,-47442726.135253906,-29241035.46142578,1853180.8853149414,-23766487.12158203,-23587051.391601562,-29306165.69519043,-46301544.189453125,-29161003.11279297,2499346.971511841,-5236681.938171387
0.385,-35045181.27441406,-651642.6205635071,8929973.602294922,-42143051.14746094,-60640827.17895508,-63075805.6640625,-35348541.259765625,-34958728.7902832,-33778015.13671875,-3592285.15625,-29821142.196655273,-17542482.376098633,331187.75486946106,8980311.393737793,-61343654.63256836,-34543247.22290039,-34129539.489746094,-32608310.69946289,-2157941.1029815674,-26133819.580078125,4140200.138092041,-20017694.4732666,-26077526.092529297,-35848953.24707031,-23796226.501464844,-33985794.06738281,-33875614.166259766,-23417652.130126953,-14162661.5524292,-47003681.18286133,-39791763.30566406,-8054166.793823242,-38761768.34106445,-38938262.939453125,-14790442.46673584,-11926179.885864258,-25249732.971191406,4184791.5649414062,-10279746.055603027,12340000.15258789,-2005462.646484375,-38595790.86303711,-38448627.47192383,-40056369.78149414,-12482050.895690918,-23173633.575439453,8155481.338500977,-12774470.329284668,-8835249.900817871,-7237097.263336182,-37840259.55200195,-39227054.595947266,-39624298.095703125,-23263898.849487305,6151397.228240967,-20253433.227539062,-20166076.66015625,-23425678.253173828,-38757415.771484375,-23389305.114746094,6776013.8511657715,1022415.7571792603
0.39,-35843711.853027344,-11664854.049682617,3472095.489501953,-39383899.6887207,-59999092.10205078,-55776733.3984375,-34314918.518066406,-33799667.35839844,-33039482.11669922,-5064843.17779541,-29223941.802978516,-15757180.213928223,4039644.241333008,14501920.700073242,-52171211.24267578,-33595199.58496094,-33229965.209960938,-31759840.01159668,-4178923.1300354004,-27031314.849853516,4113987.445831299,-17094181.060791016,-18844541.549682617,-25824796.676635742,-17779594.42138672,-32982742.309570312,-33180763.244628906,-23772859.573364258,-13356423.377990723,-45466014.86206055,-35477638.244628906,-670020.1630592346,-27477811.813354492,-27882272.720336914,-10122756.958007812,-9324678.421020508,-23475177.764892578,5902800.0831604,-7456822.395324707,15967085.838317871,6122313.976287842,-27581026.077270508,-27289964.67590332,-28864364.624023438,-7520123.9585876465,-14606150.62713623,10595752.716064453,-8075071.334838867,-2310913.0859375,-1482193.2315826416,-26674970.626831055,-28098407.745361328,-28475746.154785156,-14587574.005126953,12133070.945739746,-12901163.101196289,-12876176.834106445,-14798992.156982422,-27561721.801757812,-14765629.768371582,15335276.60369873,10424414.63470459
0.395,-37917976.37939453,-16338991.165161133,3039319.9920654297,-38507122.03979492,-56918514.251708984,-54681228.63769531,-34992576.599121094,-34518997.19238281,-33922538.75732422,-5105314.7315979,-26349489.212036133,-12686346.054077148,7626873.016357422,19301366.806030273,-50720249.17602539,-34313640.59448242,-33935546.875,-32493591.30859375,-5382797.2412109375,-27005464.553833008,6367721.5576171875,-13994542.121887207,-11623856.544494629,-24505191.802978516,-17650529.861450195,-33737461.09008789,-34027843.4753418,-23785877.227783203,-12060008.04901123,-43132694.244384766,-31713029.861450195,5033290.863037109,-25954837.799072266,-26574544.90661621,-10082104.682922363,-10379839.897155762,-23197340.01159668,7418123.245239258,-4764186.382293701,19576091.766357422,11429560.661315918,-26207859.03930664,-26007591.247558594,-27369960.78491211,-7382215.0230407715,-13405659.675598145,8913455.963134766,-6307503.223419189,2086902.141571045,358295.9473133087,-25468627.9296875,-26872077.94189453,-27275352.478027344,-13491905.212402344,12172093.391418457,-11238008.499145508,-11260181.427001953,-13587390.899658203,-26178041.458129883,-13477094.650268555,17271144.86694336,12711535.453796387
0.4,-37749290.466308594,-7303197.860717773,10398402.214050293,-39330078.125,-53749652.86254883,-60422321.31958008,-36495330.810546875,-36183250.427246094,-35321456.90917969,-2839647.7699279785,-23352651.596069336,-10471624.374389648,7295825.958251953,18867424.01123047,-58411853.7902832,-35818492.8894043,-35359828.94897461,-33798095.703125,-3867072.582244873,-26033763.885498047,9446773.529052734,-15269601.821899414,-12985675.811767578,-32534732.818603516,-23769393.920898438,-35299743.65234375,-35422817.23022461,-23040214.53857422,-11529684.066772461,-42991687.7746582,-33224822.998046875,2438686.3708496094,-35120655.05981445,-35743160.247802734,-14277540.20690918,-14825704.574584961,-25046068.19152832,7524008.274078369,-4892053.127288818,19040893.5546875,8061657.905578613,-35210803.9855957,-35162250.51879883,-36469867.70629883,-12196647.644042969,-19638154.983520508,4591782.569885254,-9141586.303710938,90979.95609045029,-5536342.144012451,-34731803.89404297,-36209793.09082031,-36515178.68041992,-19915359.497070312,6607627.391815186,-16909240.72265625,-16986333.8470459,-19791122.436523438,-35423984.52758789,-19678001.403808594,10868078.231811523,7430332.183837891
0.405,-35645881.65283203,2737781.524658203,16763187.408447266,-39823364.2578125,-53067378.997802734,-64311149.59716797,-36894908.9050293,-36673950.1953125,-35485321.044921875,-749288.4993553162,-23104743.95751953,-10147307.395935059,4892137.52746582,16057815.551757812,-64457046.50878906,-36176189.42260742,-35717998.50463867,-34032638.54980469,-1848929.8820495605,-25421335.220336914,11080011.367797852,-18849376.678466797,-18749732.971191406,-38504550.93383789,-27883392.333984375,-35699478.14941406,-35613513.9465332,-21839431.762695312,-12566484.451293945,-44699428.55834961,-36532424.92675781,-2419342.517852783,-42495029.44946289,-42921504.974365234,-16645105.361938477,-17788223.266601562,-26466257.095336914,7454647.541046143,-5871875.286102295,16869882.583618164,3255095.7202911377,-42258033.752441406,-42212280.2734375,-43672748.56567383,-15466475.486755371,-23504793.167114258,3245370.626449585,-11371160.507202148,-3320628.881454468,-10489768.981933594,-41819976.806640625,-43405807.49511719,-43597858.42895508,-23813121.795654297,4191815.8531188965,-20803293.228149414,-20839166.64123535,-23629053.115844727,-42705551.14746094,-23589088.439941406,6160902.976989746,4215785.503387451
0.41,-35026214.599609375,-72850.22735595703,14269968.98651123,-39203552.24609375,-55047336.57836914,-60412750.244140625,-36109706.87866211,-35821739.196777344,-34635936.73706055,-1724924.087524414,-26188125.610351562,-11082049.369812012,4653429.985046387,16516082.763671875,-60968479.15649414,-35323833.46557617,-35042022.705078125,-33408153.533935547,-2499985.694885254,-26517915.725708008,10704431.533813477,-19088653.564453125,-18724489.212036133,-35288276.67236328,-25008804.321289062,-34846496.58203125,-34713050.842285156,-21119390.4876709,-14545641.899108887,-45669101.71508789,-35491497.03979492,94052.58297920227,-40028118.13354492,-40293472.29003906,-14261434.555053711,-16680225.372314453,-25789142.608642578,8720444.679260254,-4443195.819854736,18332725.524902344,6487266.540527344,-39648563.385009766,-39445133.209228516,-41067810.05859375,-13476998.329162598,-19874290.466308594,6860327.72064209,-8532012.939453125,-1691390.3951644897,-6257331.848144531,-39026596.06933594,-40553127.28881836,-40873447.41821289,-19998020.17211914,9163428.30657959,-16882469.177246094,-16713125.228881836,-20021034.240722656,-40088504.791259766,-19981969.833374023,9720815.658569336,8345120.429992676
0.415,-36663436.88964844,-9851177.215576172,7885300.159454346,-38210186.00463867,-56641029.357910156,-53895912.170410156,-35485473.6328125,-35080646.51489258,-34095363.61694336,-4132075.309753418,-29021196.365356445,-11406881.332397461,7172266.006469727,20458318.71032715,-53765525.817871094,-34663803.10058594,-34577980.041503906,-33114051.818847656,-4672852.993011475,-28422319.412231445,10248454.093933105,-15536993.026733398,-12376963.61541748,-29472660.064697266,-20224424.362182617,-34137474.060058594,-34074897.76611328,-21305219.650268555,-15888435.363769531,-45315593.71948242,-31162740.70739746,7863550.662994385,-34744285.583496094,-35050865.173339844,-11383442.878723145,-14647718.42956543,-25015588.760375977,10081660.270690918,-1891245.2459335327,22330938.3392334,14098821.640014648,-34526565.55175781,-34162868.49975586,-35859436.03515625,-10671493.530273438,-15561519.622802734,10231743.812561035,-4430817.604064941,2111282.3486328125,1042209.267616272,-33766292.572021484,-35065277.099609375,-35726985.931396484,-15486648.559570312,13897301.67388916,-12108694.076538086,-11753862.380981445,-15712735.176086426,-34800697.326660156,-15572343.826293945,14694645.881652832,12997481.346130371
0.42,-37245174.407958984,-10531355.857849121,7919247.150421143,-37122680.6640625,-54694988.25073242,-53058330.53588867,-35347206.115722656,-34911148.07128906,-33910465.240478516,-3353589.7731781006,-27313678.741455078,-9568264.00756836,9166210.174560547,22659389.49584961,-53108230.59082031,-34564136.50512695,-34444690.7043457,-33084003.448486328,-4267080.307006836,-28739364.624023438,11758457.18383789,-13775664.329528809,-9608721.733093262,-30382654.190063477,-20448368.072509766,-33995361.328125,-33925987.243652344,-21771547.317504883,-15819439.888000488,-45821010.58959961,-30704254.150390625,9324665.069580078,-37152000.427246094,-37590839.38598633,-12695413.589477539,-15653492.92755127,-26740346.908569336,9029138.565063477,-2717818.9754486084,22008337.020874023,13676411.628723145,-37148136.138916016,-36765285.49194336,-38497257.232666016,-12812100.410461426,-18886316.299438477,7625137.3291015625,-6532097.816467285,-490202.933549881,-1645202.1598815918,-36469341.27807617,-37621147.15576172,-38509872.43652344,-18811296.463012695,9368746.757507324,-16662326.81274414,-16388374.328613281,-18950275.421142578,-37332771.30126953,-18740432.739257812,11213382.720947266,9597203.254699707
0.425,-33582008.361816406,1430985.927581787,15619674.682617188,-35101745.60546875,-50071659.088134766,-56481189.7277832,-34724060.05859375,-34339916.22924805,-33077396.392822266,1301483.9887619019,-22076297.760009766,-6509769.439697266,8127351.760864258,19920917.510986328,-58280475.61645508,-34044933.3190918,-33662738.80004883,-32301097.869873047,-682514.1906738281,-27353204.72717285,14392895.698547363,-17435977.935791016,-16149188.995361328,-36093303.68041992,-24171276.092529297,-33510276.794433594,-33273239.135742188,-21882751.46484375,-15362914.085388184,-48671894.07348633,-37034488.677978516,428007.66229629517,-45507385.25390625,-45947360.99243164,-16190254.211425781,-18947456.35986328,-30064512.252807617,5901275.634765625,-7721508.502960205,15241005.897521973,2573156.5952301025,-45498447.41821289,-45232532.5012207,-46962348.93798828,-18265413.284301758,-27470516.204833984,868377.7451515198,-14988488.19732666,-10101839.065551758,-14998247.146606445,-44994651.794433594,-46246475.21972656,-47060798.64501953,-27570657.73010254,-1078159.6899032593,-28401231.76574707,-28398109.436035156,-27491102.21862793,-45734127.044677734,-27289752.960205078,1280989.2892837524,597449.004650116
0.43,-25567050.93383789,16621362.686157227,24409431.45751953,-31224767.684936523,-46624366.760253906,-54604835.510253906,-33310848.236083984,-32965789.794921875,-31615325.927734375,5012359.619140625,-19595878.60107422,-5344627.857208252,4952432.155609131,15383623.123168945,-59012573.2421875,-32756462.09716797,-32151844.024658203,-30798297.882080078,1778509.497642517,-27480352.4017334,15017428.398132324,-23593013.763427734,-25804101.943969727,-37413360.595703125,-24547824.85961914,-32316989.89868164,-31861574.172973633,-22119142.532348633,-16196300.506591797,-52597080.23071289,-44838729.85839844,-9371967.315673828,-49342548.37036133,-49635105.13305664,-16424215.316772461,-20922246.9329834,-32067550.659179688,3932111.5016937256,-12275562.286376953,8776323.318481445,-7462467.670440674,-49168506.62231445,-49029281.61621094,-50671489.71557617,-20524398.803710938,-32030467.987060547,-2879469.871520996,-21616540.908813477,-16877939.224243164,-25064519.88220215,-48712295.53222656,-50176841.735839844,-50782627.10571289,-32271888.732910156,-5394681.930541992,-35057281.494140625,-35158157.34863281,-32252971.649169922,-49463607.78808594,-32009422.302246094,-4010227.680206299,-4003819.465637207
0.435,-15259816.16973877,29501142.501831055,31820739.74609375,-25567871.09375,-45992210.388183594,-43581211.09008789,-32086555.48095703,-31717691.42150879,-30698747.634887695,4203088.760375977,-23594049.45373535,-7513425.827026367,2382633.4476470947,14615414.6194458,-51016574.85961914,-31620895.385742188,-31014936.447143555,-29733270.6451416,83924.83741044998,-31246458.053588867,12369617.462158203,-27087415.69519043,-29499048.233032227,-32200431.82373047,-19995092.391967773,-31254167.556762695,-30666984.55810547,-23358877.182006836,-18605812.072753906,-55478778.83911133,-47872695.92285156,-10284422.874450684,-45356227.87475586,-45549678.802490234,-12706337.928771973,-20578441.619873047,-32211143.493652344,4830635.070800781,-12559641.83807373,9169641.494750977,-6419902.324676514,-45117794.036865234,-45006343.841552734,-46537425.99487305,-17667125.701904297,-29382312.774658203,-726290.8220291138,-20738782.88269043,-14040772.438049316,-21993097.30529785,-44567367.55371094,-46110790.25268555,-46611770.62988281,-29596876.14440918,764600.396156311,-31121551.513671875,-30995056.15234375,-29967132.568359375,-45381690.979003906,-29581262.588500977,46242.56491661072,-452541.3513183594
0.44,-3942851.3050079346,44910617.82836914,42721836.09008789,-18995256.423950195,-45058605.1940918,-31009634.017944336,-31652307.510375977,-31234550.47607422,-30673473.358154297,1610971.8084335327,-29833429.33654785,-10019904.136657715,2566827.5356292725,19283849.716186523,-41756427.76489258,-31189411.163330078,-30688121.795654297,-29482378.005981445,-3324592.113494873,-36128009.79614258,9340770.721435547,-26420711.517333984,-26436525.344848633,-27769193.649291992,-15809871.673583984,-30862314.224243164,-30248800.27770996,-25462087.631225586,-21244287.490844727,-56906246.185302734,-46359485.6262207,-4525680.5419921875,-41260860.443115234,-41509197.23510742,-9719031.33392334,-20307819.366455078,-32596206.665039062,6671091.079711914,-10322152.137756348,14048731.803894043,941213.9058113098,-41144992.82836914,-40970561.98120117,-42491001.12915039,-14380894.660949707,-25527917.861938477,2669042.3488616943,-16219364.166259766,-7391415.119171143,-12731737.13684082,-40539333.34350586,-41960166.931152344,-42483100.89111328,-25618297.576904297,8733008.38470459,-24688205.71899414,-24271818.161010742,-26297491.0736084,-41341846.46606445,-25841779.708862305,6514349.460601807,4774284.362792969
0.445,8067039.489746094,64910095.21484375,58489547.72949219,-12624581.336975098,-40208312.98828125,-25376707.077026367,-31244310.37902832,-30829408.645629883,-30427474.975585938,1860344.7675704956,-31098346.710205078,-8494103.43170166,6017260.551452637,25696842.193603516,-38240329.74243164,-30702606.201171875,-30242885.58959961,-29076786.041259766,-4567275.047302246,-37981109.619140625,9682589.530944824,-23598117.82836914,-22234947.204589844,-29009004.592895508,-15528770.446777344,-30466327.667236328,-29892471.313476562,-27375114.44091797,-22642055.51147461,-57670940.39916992,-44493938.44604492,-736590.8026695251,-42897911.071777344,-43226493.83544922,-10377726.554870605,-21750371.9329834,-33941860.19897461,7305520.057678223,-9208838.46282959,16609376.907348633,3729161.7393493652,-42918716.43066406,-42681701.66015625,-44273422.24121094,-14262802.124023438,-25564847.946166992,2625217.4377441406,-14598478.317260742,-6088942.050933838,-9650258.06427002,-42407833.099365234,-43622165.67993164,-44194469.4519043,-25579765.31982422,10009076.118469238,-24549922.943115234,-24134815.216064453,-26191104.888916016,-43102294.921875,-25882488.250732422,8098282.814025879,5284608.840942383
0.45,19067583.084106445,79110572.8149414,70016166.68701172,-7533005.714416504,-32872039.794921875,-24691152.572631836,-29896598.81591797,-29600912.09411621,-29029235.83984375,4456589.698791504,-26218238.830566406,-3140603.3039093018,10906700.134277344,28674272.537231445,-36198860.16845703,-29270824.432373047,-28863580.70373535,-27719108.58154297,-3872730.016708374,-36489765.16723633,13017889.022827148,-20859670.639038086,-20362915.0390625,-31614425.659179688,-16171403.884887695,-29188060.760498047,-28741418.838500977,-28522874.83215332,-22211065.2923584,-57971084.59472656,-43854316.71142578,-1676317.572593689,-45726562.5,-46003238.677978516,-12237947.463989258,-23541439.056396484,-34249389.6484375,7512267.112731934,-9230463.981628418,15253454.208374023,289167.25516319275,-45725997.92480469,-45499179.84008789,-47093505.859375,-15087579.727172852,-26836305.618286133,1002932.071685791,-15625363.34991455,-9272617.34008789,-13600108.14666748,-45372364.04418945,-46412002.56347656,-47036594.39086914,-26863332.748413086,7452364.444732666,-27795717.239379883,-27666633.60595703,-27214996.337890625,-45955116.271972656,-27133064.27001953,6625979.423522949,2924913.8832092285
0.455,24396905.89904785,73141563.41552734,65673873.90136719,-4636445.999145508,-28737138.748168945,-20301067.352294922,-27662984.84802246,-27612289.428710938,-26822593.688964844,4821418.762207031,-20795038.2232666,769161.3435745239,13517858.505249023,26221340.17944336,-27056417.46520996,-27014244.079589844,-26856595.993041992,-25698894.500732422,-4103765.9645080566,-34901283.264160156,15097701.072692871,-19557300.567626953,-20130064.010620117,-29768939.971923828,-13710198.402404785,-26992979.049682617,-26820177.07824707,-29168727.87475586,-19852294.921875,-57562572.47924805,-42855140.686035156,-3556042.9096221924,-43141933.44116211,-43257221.22192383,-12108199.119567871,-23708528.518676758,-32374214.17236328,8768468.856811523,-8244438.171386719,13609569.549560547,-2459871.292114258,-42982368.46923828,-42846172.33276367,-44315662.3840332,-13932913.780212402,-24904674.530029297,1864552.8554916382,-14758872.032165527,-9283198.356628418,-16112619.400024414,-42732517.24243164,-43649784.088134766,-44354713.439941406,-24970161.43798828,8009669.303894043,-26412706.37512207,-26517553.329467773,-25190570.831298828,-43287773.13232422,-25174648.28491211,7385875.225067139,2717457.7713012695
0.46,21558853.149414062,49157325.744628906,47556766.510009766,-4023659.2292785645,-30556528.091430664,-9180250.16784668,-25368217.46826172,-25607534.408569336,-24723550.79650879,1520753.1452178955,-19482126.235961914,-161965.66820144653,12005928.039550781,21549795.150756836,-11871438.980102539,-24741886.138916016,-24965801.239013672,-23711757.65991211,-5559299.945831299,-35082180.02319336,13545164.108276367,-20248760.223388672,-20590808.868408203,-25268880.84411621,-9322066.307067871,-24558385.848999023,-24764572.143554688,-29570127.487182617,-15861096.382141113,-57131587.982177734,-41267456.0546875,-4312238.2164001465,-37777088.1652832,-37750144.958496094,-10906316.757202148,-22692749.0234375,-30661296.844482422,9835891.723632812,-7024311.065673828,13233684.539794922,-1707197.666168213,-37469589.23339844,-37459190.368652344,-38777675.62866211,-12975848.197937012,-21842504.501342773,3667632.1029663086,-12454489.707946777,-5448195.457458496,-14614947.319030762,-37300422.66845703,-38120170.59326172,-38900764.46533203,-21938714.9810791,10075562.477111816,-21550945.281982422,-21584432.60192871,-22150625.228881836,-37887058.25805664,-22038024.90234375,9211956.977844238,4278036.594390869
0.465,16659357.070922852,32865917.205810547,35489467.62084961,-4307970.04699707,-33624820.709228516,2354140.9969329834,-24049385.07080078,-24477550.506591797,-23594436.645507812,-1326604.1278839111,-20935190.200805664,-1985721.230506897,10271191.596984863,21081445.693969727,-1960544.7053909302,-23448453.903198242,-23859857.5592041,-22476455.688476562,-5750456.3331604,-35611183.166503906,11537045.4788208,-21466753.005981445,-21191892.623901367,-24736225.128173828,-7651675.701141357,-23012752.532958984,-23510822.296142578,-29702171.325683594,-11676684.379577637,-57588512.4206543,-40994693.756103516,-5324573.993682861,-38224380.49316406,-38157283.782958984,-11762227.058410645,-22936986.923217773,-32101787.567138672,8639348.983764648,-8196375.846862793,12469179.153442383,-1923370.8381652832,-37915988.92211914,-37980995.178222656,-39221725.46386719,-16078084.945678711,-23338125.228881836,1363808.3934783936,-13908984.184265137,-5284323.692321777,-15484700.202941895,-37884201.04980469,-38610446.92993164,-39393428.802490234,-23475740.432739258,6763376.235961914,-22221691.131591797,-21970462.799072266,-23596057.891845703,-38444534.30175781,-23425912.857055664,6758735.179901123,3227860.450744629
0.47,19412216.186523438,49339340.20996094,47639804.84008789,-3604653.835296631,-31368301.391601562,6579630.374908447,-24882829.666137695,-25297904.96826172,-24483480.45349121,-22393.46317946911,-21769992.82836914,1499337.1963500977,14099529.266357422,28105083.465576172,-6153278.827667236,-24331115.72265625,-24547040.939331055,-23147632.598876953,-4018326.2825012207,-35166934.967041016,13552538.871765137,-20421590.80505371,-20274227.142333984,-30526628.494262695,-11029987.335205078,-23844940.185546875,-24344322.204589844,-29798475.26550293,-9829240.798950195,-58338012.6953125,-42587200.16479492,-6295426.845550537,-46615577.697753906,-46641124.7253418,-15167692.184448242,-25761478.424072266,-36078601.8371582,6448407.6499938965,-10780529.022216797,11569404.602050781,-5598399.1622924805,-46486419.677734375,-46501049.04174805,-47732192.99316406,-21607202.529907227,-29326602.935791016,-4579076.290130615,-19622640.60974121,-11467115.40222168,-22066699.981689453,-46578552.24609375,-47230987.548828125,-47905361.17553711,-29498435.974121094,-690578.7587165833,-30668558.12072754,-30217985.153198242,-29457860.946655273,-46987510.681152344,-29344781.87561035,482696.0861682892,-1182520.6279754639
0.475,26767545.700073242,84585662.84179688,73025260.92529297,-2465694.6659088135,-25722757.33947754,1803157.091140747,-28346754.07409668,-28589252.471923828,-27904710.76965332,3073172.8076934814,-22312564.849853516,8577066.421508789,21439624.786376953,36760898.59008789,-21983654.022216797,-27894205.09338379,-27735466.00341797,-26487117.767333984,-2898681.640625,-34862743.37768555,18208492.279052734,-17418270.111083984,-17735734.939575195,-38333820.34301758,-17356958.389282227,-27629655.838012695,-27835933.685302734,-29969867.706298828,-12005575.180053711,-58089035.03417969,-44419322.9675293,-5277061.939239502,-55148197.174072266,-55387050.62866211,-18214319.229125977,-29059070.587158203,-38733585.357666016,6709793.567657471,-10707316.398620605,12634465.217590332,-8643133.163452148,-55247669.2199707,-55126434.326171875,-56378612.51831055,-23135377.883911133,-32598182.678222656,-7183463.573455811,-22972978.591918945,-16365621.566772461,-28291078.567504883,-55277263.64135742,-55939723.96850586,-56389774.322509766,-32740066.528320312,-2318419.6949005127,-37374610.900878906,-36987716.67480469,-32699527.740478516,-55492488.861083984,-32625183.10546875,-2132822.275161743,-4539793.968200684
0.48,19897159.576416016,87161308.28857422,74434043.88427734,-4804514.408111572,-27121772.76611328,-8696712.493896484,-32898113.250732422,-32967658.99658203,-32345401.763916016,2461084.6042633057,-25349473.95324707,9753647.804260254,21690830.23071289,35845985.412597656,-40065670.013427734,-32523838.04321289,-32159679.412841797,-31099521.63696289,-3991347.074508667,-35859909.05761719,18880479.81262207,-17257188.79699707,-17761337.280273438,-43122379.302978516,-22706872.940063477,-32479259.490966797,-32334522.247314453,-29260787.963867188,-17183231.353759766,-57338699.34082031,-45780788.42163086,-4016090.3930664062,-55882030.48706055,-56318698.88305664,-18225719.451904297,-28902181.62536621,-37463035.583496094,9587263.107299805,-7605803.489685059,14157567.024230957,-7513729.572296143,-56027156.829833984,-55834068.298339844,-57129043.57910156,-17827360.153198242,-27983989.715576172,-2805025.815963745,-19696912.76550293,-13348057.746887207,-27618646.6217041,-55778602.600097656,-56588050.842285156,-56742359.16137695,-28054334.64050293,6068143.844604492,-33740634.91821289,-33572116.85180664,-28232435.22644043,-55921260.833740234,-28099275.588989258,3442985.773086548,-3383582.592010498
0.485,-10881666.18347168,31017644.88220215,33810188.29345703,-13509067.53540039,-40414768.21899414,-21239093.780517578,-35989192.962646484,-36019920.349121094,-35238956.451416016,-2988926.1722564697,-30862136.840820312,872248.2919692993,9921597.480773926,22341030.12084961,-53545452.11791992,-35583782.19604492,-35269569.396972656,-34273563.385009766,-5465286.2548828125,-37161552.42919922,12853709.22088623,-22783870.697021484,-23781469.345092773,-44534599.30419922,-25018781.661987305,-35498073.57788086,-35184104.919433594,-26753086.09008789,-22384626.388549805,-57953578.94897461,-47774326.32446289,-6906466.484069824,-50237632.751464844,-50642017.36450195,-15765964.50805664,-24400163.650512695,-33873279.5715332,11172818.183898926,-6202482.7003479,12096574.783325195,-5189451.694488525,-50160270.69091797,-50023841.857910156,-51368629.455566406,-10748868.942260742,-19492437.3626709,3107594.2516326904,-14274512.29095459,-6674334.0492248535,-22411153.79333496,-49608791.35131836,-50628025.05493164,-50555091.857910156,-19559946.060180664,16066129.684448242,-23706317.901611328,-23660062.789916992,-19943454.74243164,-49856632.232666016,-19769601.821899414,12422221.183776855,511676.0730743408
0.49,-43557506.5612793,-33126647.94921875,-12479644.775390625,-24994253.158569336,-54865280.15136719,-33281787.872314453,-37333511.35253906,-37431438.44604492,-36377571.10595703,-8415158.27178955,-35870319.36645508,-8806229.591369629,-2690409.8987579346,8079901.695251465,-61786846.16088867,-36846511.84082031,-36620552.06298828,-35548118.591308594,-5553276.062011719,-38038230.895996094,6230923.175811768,-29252576.82800293,-32008892.059326172,-46174301.14746094,-25769161.224365234,-36556800.842285156,-36232543.9453125,-24079650.87890625,-25673875.80871582,-60064937.591552734,-50519042.96875,-13428642.272949219,-46597057.3425293,-46719795.22705078,-13795377.731323242,-20139717.10205078,-32051753.997802734,9201082.229614258,-8898086.547851562,7776408.1954956055,-6672163.009643555,-46247714.99633789,-46163070.67871094,-47534503.93676758,-9013631.820678711,-15903197.288513184,3523951.530456543,-13107599.258422852,-4721838.95111084,-20084262.84790039,-45565410.61401367,-46674942.01660156,-46597938.537597656,-16055786.1328125,18610692.977905273,-18020933.151245117,-17889844.89440918,-16440088.272094727,-45966411.59057617,-16349231.719970703,16794057.846069336,2777856.1115264893
0.495,-44776306.15234375,-26968950.271606445,-9617016.792297363,-31151737.213134766,-55703701.01928711,-42280357.360839844,-39408843.994140625,-39518310.546875,-38395603.17993164,-9513511.657714844,-39432495.1171875,-7906894.683837891,-1440288.6629104614,6598787.784576416,-66791770.935058594,-38943286.89575195,-38648616.790771484,-37474109.6496582,-6049413.204193115,-40627208.7097168,5931506.156921387,-30079359.05456543,-36062255.859375,-50587902.0690918,-27720821.380615234,-38570705.41381836,-38183948.5168457,-24693326.950073242,-28006465.911865234,-61809799.19433594,-52575309.75341797,-17663181.30493164,-49804763.79394531,-49691745.75805664,-14175186.157226562,-21380088.806152344,-34291053.771972656,6324869.155883789,-11647124.290466309,7966567.039489746,-12133928.298950195,-49411930.084228516,-49247718.811035156,-50623992.919921875,-13353564.262390137,-20477939.60571289,-622456.4909934998,-15625382.423400879,-8031451.225280762,-23176530.838012695,-48775863.64746094,-49768001.556396484,-49896217.346191406,-20661281.58569336,16314285.278320312,-20245285.034179688,-19960296.630859375,-20933425.903320312,-49202972.412109375,-20956005.096435547,14959364.891052246,1518360.7339859009
