time,Fp1,Fpz,Fp2,AF3,AF4,F7,F5,F3,F1,Fz,F2,F4,F6,F8,FT7,FC5,FC3,FC1,FCz,FC2,FC4,FC6,FT8,T7,C5,C3,C1,Cz,C2,C4,C6,T8,TP7,CP5,CP3,CP1,CPz,CP2,CP4,CP6,TP8,P7,P5,P3,P1,Pz,P2,P4,P6,P8,PO7,PO5,PO3,POz,PO4,PO6,PO8,CB1,O1,Oz,O2,CB2
0.0,1189459.4430923462,-10347540.855407715,-14947804.45098877,1196215.033531189,-7136054.039001465,13137922.286987305,3907579.183578491,3869190.216064453,3730049.6101379395,676948.9049911499,-4184998.5122680664,-6056988.716125488,-9596221.923828125,-17465112.686157227,11966227.531433105,3898793.2205200195,3776067.2569274902,3694725.751876831,378981.20284080505,-2506009.578704834,-3130614.5191192627,-10670713.424682617,-11809543.60961914,7490860.462188721,3712153.434753418,3818045.6161499023,3681067.46673584,-889052.3314476013,-228750.61631202698,239251.5391111374,-6447256.565093994,-6672712.802886963,3291959.047317505,3297435.2836608887,1045428.8721084595,3579607.2483062744,-1076526.6418457031,-327962.81576156616,-2567568.54057312,-5057830.810546875,-5676349.16305542,3282241.8212890625,3249026.7753601074,3255828.857421875,595982.8495979309,1092085.1230621338,-360561.0132217407,-1221774.8165130615,1962396.0256576538,-2819133.2817077637,3285031.795501709,3275442.8386688232,3212750.6732940674,1089087.963104248,-3072617.292404175,-351612.5977039337,-360364.52651023865,1071113.4672164917,3255345.8213806152,1083322.286605835,-2078076.6010284424,596707.820892334
0.005,26148351.669311523,19495866.775512695,11825952.529907227,1751232.385635376,11323365.211486816,-106909.8711013794,643700.122833252,1399733.7818145752,-373879.64129447937,6959224.700927734,6805209.636688232,12627639.770507812,10194388.389587402,15922410.96496582,1808951.735496521,821349.561214447,1111804.485321045,1160852.6706695557,-458765.32793045044,97891.88951253891,5551609.992980957,4297242.641448975,4904142.379760742,3628717.4224853516,-1047150.8502960205,1751164.436340332,1345787.763595581,-1140588.641166687,-271625.48899650574,647079.4081687927,-305033.53476524353,18101903.915405273,1250952.959060669,2418238.1629943848,-1174998.164176941,1879116.8928146362,-387793.3919429779,1067288.0411148071,-3082149.7440338135,550845.1461791992,11088400.840759277,874477.744102478,1248786.8070602417,874897.3608016968,636444.2110061646,-696896.0165977478,-2122166.156768799,-721112.7877235413,3938790.0829315186,-1482303.3809661865,1175503.9691925049,633442.6999092102,1710067.5106048584,-187904.84964847565,1630983.829498291,-91675.97442865372,-272814.48245048523,-812776.7443656921,1045135.498046875,-1567969.799041748,-2278023.4813690186,-1361529.9463272095
0.01,30992624.282836914,31066596.98486328,24639522.552490234,-704981.0290336609,18141788.482666016,-10903608.322143555,-2720768.2132720947,-1741013.0500793457,-3971596.7178344727,8416614.532470703,11266203.880310059,22084129.333496094,20635002.13623047,34491863.25073242,-6855846.405029297,-2484568.1190490723,-1912829.5183181763,-1779804.4681549072,-1102854.609489441,2970760.5838775635,9754503.25012207,13744415.283203125,15598483.085632324,1037384.9868774414,-4640267.848968506,-1141874.5517730713,-1556465.983390808,-548469.1262245178,-337388.7240886688,200881.12354278564,4615140.914916992,29914369.583129883,71050.16708374023,1671298.2654571533,-2603809.8335266113,686110.0792884827,40861.476212739944,2281124.8302459717,-2727940.320968628,3664127.5882720947,17863246.91772461,-420758.60500335693,50557.66552686691,-573098.7191200256,2289497.6139068604,-1990744.4715499878,-3185479.164123535,-304179.72803115845,3109325.408935547,-611449.8376846313,-44348.85084629059,-821999.2518424988,756468.7132835388,-1360039.472579956,1999923.7060546875,-1675734.519958496,-1929270.9827423096,-2335997.8199005127,-176521.36087417603,-3314284.086227417,-2934743.4043884277,-3432190.8950805664
0.015,18860715.866088867,25517274.856567383,24585834.503173828,-4912474.632263184,14212543.487548828,-16737598.419189453,-5625473.0224609375,-4918353.080749512,-6696532.726287842,4900069.236755371,8565867.42401123,21290014.266967773,20692155.838012695,37096675.872802734,-11106557.846069336,-5467308.521270752,-4838264.465332031,-4677189.826965332,-2404408.9317321777,4248400.688171387,8864633.560180664,15821313.858032227,17982439.041137695,703566.0743713379,-5439137.935638428,-4289858.818054199,-4597807.40737915,66164.0390753746,-1112839.8180007935,-1478231.3108444214,6657616.61529541,29119791.03088379,1094712.9726409912,2356382.6084136963,-2434666.872024536,103999.01121854782,550789.9522781372,2453348.159790039,-2599160.1943969727,2757083.4159851074,15769030.570983887,601313.9486312866,900360.0478172302,266982.9726219177,5328093.0519104,-241034.25443172455,-2855265.6173706055,193598.06180000305,565623.5218048096,186333.13477039337,919228.196144104,181603.5658121109,1733848.4525680542,264813.21454048157,982428.1930923462,-3624013.900756836,-3865988.9698028564,-789749.5031356812,865486.3834381104,-1506500.244140625,-1676126.480102539,-2274889.7075653076
0.02,9475287.437438965,17340963.36364746,21307655.334472656,-5798187.255859375,9194884.300231934,-14966086.387634277,-5969847.202301025,-5502261.638641357,-7004742.622375488,1652763.843536377,4113525.390625,16609733.581542969,16029409.408569336,31343952.178955078,-7808989.524841309,-5920221.328735352,-5416501.522064209,-5270532.608032227,-4014624.59564209,2315515.5181884766,6031799.793243408,11511938.095092773,13221589.088439941,3194584.1312408447,-2895488.0237579346,-4992884.635925293,-5399109.840393066,-357523.94795417786,-3047706.127166748,-3565566.062927246,4104254.2457580566,24614580.154418945,4488292.694091797,5248281.002044678,-863545.7158088684,332077.9502391815,1083817.958831787,751373.5890388489,-4385994.434356689,-1794201.135635376,11930859.565734863,3852117.3000335693,3999436.140060425,3561370.1343536377,7077824.115753174,4709949.493408203,-1776139.8553848267,245082.5870037079,-909324.4671821594,367244.154214859,4235230.922698975,3515923.9768981934,5057696.81930542,5249869.823455811,2335109.9491119385,-4494212.1505737305,-4698190.212249756,4253562.450408936,4186412.3344421387,3771370.4109191895,1760331.153869629,2778458.3568573
0.025,13748341.56036377,16210458.755493164,20325920.10498047,-530415.1773452759,9470504.760742188,-6259600.639343262,-2313206.672668457,-1749010.3244781494,-3478662.7292633057,3863030.6720733643,3802833.5571289062,15032118.797302246,12751164.436340332,24263177.8717041,1733615.517616272,-2295311.689376831,-1900747.7760314941,-1801135.778427124,-3541944.0269470215,-655415.7137870789,5029131.4125061035,4743293.285369873,6056259.1552734375,7843677.520751953,737037.5394821167,-1355919.8379516602,-2071151.4949798584,-944983.4823608398,-5164906.978607178,-4366784.09576416,-1519392.0135498047,22205644.607543945,8047120.094299316,8711615.562438965,577163.815498352,1395642.2805786133,969009.0417861938,-2121597.0516204834,-7334717.750549316,-6882502.07901001,9638107.299804688,7213163.85269165,7402733.80279541,7136605.739593506,5220592.498779297,7502600.66986084,-1930534.9588394165,-1038891.1962509155,-1156373.2624053955,-1242484.68875885,7832113.742828369,6906464.099884033,8620260.238647461,8276825.904846191,3256036.0431671143,-6073408.603668213,-6217823.028564453,7385183.334350586,7586779.1175842285,6799385.547637939,2258331.537246704,5214622.497558594
0.03,23576974.868774414,22915906.90612793,25174989.700317383,6411553.859710693,14806765.55633545,708857.3575019836,2105873.5847473145,2928212.4042510986,1049785.9716415405,9885740.280151367,8526971.817016602,19971616.744995117,15780350.685119629,24758445.739746094,8650967.597961426,2187019.8249816895,2662815.3324127197,2705105.5431365967,-576730.7281494141,-313413.3219718933,7630430.221557617,4976806.640625,6178554.534912109,11792661.666870117,2082958.9366912842,3321868.1812286377,2403156.9957733154,140351.92131996155,-5772621.631622314,-3259338.855743408,-2937465.4293060303,23703800.201416016,9316367.149353027,10264966.011047363,864752.7098655701,1850829.005241394,811361.6704940796,-3900892.496109009,-8194540.977478027,-7544632.911682129,10096731.185913086,8512849.807739258,8869871.139526367,8533920.288085938,1776173.1147766113,3700084.447860718,-3831024.8851776123,-2615599.8706817627,-2219665.765762329,-2402781.0096740723,9314772.605895996,8108108.5205078125,9882686.614990234,4577949.523925781,1193873.2862472534,-9275541.305541992,-9363815.307617188,3782394.4091796875,8768430.709838867,2934795.618057251,-3162676.0959625244,148252.6808977127
0.035,26480146.408081055,34947734.83276367,40019950.86669922,7355897.426605225,22084299.087524414,-4076062.6792907715,1358279.9434661865,2298807.8594207764,650067.5082206726,12399358.749389648,13734792.709350586,29706525.802612305,26295116.424560547,41093971.252441406,4391669.750213623,1527492.5231933594,2194643.259048462,2205179.6913146973,1046823.8592147827,3755359.888076782,12408788.681030273,19490631.103515625,20286434.173583984,11948954.582214355,561476.1710166931,2786651.611328125,1944891.9296264648,2651870.9659576416,-4572909.355163574,-1855112.5526428223,5704767.70401001,30711936.950683594,8633830.070495605,9796540.260314941,929965.4364585876,-220499.87316131592,2488434.076309204,-3087282.180786133,-5396412.372589111,-1679871.4399337769,16363164.901733398,8080678.939819336,8582762.718200684,7981060.50491333,1660333.9910507202,-2689393.2819366455,-5084088.325500488,-1728930.4733276367,-4464626.312255859,1738458.6334228516,8833848.95324707,7587687.015533447,9155555.725097656,-1984366.4169311523,1641444.6830749512,-10348935.1272583,-10479002.952575684,-2783328.2947540283,8140105.247497559,-3732749.9389648438,-8431895.25604248,-6187077.522277832
0.04,22036697.387695312,45158439.63623047,57591552.734375,1887090.9214019775,26087646.484375,-16164270.401000977,-4377750.396728516,-3545841.4554595947,-5017759.323120117,8100593.566894531,14294891.357421875,36976032.25708008,36207859.03930664,63084251.403808594,-6059348.106384277,-4184952.2590637207,-3496939.182281494,-3476257.562637329,-1343081.7127227783,6026651.382446289,15386970.520019531,37955436.70654297,37789279.93774414,9453651.428222656,-773168.0274009705,-3004176.378250122,-3681370.0199127197,3992126.46484375,-3243799.924850464,-2027851.1047363281,17129781.72302246,40011157.98950195,8464645.385742188,9517301.559448242,2016290.9030914307,-3610361.8144989014,5499453.544616699,-968342.7214622498,-2171892.1661376953,5354024.410247803,25953981.399536133,8073300.361633301,8610572.814941406,7802434.44442749,5716897.010803223,-3820374.9656677246,-3789460.1821899414,1512800.3358840942,-5930162.42980957,9928049.087524414,8626177.787780762,7656836.50970459,8976231.575012207,-3311500.7877349854,9047148.704528809,-6746774.196624756,-7031195.640563965,-4227021.217346191,8057350.158691406,-5077457.904815674,-6500826.835632324,-4496362.209320068
0.045,19670680.99975586,41740650.17700195,56612709.045410156,-1029447.9131698608,20600769.04296875,-16290252.685546875,-6520058.155059814,-5917901.515960693,-7591608.047485352,2974341.1540985107,9799824.714660645,33644554.138183594,31962297.439575195,61334983.825683594,-6077194.690704346,-6396285.533905029,-5979828.834533691,-5943756.103515625,-3974305.6297302246,1457438.1113052368,13319375.991821289,36266719.818115234,35690158.84399414,9990940.09399414,624948.2035636902,-5453474.521636963,-6139925.956726074,2655705.9288024902,-3462481.0218811035,-3299939.8708343506,14801619.529724121,40672466.27807617,9862144.470214844,10694490.432739258,3357210.874557495,-3886677.7420043945,5849517.822265625,-194780.31992912292,-3402411.937713623,4494760.990142822,26383644.104003906,9394204.139709473,9841041.564941406,9035303.115844727,8465920.448303223,703274.4884490967,-2052082.0617675781,2245024.2042541504,-5685419.55947876,12169010.162353516,9791679.382324219,9153070.449829102,10389782.905578613,1232575.77419281,14877441.40625,-3890558.0043792725,-4280686.378479004,245118.45409870148,9454396.24786377,-477247.2679615021,-1601084.7091674805,2280811.071395874
0.05,24594514.846801758,22307365.41748047,28736824.03564453,5248064.041137695,6126338.958740234,4872510.91003418,713885.4265213013,1101079.9407958984,-834856.4505577087,4368117.809295654,4841917.991638184,20367527.00805664,11917651.176452637,23992771.14868164,11392940.521240234,744127.3331642151,837167.9782867432,833007.3952674866,-1444789.8864746094,-7302463.531494141,7622945.785522461,7191862.5831604,7773936.2716674805,16923175.811767578,3383807.897567749,1428351.9983291626,583148.6582756042,492305.07016181946,-4983119.487762451,-3587996.7212677,-5162214.756011963,26936063.766479492,11410595.893859863,12237416.26739502,3257043.3616638184,770181.4770698547,1524223.6852645874,-1304604.5303344727,-9202538.49029541,-5913505.554199219,10391040.802001953,10796632.766723633,11107128.143310547,10402713.775634766,5707191.467285156,3380445.2419281006,-3295476.198196411,-3010391.9506073,-5292496.204376221,2461423.635482788,11174068.450927734,10651927.947998047,11883170.127868652,4041017.532348633,7350327.491760254,-8896174.430847168,-9212388.99230957,3153777.837753296,10942303.657531738,2520417.6902770996,-4105294.2276000977,2146961.450576782
0.055,31381435.39428711,3855827.3315429688,-386844.60520744324,14561618.80493164,-6046298.503875732,28603687.286376953,10411609.649658203,10697543.144226074,8798661.231994629,10288768.768310547,3670051.097869873,8791250.228881836,-6032691.955566406,-15699479.103088379,30686046.600341797,10438375.473022461,10476017.951965332,10358479.499816895,4443544.864654541,-12222028.732299805,3512807.846069336,-22526496.88720703,-20103111.267089844,25342744.827270508,4708781.2423706055,10989838.600158691,10091255.187988281,359983.3548069,-6352064.13269043,-2591547.4891662598,-23588836.669921875,11142081.260681152,11896045.684814453,12926624.298095703,2164039.373397827,5764380.931854248,-3017353.7731170654,-2087025.6423950195,-13947285.652160645,-15852773.666381836,-8211026.191711426,11226346.015930176,11524496.078491211,10843411.445617676,1378035.306930542,357696.3543891907,-6686944.961547852,-9977594.375610352,-6219927.787780762,-9556174.278259277,11688637.733459473,11084878.921508789,12251023.292541504,1037931.4422607422,-8599926.948547363,-18541994.094848633,-18720140.45715332,293952.67367362976,11385274.887084961,-217594.89178657532,-13568463.325500488,-6818634.510040283
0.06,31608396.530151367,5267496.109008789,1948318.0046081543,14973840.713500977,-5251226.425170898,28186464.309692383,10963515.281677246,11295263.290405273,9554088.592529297,11971851.348876953,5474503.993988037,9118811.60736084,-4041851.9973754883,-13654898.643493652,30708560.943603516,11131936.073303223,11353323.936462402,11113650.32196045,6229860.305786133,-9562769.889831543,3969485.04447937,-21691167.8314209,-18354583.740234375,26499494.552612305,4856758.594512939,11701254.844665527,11022034.645080566,2441858.5300445557,-6975507.736206055,-2593558.5498809814,-20090087.890625,11526214.599609375,12200129.508972168,13361298.561096191,2567684.8888397217,5530187.606811523,-1876256.823539734,-956076.6816139221,-12936410.903930664,-14600716.590881348,-8186698.913574219,11509022.71270752,12008150.100708008,11251893.997192383,2365556.001663208,-2938372.3735809326,-7573119.640350342,-10812036.514282227,-7585643.768310547,-8539349.555969238,12101288.795471191,11402682.304382324,12506769.180297852,-2339933.395385742,-14598875.045776367,-21367021.560668945,-21526779.174804688,-3121961.1167907715,11644101.1428833,-3497648.4775543213,-17178747.177124023,-11892535.209655762
0.065,24475326.538085938,21176443.099975586,30172603.607177734,5282861.232757568,3958574.5334625244,5282973.766326904,2310594.5587158203,2768513.2026672363,988330.066204071,6538445.949554443,6123633.861541748,17179071.4263916,11683421.13494873,25198776.245117188,13144158.363342285,2694987.7738952637,2996299.982070923,2740625.3814697266,1596967.6971435547,-4242378.711700439,6192321.300506592,3475081.9206237793,7109177.112579346,19300951.00402832,6110557.556152344,3294917.583465576,2998075.9620666504,4332091.331481934,-7479896.545410156,-5004793.167114258,-862653.4938812256,27183492.66052246,13678914.070129395,14724787.712097168,5211461.067199707,1445846.676826477,3697519.063949585,679553.210735321,-8161931.037902832,-4149732.1128845215,9938940.048217773,12934773.445129395,13682781.219482422,12842333.793640137,8260314.94140625,-409117.07282066345,-3907796.621322632,-4383470.058441162,-7168417.453765869,5966127.395629883,13615298.2711792,12887040.138244629,14034849.166870117,173726.11165046692,-4028650.7606506348,-12975061.416625977,-13178984.642028809,-796405.9114456177,13019107.818603516,-1185586.2140655518,-8038248.062133789,-4519996.166229248
0.07,17336738.58642578,27763755.798339844,45537319.18334961,-2859576.2252807617,6977844.23828125,-10193443.298339844,-3816306.3526153564,-3256270.64704895,-5167324.542999268,854084.2533111572,3971665.382385254,20130121.2310791,18702842.712402344,49658500.67138672,1397210.3595733643,-3288331.0317993164,-3180588.0069732666,-3289864.3016815186,-3172188.0435943604,-2984354.257583618,6085265.159606934,17027748.107910156,21643331.52770996,12943373.680114746,8099544.525146484,-2749017.9538726807,-2789649.248123169,4403823.375701904,-8141312.599182129,-7634942.054748535,8886075.019836426,38164260.86425781,15878956.79473877,16678342.819213867,7464650.1541137695,-41411.56002879143,6510687.828063965,724829.6737670898,-5149641.036987305,3755951.404571533,23255821.228027344,15145850.18157959,15917624.473571777,15021586.418151855,11737316.131591797,5684428.691864014,1059451.2224197388,2340402.841567993,-3645324.70703125,18388591.766357422,15762346.267700195,15018445.014953613,16260002.136230469,6344787.59765625,9100979.804992676,-1888038.992881775,-1997190.8330917358,5301803.5888671875,15143903.732299805,4696942.329406738,4467412.948608398,6449314.117431641
0.075,16226263.046264648,15611509.323120117,29387050.62866211,-1041136.7416381836,-987050.7717132568,-286754.22072410583,-703247.4875450134,-90872.1461892128,-1943325.5195617676,1031498.0745315552,1627083.8975906372,13967494.96459961,8883050.918579102,30898639.678955078,9325683.59375,-201843.2915210724,-302993.2975769043,-201834.0528011322,-2611160.2783203125,-5902805.805206299,4255925.65536499,2834720.8499908447,8295390.1290893555,15120388.984680176,7703898.4298706055,314945.1017379761,202877.64072418213,3538359.8804473877,-8203868.865966797,-7264481.067657471,-611750.6623268127,32914951.32446289,16945884.704589844,17582689.28527832,6685449.123382568,2977742.6719665527,3557245.7313537598,-252540.4989719391,-5503005.027770996,3175465.1069641113,18041044.235229492,16367706.298828125,16901901.245117188,15977638.244628906,9061845.779418945,8479632.377624512,3777363.3003234863,4006379.6043395996,2181675.434112549,18056701.66015625,16765216.827392578,16011629.104614258,17289642.333984375,9174339.294433594,11222938.537597656,2589731.216430664,2682546.1387634277,8285471.9161987305,16342712.40234375,7469051.837921143,8185438.15612793,7918594.837188721
0.08,18587478.637695312,793311.595916748,6118983.745574951,4893463.611602783,-9778695.106506348,17713733.673095703,4654417.037963867,5307621.955871582,3636070.2514648438,3913801.908493042,1213551.8789291382,7383962.154388428,-3070280.5519104004,-1427324.652671814,23305671.69189453,4990036.487579346,4991063.117980957,5168272.018432617,312878.5192966461,-8151965.141296387,4082215.3091430664,-16633123.397827148,-12336894.035339355,20902410.50720215,4179697.9904174805,5703123.092651367,5298651.695251465,3172862.0529174805,-7434857.8453063965,-4314613.819122314,-12747798.919677734,22009897.232055664,15648524.284362793,16305751.80053711,3704236.2689971924,5277481.555938721,-172493.577003479,-86481.34022951126,-6046109.676361084,-410538.7032032013,6327445.507049561,15261894.226074219,15548453.330993652,14684583.66394043,4666060.924530029,5960549.354553223,4810163.974761963,2880553.960800171,7268043.041229248,11284045.219421387,15469081.87866211,14768558.502197266,16023126.602172852,6573165.8935546875,6587172.985076904,1311442.494392395,1440126.1806488037,5867056.846618652,15387799.263000488,5073183.536529541,4239593.505859375,955854.1178703308
0.085,18091962.814331055,-419815.7787322998,4327820.301055908,4495968.818664551,-10437318.801879883,18029306.411743164,3230008.363723755,3902619.6002960205,2250873.327255249,3047685.146331787,828592.0023918152,7568447.113037109,-3635431.0512542725,-6251461.982727051,22583572.387695312,3391211.50970459,3723275.899887085,3765004.1580200195,-263543.5163974762,-7860353.469848633,5377192.02041626,-17421634.674072266,-14998252.868652344,19150857.92541504,943152.129650116,4388756.75201416,3816377.639770508,3178648.7102508545,-7353510.37979126,-2815516.710281372,-11732748.031616211,19393377.30407715,12533244.132995605,13342689.514160156,1603250.26512146,2962563.5147094727,307505.93543052673,1244487.1664047241,-4966478.8246154785,-953562.319278717,4379133.701324463,12231666.564941406,12468664.169311523,11790616.035461426,3763203.6209106445,2157529.592514038,6161277.770996094,3105460.8821868896,7958086.967468262,8684547.424316406,12463442.8024292,11841023.445129395,13059330.940246582,2658394.8135375977,5952745.43762207,-42597.610503435135,-132383.68928432465,1953664.8988723755,12562884.330749512,1366312.3846054077,2111924.171447754,-3353568.7923431396
0.09,14700248.718261719,8080509.185791016,19346595.764160156,-2149088.8595581055,-6192503.452301025,2155674.457550049,-2901875.4959106445,-2289706.9454193115,-4083331.58493042,-1130432.2481155396,-1702443.1228637695,11241395.950317383,2449744.939804077,13484183.311462402,7713325.977325439,-2803297.281265259,-2314430.9520721436,-2447322.368621826,-4009579.658508301,-7628760.814666748,4877802.848815918,-6161777.496337891,-3096832.513809204,9042792.320251465,1133387.3271942139,-1804464.1017913818,-2206674.098968506,2802913.4273529053,-9498448.371887207,-5212549.686431885,-3982066.6313171387,23482585.906982422,9790630.340576172,10749276.161193848,2249230.38482666,-444425.7318973541,3139917.8504943848,1457894.9213027954,-4459313.39263916,-254779.27923202515,9962250.709533691,9483181.953430176,9809624.671936035,9298207.28302002,5415591.239929199,684154.9277305603,7032551.288604736,4074148.178100586,3673296.2131500244,10454724.311828613,9910692.21496582,9236248.016357422,10430759.42993164,1165297.8658676147,8982478.141784668,-573179.7218322754,-874557.2566986084,335208.6842060089,9803286.5524292,-126922.8607416153,4566830.635070801,-1225315.6900405884
0.095,15037081.718444824,14782036.781311035,30189853.66821289,-5720220.08895874,-3441297.769546509,-7189548.492431641,-5094294.07119751,-4608983.516693115,-6471095.561981201,-2773007.63130188,-4087785.7208251953,12862558.364868164,5167719.36416626,26969417.572021484,-2288789.2723083496,-4949698.448181152,-4665304.660797119,-4791572.093963623,-5848114.013671875,-8504878.997802734,2592114.4485473633,-946434.8554611206,4316524.505615234,3395246.5057373047,4691032.409667969,-4315993.309020996,-4418517.589569092,2694091.0816192627,-12913538.932800293,-9277606.010437012,-2792786.8366241455,25730157.85217285,10130966.186523438,11104797.36328125,5449094.772338867,315772.68242836,4099967.9565429688,-211989.79020118713,-6017166.1376953125,-1560590.386390686,12368466.3772583,9808881.759643555,10216848.373413086,9648415.565490723,6004786.491394043,1353132.2479248047,5558794.975280762,3403807.1632385254,-1413606.1668395996,11390161.514282227,10404158.592224121,9489794.731140137,10733977.317810059,1938828.1106948853,8915721.893310547,-2153950.2143859863,-2432935.2378845215,1038601.3984680176,9883095.741271973,493863.6124134064,6616319.179534912,1546741.6048049927
0.1,22080337.524414062,18644729.614257812,33216651.916503906,-1377652.5259017944,-1877321.8393325806,843615.2338981628,-848904.1924476624,-467305.3026199341,-2309404.6115875244,-250511.7654800415,-2739970.6840515137,13091387.748718262,4873521.327972412,26079437.255859375,3602502.8228759766,-691048.2048988342,-699460.6256484985,-689205.7061195374,-4247834.6824646,-7888801.574707031,2107640.9816741943,-869813.7402534485,3340026.378631592,12014879.22668457,11162450.790405273,-371491.58120155334,-475163.63859176636,4341101.64642334,-15002984.046936035,-11682170.867919922,-6226561.069488525,26111637.115478516,14495630.264282227,15363562.58392334,10538067.817687988,4378480.434417725,3731482.982635498,-1674659.9674224854,-7362751.483917236,-2226612.5679016113,12276708.602905273,14139512.062072754,14611485.481262207,13822051.048278809,5700851.917266846,2636281.4903259277,3067929.983139038,2373651.9813537598,-2981447.219848633,12158263.206481934,14791897.773742676,13629300.117492676,15045725.82244873,3380351.781845093,7004131.317138672,-2905448.9135742188,-3048017.2634124756,2502159.833908081,14059128.761291504,1824097.5141525269,6263771.057128906,2174845.4570770264
0.105,29744428.634643555,22133844.37561035,36022018.43261719,6389505.386352539,-884934.6041679382,16555601.119995117,5167276.382446289,5496347.904205322,3525276.6609191895,1710811.8534088135,206439.91231918335,13110144.61517334,4231562.13760376,25922735.2142334,17499147.415161133,5170768.260955811,5142617.225646973,5117163.181304932,-2725986.957550049,-5462020.397186279,3293025.493621826,3387943.5062408447,2857344.86579895,27239965.438842773,21237525.939941406,5620063.304901123,5071047.782897949,7544452.19039917,-15087709.426879883,-12954237.937927246,-5576734.54284668,27697854.99572754,20362672.805786133,21221511.840820312,16862127.30407715,7126997.470855713,5174791.33605957,-1522711.5154266357,-6984828.472137451,152582.3473930359,15809822.082519531,19935785.2935791,20495647.430419922,19646345.138549805,7147111.415863037,3750893.3544158936,2737680.673599243,3195688.486099243,-2572243.6904907227,15479675.29296875,20612836.837768555,19425670.623779297,20999940.872192383,4595822.811126709,9368474.006652832,-269761.2941265106,-387953.2217979431,3733335.494995117,20015319.82421875,3061307.668685913,6742993.354797363,4466753.005981445
0.11,30650640.4876709,17863807.678222656,32047348.022460938,11916768.074035645,-6993011.951446533,30541658.401489258,9843773.84185791,10107263.565063477,7802942.276000977,-430928.5283088684,-1877470.850944519,8237663.269042969,-3186949.0146636963,25084243.774414062,27657058.715820312,9584119.79675293,9790664.672851562,9406885.147094727,-3651840.2099609375,-6077761.173248291,690945.565700531,3673110.4850769043,228174.16489124298,32097442.626953125,32407966.61376953,10426858.901977539,9309433.937072754,9930984.497070312,-15363797.187805176,-16266761.779785156,-5422512.531280518,24723279.95300293,23498424.530029297,24647947.311401367,22861566.5435791,7793614.387512207,7554471.969604492,-1493912.8160476685,-7998887.062072754,-7207.50167965889,17237239.837646484,23080518.72253418,23677761.07788086,23079826.35498047,9836964.60723877,4170232.7728271484,4524621.963500977,3652667.760848999,-5596532.344818115,16631956.100463867,23771512.985229492,22784627.91442871,24272026.06201172,5017149.448394775,13665128.707885742,2322578.6685943604,2137321.710586548,4129666.805267334,23422426.223754883,3557760.715484619,8680788.040161133,9079176.902770996
0.115,25706563.94958496,-962861.0610961914,9418741.226196289,14044585.227966309,-24103080.74951172,43933235.16845703,13638059.616088867,13823082.92388916,11247352.600097656,-4668648.719787598,-10457961.082458496,-4114692.211151123,-21562276.84020996,4562740.802764893,32142406.463623047,13250277.519226074,13614772.79663086,12794941.902160645,-5512776.851654053,-12592337.608337402,-7478552.81829834,-13672715.187072754,-16094322.204589844,20673864.364624023,36958904.26635742,14256847.381591797,12853683.471679688,9650291.442871094,-17367776.87072754,-21860336.303710938,-15986696.243286133,11285795.211791992,22188051.223754883,23798221.588134766,26391878.128051758,9337636.947631836,7189501.2855529785,-3450206.518173218,-13051763.534545898,-8606062.889099121,6431108.9515686035,21976739.88342285,22471994.400024414,22157680.51147461,10408845.901489258,3995856.285095215,5292666.435241699,410798.5496520996,-12704757.690429688,9599872.589111328,22576951.98059082,21787254.333496094,22997491.83654785,4838202.953338623,12153687.477111816,-152191.77305698395,-339853.6741733551,3956418.991088867,22360746.383666992,3384591.1026000977,8915937.423706055,10665563.583374023
0.12,21736038.208007812,-22769639.96887207,-20032558.44116211,12988295.555114746,-41665874.48120117,55658016.204833984,15079558.372497559,15295825.004577637,12724366.188049316,-7863560.676574707,-18161552.42919922,-15583473.205566406,-38515277.86254883,-29968936.920166016,34125625.61035156,14855282.7835083,15134730.339050293,14159465.789794922,-6868383.884429932,-19740072.25036621,-14276546.478271484,-37312702.17895508,-39562873.84033203,4209121.227264404,29936738.967895508,15697055.81665039,14362056.732177734,7583709.716796875,-19298669.815063477,-25915798.18725586,-30492313.385009766,-3141414.8807525635,18854644.775390625,20697751.998901367,26503631.591796875,11862909.317016602,4381917.953491211,-5776142.120361328,-18096147.537231445,-19511890.411376953,-9496840.476989746,18931810.37902832,19260171.89025879,18932685.85205078,8040919.303894043,5076057.434082031,4269722.461700439,-3895262.4797821045,-17343040.466308594,430156.7077636719,19342134.475708008,18578653.33557129,19689487.45727539,6014123.439788818,6835296.630859375,-4531608.104705811,-4674801.826477051,5204911.708831787,19195800.78125,4484938.621520996,8137350.082397461,8006474.494934082
0.125,22215520.85876465,-27538908.004760742,-28264329.91027832,8344827.651977539,-44851016.998291016,57376060.485839844,10975917.81616211,11376509.666442871,8981534.957885742,-10203358.65020752,-18019332.885742188,-16086866.37878418,-38683177.94799805,-41719837.1887207,33610816.955566406,11040437.698364258,11192030.906677246,10383902.549743652,-8715238.571166992,-20600839.614868164,-13204869.270324707,-40780227.66113281,-45349983.21533203,-3394802.8087615967,17576602.935791016,11786643.028259277,10648240.089416504,6012917.995452881,-18739620.208740234,-25928113.93737793,-30554199.21875,-3013410.5682373047,16993923.18725586,18641401.290893555,24091625.213623047,11774610.51940918,3473325.490951538,-5492308.139801025,-16822839.736938477,-20161399.841308594,-11141476.63116455,17161962.509155273,17404661.178588867,16863531.1126709,5679025.650024414,9186731.338500977,4659441.4710998535,-3206561.56539917,-14192015.647888184,2314370.87059021,17475486.755371094,16637605.667114258,17993305.206298828,10244124.412536621,8873678.207397461,-2260901.45111084,-2451201.915740967,9524556.159973145,17472452.16369629,8667714.11895752,11687280.654907227,8179290.771484375
0.13,24966550.827026367,-13653481.483459473,-10060684.204101562,2903555.8700561523,-34492496.490478516,48158000.94604492,3389616.2509918213,3944896.2211608887,1687396.0494995117,-12691545.486450195,-12301035.88104248,-8310368.537902832,-26354452.13317871,-14912361.145019531,29911041.259765625,3531776.6666412354,3738588.571548462,3157233.715057373,-11264699.935913086,-16438135.147094727,-7497468.4715271,-22124799.728393555,-26331718.44482422,-737369.1201210022,12090830.80291748,4509408.473968506,3493539.571762085,5901660.442352295,-16507904.052734375,-23929891.58630371,-14578342.43774414,9136627.197265625,17487419.12841797,18762586.59362793,20740644.454956055,8072158.8134765625,5740610.122680664,-2904948.949813843,-10101717.948913574,-9315942.764282227,3942463.3979797363,17432159.423828125,17676933.28857422,17075332.641601562,5176596.641540527,14412988.662719727,8327404.975891113,2406303.1673431396,-6638478.755950928,16204412.460327148,17867927.55126953,16999715.80505371,18624292.373657227,15407945.63293457,20890872.955322266,7213996.887207031,6904810.428619385,14758648.872375488,18010717.391967773,13905365.943908691,20024883.270263672,15335699.081420898
0.135,27529199.600219727,320629.62651252747,9238162.04071045,2532141.68548584,-25291500.091552734,39966491.69921875,-370573.7888813019,111207.18717575073,-2085086.5840911865,-13509835.243225098,-7651538.372039795,-2453365.5643463135,-17749387.741088867,14991097.450256348,25617332.458496094,-450829.8337459564,-118209.25772190094,-591570.6157684326,-11908769.607543945,-13730355.262756348,-3513012.170791626,-6617230.8921813965,-10020812.034606934,2353148.2219696045,17366180.419921875,810489.9525642395,-190465.42048454285,6550869.464874268,-14991572.380065918,-21986633.30078125,-1412669.6586608887,13033117.294311523,18411155.700683594,19516366.958618164,17606845.85571289,4445846.5576171875,7326075.553894043,-1103039.8607254028,-4975325.584411621,765704.333782196,14168747.901916504,18011404.037475586,18254499.435424805,17791339.874267578,4466313.83895874,15857093.811035156,12102322.578430176,6066351.890563965,-2245706.558227539,27465538.024902344,18643610.00061035,17768857.955932617,19355180.740356445,16591720.581054688,31143465.042114258,13760394.096374512,13411219.596862793,16014768.600463867,18739757.537841797,15237211.227416992,25450860.97717285,22334138.870239258
0.14,30049362.182617188,2237750.768661499,11248959.5413208,8385971.0693359375,-24236379.623413086,39619327.545166016,2592419.385910034,2871393.4421539307,738595.1280593872,-10298416.137695312,-4760393.6195373535,979391.0980224609,-14069627.76184082,6293242.454528809,21818643.56994629,2286363.6016845703,2542324.5429992676,2143804.5501708984,-8773200.988769531,-12976982.116699219,934352.0998954773,-6421145.915985107,-24088972.091674805,-2724266.767501831,25062721.252441406,3502113.3422851562,2469556.5700531006,7381738.662719727,-13554494.857788086,-17689117.431640625,-1499662.3992919922,-2303640.365600586,17418609.619140625,18610513.68713379,15334772.109985352,3409643.6500549316,5716273.307800293,-1022661.9243621826,-4157146.453857422,1718182.5637817383,2898494.7204589844,16829324.72229004,17086540.22216797,16633049.011230469,1176277.8759002686,11261825.561523438,11873092.651367188,4291893.005371094,-3242331.9816589355,25554111.48071289,17522489.547729492,16535581.588745117,17942857.74230957,11806156.158447266,29831130.981445312,10162136.07788086,9864465.713500977,11289258.003234863,17368392.944335938,10539188.385009766,22447017.669677734,20157316.207885742
0.145,33071655.2734375,-156291.6785478592,7210278.9878845215,14118339.538574219,-23308994.29321289,38170860.290527344,6760617.733001709,7014039.516448975,4961419.105529785,-4394024.37210083,621009.1710090637,10114949.226379395,-2534429.0733337402,-33275848.388671875,15159196.853637695,6539079.189300537,6545011.520385742,6290782.928466797,-3839162.3497009277,-8310648.9181518555,12040645.599365234,-6257115.364074707,-57334972.3815918,-14674673.080444336,26717878.341674805,7442587.852478027,6424775.60043335,8645748.138427734,-9343663.215637207,-8684714.317321777,-3787799.119949341,-25197540.283203125,13880052.56652832,15173398.0178833,14123080.253601074,2800587.4156951904,3580780.029296875,-395128.071308136,-3158820.152282715,-1347413.6590957642,-19886621.475219727,13329523.086547852,13709515.571594238,12984765.05279541,-3225954.294204712,4187440.3953552246,8133479.118347168,1723211.5268707275,-5617580.890655518,17060567.85583496,13977849.006652832,12793984.413146973,14238640.785217285,4808589.458465576,21838932.037353516,1711273.3125686646,1429228.0673980713,4254445.0759887695,13591476.440429688,3513972.043991089,15566369.05670166,10723696.7086792
0.15,36187019.34814453,3930913.4483337402,13661683.082580566,14749245.643615723,-16001523.971557617,27799083.709716797,6868413.925170898,7368453.9794921875,5377483.367919922,318919.00300979614,7958022.117614746,23395082.473754883,15256636.619567871,-59641975.40283203,5203084.945678711,6967166.900634766,6912895.679473877,6768339.63394165,-228458.59825611115,951385.1404190063,25474058.151245117,2247237.44392395,-71705696.10595703,-24378376.007080078,24539476.39465332,7659770.965576172,6799403.190612793,10352040.29083252,-3122313.976287842,-132387.9063129425,838037.7292633057,-38642700.1953125,9539710.04486084,10796675.682067871,13718741.416931152,498758.79287719727,3862384.557723999,1554856.6579818726,298562.31808662415,-1357311.3679885864,-33675510.40649414,9105398.178100586,9653244.018554688,8684188.842773438,-5115510.940551758,-73355.2947640419,4617192.74520874,2916526.7944335938,-6390925.884246826,13808415.412902832,9793465.614318848,8531222.343444824,10160623.550415039,721127.6888847351,17572216.033935547,-2252321.243286133,-2560474.395751953,14137.166552245617,9374760.627746582,-642374.5155334473,12254981.994628906,3330785.2745056152
0.155,39266288.75732422,11859622.00164795,25843374.252319336,13520912.170410156,-8786316.871643066,17548353.19519043,5154338.836669922,5903949.737548828,3965803.1463623047,1928183.4363937378,10665039.0625,26668916.702270508,18306470.87097168,-49010559.08203125,-689327.2399902344,5445888.042449951,5709745.407104492,5494394.779205322,1504891.276359558,6405590.057373047,27608070.373535156,1017039.8950576782,-47954864.501953125,-23708339.69116211,26249769.21081543,6172691.345214844,5598435.878753662,11696765.899658203,-270998.83556365967,-1394340.2767181396,2152678.0128479004,-38159202.575683594,7343812.465667725,8511743.545532227,13760100.364685059,-1317360.9972000122,5061049.461364746,1778475.046157837,1001212.5968933105,-671239.43567276,-33065483.09326172,6924047.470092773,7488522.052764893,6630915.641784668,-3447677.1354675293,-400085.1511955261,2918747.901916504,5175066.4710998535,-6974178.791046143,16819925.30822754,7758873.93951416,6644275.188446045,8235712.051391602,375551.2237548828,18768449.783325195,-979578.1970024109,-1231173.3961105347,-451179.29577827454,7465556.1447143555,-1017535.4480743408,12554932.594299316,1635643.1245803833
0.16,42074932.09838867,15635699.272155762,30242942.810058594,15410844.802856445,-9546699.523925781,19638944.625854492,5974576.950073242,6695278.644561768,4826756.477355957,1448658.82396698,6155548.095703125,14114881.51550293,-1770670.2947616577,-17370067.596435547,3466833.1146240234,6153684.616088867,6794319.629669189,6412245.273590088,2226383.924484253,2137546.0624694824,14402057.647705078,-21640045.166015625,-4131142.6162719727,-13071853.637695312,33133243.560791016,6975262.641906738,6621293.544769287,12033372.87902832,-3777150.3925323486,-13516547.203063965,-9726310.729980469,-27046745.30029297,8720931.053161621,9846411.70501709,14119343.757629395,173923.16460609436,4487597.465515137,-1932622.6711273193,-5202739.238739014,-4177601.3374328613,-26289728.16467285,8177012.4435424805,8577538.49029541,8058806.419372559,-596599.0424156189,154589.83182907104,1492103.5766601562,3787413.8355255127,-8995557.78503418,19508924.48425293,9075211.524963379,8176368.713378906,9489105.224609375,735807.8956604004,20075784.68322754,-873630.8813095093,-1008603.2152175903,-11624.281294643879,8918741.226196289,-649796.9627380371,11482238.76953125,1510274.7678756714
0.165,43040683.74633789,16382917.404174805,29140037.536621094,18397298.81286621,-13910955.429077148,28962472.915649414,7887274.265289307,8362872.123718262,6561040.878295898,110013.35829496384,831340.6109809875,-96487.27625608444,-22891712.188720703,10790811.538696289,12400793.075561523,7859727.382659912,8481842.041015625,8082768.440246582,1419340.0144577026,-5923670.291900635,-500018.4774398804,-42297245.025634766,30274696.350097656,-811235.3682518005,38926120.75805664,8691855.430603027,8299281.120300293,11664978.981018066,-9385535.24017334,-25337100.982666016,-21885438.919067383,-6563360.214233398,11815052.032470703,12895952.224731445,14587065.696716309,3349158.0486297607,3161241.5313720703,-6524322.509765625,-12987821.578979492,-8300243.377685547,-17363960.26611328,11115734.100341797,11392305.374145508,11063391.68548584,1362667.5605773926,-759746.5515136719,-569186.3298416138,119442.14999675751,-11065589.904785156,20402196.884155273,11896215.438842773,11066241.264343262,12253010.749816895,-287598.192691803,19480131.149291992,-4657210.350036621,-4809023.380279541,-819318.5925483704,11823970.794677734,-1654231.1906814575,8284758.567810059,150188.148021698
0.17,41184951.78222656,20764112.47253418,34972755.432128906,17493654.251098633,-12024676.322937012,30736137.39013672,6761652.946472168,7049476.146697998,5294208.04977417,-1618084.6691131592,1602926.0158538818,150799.7065782547,-20589996.337890625,28600154.876708984,16340526.580810547,6715547.08480835,6927350.5210876465,6749815.464019775,-1459241.8670654297,-7618550.3005981445,-2376765.489578247,-31423133.850097656,44316009.521484375,5526852.607727051,39565685.2722168,7552808.2847595215,6919313.907623291,11309788.703918457,-10880195.617675781,-25942388.5345459,-14020381.927490234,19450065.61279297,13591372.4899292,14552012.44354248,14706746.101379395,4455041.408538818,3840874.9103546143,-7199584.484100342,-13868353.843688965,-5710751.056671143,-3622401.475906372,12822133.06427002,13184923.17199707,12791800.498962402,3032557.964324951,-2415247.4403381348,-1921608.6864471436,-735065.6390190125,-11252298.355102539,23663444.51904297,13468604.08782959,12552315.711975098,13932211.875915527,-1884031.1765670776,19617948.532104492,-8300436.973571777,-8620449.06616211,-2318498.8498687744,13424670.219421387,-3199410.915374756,6840810.298919678,-544591.1884307861
0.175,38851917.2668457,29386796.951293945,49238975.524902344,13812258.72039795,-2956783.2946777344,22476505.279541016,3365074.634552002,3636904.47807312,1934442.0433044434,-2633093.5955047607,7266895.294189453,12360901.832580566,108014.88906145096,40828746.7956543,13855373.38256836,3476438.283920288,3345684.52835083,3452080.488204956,-4212465.763092041,-1447253.4656524658,7053062.438964844,3627546.3104248047,47239166.259765625,6144895.076751709,37944633.48388672,4407492.637634277,3572628.0212402344,11389940.26184082,-7953420.162200928,-17475433.349609375,11950687.408447266,39685497.28393555,13509328.842163086,14321115.493774414,14406672.477722168,3134191.7514801025,6281150.341033936,-3996286.392211914,-7723731.04095459,3059518.575668335,13119647.026062012,12750664.710998535,13303734.77935791,12803639.41192627,5661433.219909668,-3560562.6106262207,-1528881.6690444946,2269055.8433532715,-9777561.18774414,30110177.993774414,13446136.474609375,12424192.428588867,14006389.617919922,-2989665.0314331055,21633625.030517578,-8133541.107177734,-8503493.309020996,-3575803.279876709,13323079.109191895,-4222237.586975098,8079349.517822266,-167153.12004089355
0.18,39292541.50390625,36837982.177734375,61822135.92529297,12615036.010742188,5693513.3934021,14472479.820251465,2019994.4972991943,2337771.8925476074,689819.9915885925,-1517374.1579055786,12127050.399780273,22204160.690307617,16056051.254272461,50332275.390625,10903466.22467041,2228225.2311706543,2151737.689971924,2385204.076766968,-3696182.4893951416,5538629.055023193,15435416.221618652,29315338.134765625,51018249.51171875,5985836.505889893,37597316.74194336,3285954.713821411,2410782.5756073,12053178.787231445,-5213448.524475098,-10733563.423156738,34661926.26953125,46088447.57080078,13376217.84210205,14101217.269897461,14134201.049804688,2169154.405593872,7851220.13092041,-1331712.7227783203,-1803481.4596176147,10726553.916931152,25303953.170776367,12604948.043823242,13247615.814208984,12734977.722167969,8411455.154418945,-4581334.590911865,-269602.0305156708,5700004.100799561,-7383643.15032959,35730087.28027344,13483138.084411621,12403299.331665039,13934076.309204102,-4103588.581085205,23995300.29296875,-5627820.96862793,-5769448.280334473,-4919761.657714844,13151626.586914062,-5312200.06942749,8347186.088562012,-1800382.375717163
0.185,41694847.106933594,38473613.73901367,64756530.76171875,14543382.64465332,8024169.921875,13289373.397827148,3697806.8351745605,4028391.3612365723,2364168.405532837,1116848.5879898071,13834550.857543945,22793867.111206055,17126007.080078125,55169120.78857422,11365222.930908203,3830019.474029541,4020303.249359131,4173601.1505126953,-69388.03941011429,7647263.050079346,16699829.1015625,29473495.483398438,56762626.64794922,7710768.699645996,37042259.216308594,4934195.041656494,4082890.9873962402,13125967.979431152,-5034439.0869140625,-10704416.275024414,40770584.10644531,43769710.540771484,13938097.953796387,14628708.839416504,13834459.30480957,2950635.1947784424,7478723.526000977,-1477551.3410568237,-305620.55110931396,13233136.177062988,29141080.856323242,13095392.227172852,13694117.546081543,13170153.617858887,9235698.699951172,-5643757.8201293945,788617.193698883,7271703.243255615,-3566310.405731201,37920547.48535156,14045793.533325195,12967342.376708984,14338575.36315918,-5260897.636413574,25662508.010864258,-4164827.823638916,-4053326.12991333,-6130470.275878906,13540913.581848145,-6572256.088256836,5882330.417633057,-5339460.849761963
0.19,42448242.1875,32222778.3203125,56183589.935302734,15752820.014953613,3324268.579483032,17896347.045898438,5748297.214508057,6083224.296569824,4310178.279876709,2597639.560699463,13452170.372009277,17629425.048828125,10517829.895019531,50728923.79760742,15896194.458007812,5761190.414428711,6036546.230316162,5982329.845428467,3264348.5069274902,5060408.115386963,14232094.764709473,16265764.236450195,55884349.82299805,11200946.807861328,33827857.971191406,6768657.684326172,5921602.725982666,13822160.720825195,-5601706.027984619,-12560530.662536621,35067550.65917969,41949901.58081055,14163953.78112793,14798736.572265625,12722876.54876709,4337401.390075684,6110770.702362061,-2204601.526260376,-1109937.5486373901,12104239.463806152,27267414.093017578,13314070.701599121,13832714.080810547,13219784.7366333,7954123.020172119,-5039587.97454834,1708744.4067001343,7331484.794616699,1284603.5957336426,37287036.89575195,14075569.152832031,13134350.776672363,14441831.588745117,-4628526.68762207,25856063.842773438,-4798687.45803833,-4757105.827331543,-5353861.331939697,13667051.315307617,-6085585.594177246,3632887.840270996,-5373715.400695801
0.195,41818004.6081543,19127439.498901367,37659706.115722656,16285030.364990234,-6670701.98059082,29220409.393310547,7621489.04800415,7945498.466491699,6077304.840087891,1465798.8548278809,11103616.714477539,10006719.589233398,1770393.6100006104,34105876.92260742,26762130.737304688,7614126.682281494,7695360.18371582,7398303.508758545,4041777.1339416504,211345.56829929352,11068499.565124512,3546047.9259490967,42097637.17651367,17716451.64489746,30825998.306274414,8362076.759338379,7557336.807250977,13339383.125305176,-5697962.760925293,-11596743.5836792,26043615.341186523,40444736.48071289,14494543.075561523,15046450.6149292,11107852.935791016,5517282.962799072,4377720.355987549,-1544967.2937393188,-2127591.609954834,9075180.053710938,22517169.952392578,13827559.471130371,14260409.355163574,13565263.748168945,6799328.804016113,-1635014.8916244507,2428154.706954956,5797574.520111084,4208797.931671143,34439029.693603516,14235994.338989258,13599311.828613281,14849186.897277832,-1150956.392288208,22591459.274291992,-6419985.771179199,-6716779.2320251465,-1728664.8750305176,14160068.51196289,-2648593.4257507324,4221437.454223633,607345.461845398
0.2,45474369.049072266,7538264.751434326,18780889.5111084,20910655.975341797,-16907176.971435547,48860774.993896484,11330574.989318848,11537340.16418457,9676963.806152344,-539032.518863678,6836148.262023926,1076874.7329711914,-9791101.455688477,12839093.208312988,44243484.49707031,11361779.21295166,11204223.6328125,10723076.820373535,3210144.9966430664,-4821970.462799072,6439943.790435791,-6965374.46975708,21830806.732177734,28566276.55029297,33308872.22290039,11762825.012207031,11040872.573852539,12113525.390625,-6885134.696960449,-10303532.600402832,16823150.634765625,34078330.993652344,17514356.61315918,18033878.326416016,11167258.262634277,6950041.2940979,2661588.430404663,-1109145.8797454834,-4411085.605621338,4988697.052001953,16272121.42944336,17142766.95251465,17450569.15283203,16764553.07006836,7615976.333618164,2596111.297607422,2198552.6084899902,2272040.1287078857,2985956.6688537598,30402076.721191406,17262981.414794922,16901966.094970703,17985090.255737305,3105297.088623047,16222976.684570312,-7364290.237426758,-7874331.951141357,2555123.5675811768,17406867.98095703,1683258.4142684937,6599987.030029297,7344638.824462891
0.205,56874240.87524414,9275222.778320312,15626152.038574219,30458189.010620117,-19413883.209228516,68846641.54052734,16369447.708129883,16357208.251953125,14529192.924499512,-639716.6848182678,3737653.970718384,-4602901.935577393,-19763406.75354004,3696099.9965667725,60065135.95581055,16382537.841796875,16124189.376831055,15612476.348876953,2610558.7482452393,-7614449.024200439,1516438.0073547363,-14186890.602111816,9412473.678588867,39661708.83178711,40730995.178222656,16576112.747192383,15795758.247375488,11680317.878723145,-9720095.63446045,-12784159.660339355,10462871.551513672,24936464.309692383,23542531.967163086,24121538.162231445,14234366.416931152,8527463.912963867,2424743.890762329,-2681098.461151123,-7921667.575836182,2554182.291030884,11490673.065185547,23346330.642700195,23537885.665893555,22905286.78894043,9753834.72442627,5046623.229980469,1332957.2677612305,-1177626.132965088,-290715.5156135559,28463840.48461914,23405078.887939453,23029983.520507812,24003135.681152344,5614896.297454834,12059991.836547852,-6244428.634643555,-6623405.456542969,5050859.451293945,23403602.600097656,4264512.538909912,9288828.84979248,9638607.9788208
0.21,70714790.34423828,23601791.381835938,30693771.362304688,38638874.05395508,-12585659.980773926,76974670.41015625,19270532.608032227,19119022.369384766,17198518.753051758,1531741.3806915283,4626543.5218811035,-3055222.749710083,-20796224.59411621,12543063.163757324,64710227.966308594,19214893.341064453,18918510.43701172,18513824.462890625,2705535.411834717,-6930537.700653076,76524.74194765091,-14398354.530334473,9796351.432800293,43896072.38769531,46266231.536865234,19509576.79748535,18419942.85583496,12705541.610717773,-11666677.474975586,-17423460.006713867,10153929.710388184,19591117.85888672,28404863.357543945,29057456.970214844,18089401.245117188,9282892.227172852,4469585.89553833,-4590281.4865112305,-9932787.895202637,3455044.984817505,10087502.479553223,28139541.625976562,28335752.487182617,27740262.985229492,11437118.530273438,6466053.9627075195,1669816.9708251953,-1624423.623085022,-1907353.401184082,30026113.510131836,28365545.27282715,27729623.794555664,28825492.85888672,7220245.361328125,14295641.899108887,-3411341.428756714,-3507005.6915283203,6703107.3570251465,28036661.14807129,5882923.126220703,12853654.861450195,10154693.603515625
0.215,77150794.98291016,32806591.033935547,43187831.87866211,39911602.02026367,-6396007.061004639,73473419.18945312,18908689.498901367,18845836.639404297,16701530.456542969,3600587.6064300537,6990875.244140625,1024730.920791626,-16021568.298339844,23501865.38696289,60729175.56762695,18839588.165283203,18450738.90686035,18119249.34387207,3108797.550201416,-5118056.774139404,2260090.112686157,-11367912.292480469,12762798.309326172,40503650.6652832,45390750.885009766,19363304.138183594,17947080.612182617,14011461.25793457,-10749852.180480957,-19385028.839111328,12518605.23223877,17805723.190307617,28185441.970825195,28805461.883544922,19038215.63720703,9007447.242736816,6662313.461303711,-4318444.728851318,-9490602.493286133,4273250.579833984,8776315.689086914,27720067.977905273,28049013.137817383,27501995.086669922,12126462.936401367,9101568.222045898,3848620.4147338867,298508.31627845764,-1923108.8161468506,30628366.470336914,28215354.919433594,27399467.46826172,28682678.22265625,10052307.12890625,19168731.689453125,-1979672.7895736694,-1955817.699432373,9586713.790893555,27765222.549438477,8730074.882507324,16636005.401611328,13406219.482421875
0.22,72696922.3022461,24211563.110351562,35355472.564697266,35939838.40942383,-9963940.620422363,69992134.09423828,17769517.89855957,17932628.631591797,15595487.594604492,3269307.6133728027,6347082.138061523,27894.32369172573,-15701844.215393066,21102966.30859375,59125396.728515625,17768598.556518555,17311920.166015625,16870828.62854004,3475280.0464630127,-5425902.366638184,3878877.639770508,-12929771.423339844,9284601.211547852,36495796.20361328,41005252.838134766,18282012.939453125,16878297.805786133,14213476.181030273,-8650439.262390137,-17750499.725341797,11395420.07446289,14790349.006652832,24451559.06677246,24925548.553466797,16439956.665039062,8296790.12298584,6404033.660888672,-2681034.3265533447,-9016772.270202637,1665679.2163848877,4538225.173950195,23854217.529296875,24309753.41796875,23828100.204467773,12604645.729064941,11668902.397155762,5795149.326324463,1459949.9702453613,-3432729.0058135986,26446418.76220703,24553077.697753906,23797594.07043457,25075479.50744629,12630928.993225098,19976419.44885254,-4564197.540283203,-4671291.828155518,12092985.153198242,24288127.899169922,11334920.883178711,17179332.733154297,16410350.799560547
0.225,64674575.80566406,10482638.359069824,21351146.697998047,31855562.210083008,-16745838.165283203,70522979.73632812,17031034.469604492,17333799.362182617,14991349.220275879,860477.089881897,3967807.5313568115,-3285982.131958008,-18915889.739990234,15831304.550170898,62034370.42236328,17087583.541870117,16741031.646728516,16083549.499511719,3136593.818664551,-7022857.666015625,3579091.0720825195,-14905283.92791748,6421585.0830078125,36486877.44140625,38290500.64086914,17316738.12866211,16270721.435546875,13532393.455505371,-7924735.546112061,-15729909.896850586,9687022.20916748,12901124.954223633,22068147.659301758,22433986.66381836,13266238.21258545,7180215.835571289,4890002.250671387,-2164488.0771636963,-9341782.569885254,154912.41216659546,2640007.257461548,21483764.6484375,21953681.94580078,21453495.025634766,13530403.137207031,10566230.773925781,5879063.606262207,1984239.5782470703,-6324953.556060791,23254634.857177734,22214111.328125,21548408.50830078,22718610.763549805,11366761.207580566,17868619.918823242,-8154953.956604004,-8483540.534973145,10633309.364318848,22183757.781982422,10008646.011352539,13852278.709411621,13429182.052612305
0.23,63451221.46606445,14004053.115844727,29056558.60900879,30194704.055786133,-12713167.190551758,67348052.97851562,15047707.557678223,15293436.050415039,13155112.266540527,-972464.0846252441,5498798.847198486,939480.3047180176,-13808782.577514648,28429733.276367188,60774650.57373047,15087847.709655762,14970172.882080078,14203016.28112793,1475869.4171905518,-6428398.609161377,4886952.4002075195,-5449531.555175781,15565600.395202637,37399066.92504883,38076457.97729492,15136133.193969727,14411534.309387207,13111974.716186523,-8293560.028076172,-15121252.059936523,15871153.831481934,19273406.982421875,23232557.29675293,23682874.67956543,12235194.206237793,5674482.822418213,5644311.428070068,-2524663.9251708984,-7701065.0634765625,6671901.702880859,10426459.312438965,22754076.00402832,23153011.322021484,22494054.794311523,14960477.828979492,6678091.049194336,5832539.5584106445,5334093.09387207,-5930509.567260742,30468082.427978516,23356660.842895508,22585109.71069336,23818290.71044922,7351905.345916748,20352849.96032715,-5896474.838256836,-6339915.752410889,6452593.803405762,23380477.905273438,5830478.668212891,12585859.298706055,7917729.377746582
0.235,70644233.70361328,34798046.11206055,57688598.6328125,30757053.37524414,2287477.970123291,58135570.52612305,11836943.626403809,11909332.275390625,10083567.61932373,-6478.1527034938335,11701869.010925293,12923034.66796875,1286468.8634872437,55036956.787109375,52559867.85888672,11854237.55645752,11828845.024108887,11140604.972839355,-734484.2553138733,-3472876.0719299316,9331341.743469238,12686061.85913086,32112251.28173828,35899150.84838867,37982913.970947266,12054573.059082031,11318880.081176758,13264086.723327637,-7970102.787017822,-14810945.510864258,27878450.393676758,31704576.49230957,26148645.401000977,26822715.759277344,13313590.049743652,4967872.142791748,9098438.262939453,-1606631.0405731201,-3269069.9100494385,17850334.16748047,23989274.978637695,25802951.81274414,26109519.958496094,25299844.74182129,16775356.29272461,5952280.9982299805,8052803.993225098,11685113.906860352,-232484.25126075745,45987361.907958984,26228973.388671875,25256393.432617188,26689125.061035156,6651962.757110596,28654205.322265625,3810762.643814087,3431992.0539855957,5751163.959503174,26173994.064331055,5044244.766235352,18851774.215698242,10012822.151184082
0.24,77620346.06933594,50331600.189208984,77475402.83203125,32845973.96850586,13308905.601501465,52418266.29638672,10387339.59197998,10338600.158691406,8762065.887451172,3072716.71295166,16496028.900146484,21123292.922973633,12123935.69946289,70603660.5834961,46575393.67675781,10479434.967041016,10296005.249023438,9748466.491699219,-1721875.786781311,-1495538.7115478516,13144746.780395508,21936061.85913086,40071449.279785156,34553615.57006836,37297332.763671875,10899292.945861816,9931268.692016602,13446599.006652832,-6999447.345733643,-14328475.952148438,33182971.954345703,38226367.95043945,28355270.385742188,29143918.991088867,14951139.450073242,5736459.255218506,12043882.369995117,80851.79328918457,-339560.8365535736,21849435.806274414,30565528.869628906,28124038.696289062,28317049.026489258,27581468.58215332,18474578.857421875,10806285.858154297,11240643.501281738,15832827.5680542,5020462.989807129,55774631.50024414,28444427.490234375,27407463.07373047,28886865.615844727,11588610.649108887,34299098.96850586,13096847.534179688,12883918.762207031,10826040.267944336,28336597.442626953,10107924.461364746,28697916.03088379,20801574.70703125
0.245,77393295.28808594,48273349.76196289,73332153.3203125,35739315.032958984,12205368.995666504,55849681.85424805,11974319.458007812,11978406.90612793,10439278.602600098,5760656.833648682,16101049.423217773,19603376.388549805,9700653.076171875,66030654.90722656,49168582.916259766,12229462.623596191,11842465.4006958,11349663.734436035,-669798.4933853149,-1423698.3060836792,13586991.310119629,15675952.911376953,34323905.94482422,36193794.25048828,37267459.869384766,12604909.896850586,11472451.210021973,13567152.02331543,-6694931.983947754,-14782238.006591797,27600748.06213379,33318820.95336914,28726303.100585938,29369350.43334961,15752411.842346191,6146988.868713379,12541601.181030273,-470645.36809921265,-2447317.8386688232,14508676.528930664,25163852.69165039,28533498.764038086,28584354.400634766,28154670.71533203,18743906.021118164,15404049.87335205,11641637.802124023,13822334.289550781,2635801.076889038,51274791.7175293,28860746.383666992,27889860.153198242,29214078.903198242,16186609.268188477,30837575.912475586,12919638.633728027,12839325.904846191,15565123.558044434,28759540.557861328,14921710.968017578,32197944.64111328,28415756.225585938
0.25,75761726.37939453,43341659.54589844,65374557.49511719,39434783.935546875,9340430.25970459,61065288.54370117,14314885.139465332,14522442.817687988,12831836.700439453,7647748.947143555,15009215.354919434,17050493.240356445,4051260.9481811523,58874717.712402344,54125823.974609375,14694165.229797363,14336995.124816895,13797551.155090332,2044371.1280822754,-159990.68319797516,13869477.272033691,7450924.396514893,25160642.623901367,37811428.07006836,37687225.341796875,14882793.426513672,13757142.066955566,14208662.986755371,-6637941.360473633,-15507252.69317627,21455472.946166992,25056707.38220215,26853324.89013672,27254192.352294922,14595347.40447998,4291506.767272949,11908587.455749512,-3525098.0854034424,-6691303.730010986,4975995.063781738,15947646.141052246,26581169.12841797,26544343.948364258,26404865.264892578,16396841.049194336,13110544.204711914,8271553.039550781,7926188.945770264,-6080757.141113281,39557041.16821289,26977231.979370117,26002395.629882812,27239564.895629883,13803552.627563477,22151945.114135742,3578510.284423828,3548717.260360718,13237990.379333496,26872138.97705078,12629053.115844727,25458322.525024414,23851402.282714844
0.255,84853973.38867188,54925064.08691406,77473869.32373047,45453544.61669922,18154512.405395508,60206058.502197266,15985650.062561035,16361438.751220703,14560459.13696289,11753595.352172852,19689371.10900879,23416103.36303711,8849078.178405762,63751602.17285156,53389057.15942383,16327821.731567383,16257558.822631836,15644380.569458008,6387757.301330566,3999032.2589874268,18312070.846557617,8952640.533447266,21131338.119506836,35142494.201660156,36326175.689697266,16549037.93334961,15532938.957214355,15658222.198486328,-4790880.20324707,-13399089.813232422,22618461.60888672,22654790.8782959,22719045.639038086,23071210.861206055,11033941.268920898,1812944.5314407349,11235338.21105957,-5308210.372924805,-7876872.539520264,2121160.0303649902,10989397.048950195,22304689.407348633,22346656.799316406,22230113.983154297,11890453.338623047,4927067.279815674,3948958.396911621,2552505.2547454834,-12567426.681518555,31872117.99621582,22750383.377075195,21638217.92602539,22988208.770751953,5526863.098144531,14846986.770629883,-7055509.567260742,-7050860.88180542,4970645.427703857,22602567.672729492,4324542.045593262,13836631.774902344,12342569.351196289
0.26,104318801.87988281,80516975.40283203,105305747.98583984,53432727.8137207,36891159.05761719,54348033.9050293,18052406.311035156,18385414.123535156,16732280.731201172,19997509.002685547,29719919.204711914,36070125.579833984,22732208.251953125,74492309.5703125,47235671.99707031,18193645.477294922,18453346.252441406,17825773.239135742,12140699.38659668,8371432.304382324,25858648.3001709,14994750.9765625,20813024.520874023,28689321.517944336,31574993.133544922,18699676.513671875,17894914.627075195,17499402.99987793,-640959.9781036377,-7392194.2710876465,25735399.24621582,25502395.629882812,16917758.94165039,17449338.912963867,6189857.482910156,1665421.0090637207,9589206.69555664,-3448044.538497925,-5733488.5597229,3787285.804748535,8898528.099060059,16432485.580444336,16694633.483886719,16328901.290893555,7127731.800079346,-3469473.361968994,1110898.0178833008,-1203454.852104187,-12325029.373168945,29474191.665649414,16864654.541015625,15642341.613769531,17098367.69104004,-2903283.11920166,8781517.98248291,-13987998.962402344,-13919323.921203613,-3433244.9436187744,16684907.913208008,-4083878.517150879,3372971.773147583,3610643.6252593994
0.265,116079086.30371094,100867881.77490234,127978286.74316406,57091186.5234375,52453243.255615234,44262359.619140625,19287246.704101562,19429691.314697266,18128177.642822266,28313592.9107666,38411499.0234375,45457313.537597656,34942436.21826172,82506278.99169922,37639400.482177734,19197252.27355957,19659852.981567383,19159549.713134766,16537200.927734375,10095996.856689453,31793195.724487305,17917449.951171875,22759304.04663086,20342102.05078125,23746456.146240234,19930297.8515625,19498985.290527344,19046634.674072266,3616908.073425293,-965826.5113830566,24892049.78942871,28799810.4095459,10132946.968078613,10800156.593322754,1847913.384437561,2724306.106567383,7080568.313598633,-466354.28071022034,-3761209.487915039,4449683.18939209,6400184.631347656,9723804.473876953,10161673.545837402,9507081.985473633,3847467.6609039307,-9271479.606628418,-183841.21358394623,-3710364.34173584,-9889112.47253418,27255331.03942871,10085263.2522583,8926673.889160156,10310632.705688477,-8672515.869140625,1558934.4501495361,-18404636.38305664,-18312412.26196289,-9201515.197753906,9951280.59387207,-9772560.119628906,-4524252.891540527,-1325523.853302002
0.27,104371551.51367188,103313545.22705078,135569824.21875,49277053.83300781,56171077.728271484,25509429.931640625,15116356.84967041,15174093.246459961,14145709.991455078,29421817.779541016,40083087.92114258,47577091.217041016,40536457.06176758,90698432.92236328,22518667.221069336,14943519.592285156,15487887.382507324,15258958.81652832,15392344.47479248,9660901.069641113,33301166.534423828,20747850.41809082,29233219.146728516,9386619.567871094,14491692.543029785,15675249.099731445,15673765.182495117,19554603.576660156,5301365.852355957,1818332.552909851,24819004.05883789,31852144.241333008,3413819.5514678955,3950152.3971557617,-1581287.145614624,918345.2129364014,6294964.31350708,392642.64702796936,-3001132.7266693115,5279448.509216309,6144058.2275390625,3145502.0904541016,3563775.7778167725,2813872.814178467,2926578.5217285156,-11682206.153869629,479599.7142791748,-2878756.523132324,-10398952.48413086,25552129.7454834,3405785.56060791,2450126.6479492188,3730650.9017944336,-11010562.896728516,-2272617.1016693115,-20502012.252807617,-20485515.594482422,-11650656.700134277,3433081.62689209,-12138822.555541992,-7870253.562927246,-5069164.752960205
0.275,76516548.15673828,91181381.22558594,131956680.29785156,32627391.815185547,49636943.81713867,1022720.8137512207,4967321.872711182,5157009.601593018,4139897.346496582,21440441.131591797,34502948.76098633,44770584.10644531,40875766.75415039,99582130.4321289,4223462.104797363,4924851.894378662,5497610.092163086,5504809.379577637,8359124.183654785,8483916.282653809,30700048.446655273,26388517.379760742,36810241.69921875,-2833170.8908081055,6710526.466369629,5572170.257568359,5788738.72756958,18460672.37854004,3658059.83543396,928614.9144172668,30476287.841796875,35340984.34448242,-492736.6077899933,-252526.8793106079,-4573054.313659668,-3827554.702758789,8570234.298706055,57195.231318473816,-1580757.975578308,9433526.039123535,10880681.991577148,-712059.6170425415,-453003.6449432373,-1087327.7187347412,4681434.631347656,-7428005.695343018,4810570.71685791,3291886.568069458,-11324993.133544922,29550434.112548828,-555492.5799369812,-1297104.1202545166,46255.34638762474,-6701838.01651001,4740989.208221436,-15954921.72241211,-16016582.489013672,-7510084.629058838,-281395.43533325195,-7995735.645294189,-1397304.2964935303,-2821676.015853882
0.28,55451759.338378906,76389099.12109375,123383605.95703125,19304502.487182617,40080165.86303711,-14892222.40447998,-4087160.587310791,-3720522.403717041,-4873347.759246826,11176715.850830078,26298711.7767334,40070831.298828125,36908531.188964844,100663879.39453125,-6791272.6402282715,-3915546.8940734863,-3339725.4943847656,-3361701.250076294,878037.9295349121,6712047.100067139,25924547.19543457,28795568.466186523,37431880.950927734,-9770614.624023438,3672610.9981536865,-3274615.76461792,-3168549.5376586914,16358327.865600586,263807.59477615356,-818565.5474662781,36106349.94506836,37169563.29345703,1273542.4041748047,1309883.952140808,-6103484.153747559,-6535983.085632324,11596942.901611328,1332934.9756240845,687392.0559883118,13770185.470581055,16905780.792236328,960707.6048851013,1108395.0996398926,611443.1023597717,8328092.575073242,4797113.418579102,12065801.620483398,11840445.518493652,-7396037.1017456055,39111984.25292969,1050454.3781280518,442949.8016834259,1933295.1307296753,5498228.549957275,20528299.33166504,-3430742.025375366,-3435424.327850342,4646606.4453125,1538058.6385726929,4092141.628265381,14949867.248535156,11311767.578125
0.285,52723991.39404297,69819366.45507812,116772224.42626953,16891944.885253906,35119537.353515625,-15579904.556274414,-5675940.51361084,-5257182.1212768555,-6452042.579650879,6775956.153869629,21606931.686401367,36638317.1081543,31327449.798583984,94294311.5234375,-6127324.58114624,-5394585.609436035,-4831604.480743408,-5113348.960876465,-1426623.1060028076,5320141.315460205,22325559.616088867,25708763.122558594,32580978.393554688,-8239827.1560668945,5739733.695983887,-4711664.199829102,-4842132.568359375,15235614.776611328,-2074617.1474456787,-1856462.836265564,35099670.41015625,36393123.626708984,6959717.273712158,6981791.4962768555,-4226835.250854492,-4588960.647583008,12867122.650146484,3636226.4156341553,1807489.9911880493,13405845.642089844,19349910.736083984,6529694.080352783,6709086.894989014,6205980.30090332,11239189.147949219,16830396.65222168,17419914.24560547,16834068.298339844,-571296.2746620178,47043514.251708984,6640043.73550415,6054677.486419678,7555325.031280518,17438785.552978516,32673614.501953125,9076171.875,9222903.25164795,16701419.830322266,7173806.667327881,16071491.241455078,29759008.407592773,29486728.66821289
0.29,58126197.814941406,73838081.35986328,118600532.53173828,20052558.89892578,37516780.853271484,-12498186.111450195,-2343631.0291290283,-1918142.9147720337,-3007668.972015381,8805983.543395996,22877485.275268555,37464736.93847656,30462541.580200195,93470062.25585938,-3285420.8946228027,-2081681.251525879,-1553919.6729660034,-1991314.172744751,1051210.641860962,6410954.95223999,22936676.025390625,25758234.02404785,31965913.772583008,-4710982.322692871,8999695.777893066,-1394250.512123108,-1632556.5576553345,16402765.274047852,-1424274.206161499,-2550051.689147949,31861059.188842773,35701362.60986328,10474740.028381348,10573275.566101074,335251.68895721436,-1451109.2901229858,13006854.057312012,3723994.9703216553,1433372.3783493042,10159144.401550293,18636110.305786133,10036221.504211426,10319456.100463867,9711194.99206543,10857650.756835938,17578422.54638672,17150085.44921875,16119960.78491211,1447239.0413284302,48075016.021728516,10282094.955444336,9626575.469970703,10972205.16204834,18127164.840698242,32067798.614501953,11704793.930053711,11924194.3359375,17445756.912231445,10672595.977783203,16802173.614501953,30785026.55029297,35431270.599365234
0.295,57885604.85839844,78991882.32421875,124492950.43945312,20197677.612304688,41216114.04418945,-15274789.810180664,-485108.73317718506,32246.83180451393,-997853.2791137695,11284134.864807129,25802227.020263672,40289703.369140625,35047233.58154297,98716789.24560547,-5563721.656799316,-228733.3458662033,187873.31879138947,-85609.97992753983,3500174.045562744,9012349.128723145,26239828.10974121,31397569.65637207,34423751.83105469,-5503549.575805664,9957175.254821777,411187.38055229187,168251.94656848907,18411634.44519043,1285336.6136550903,-2799962.043762207,32947811.126708984,35754749.2980957,9446990.013122559,9622724.533081055,3942524.6715545654,-428100.3475189209,13459942.817687988,1191683.7692260742,1326124.7873306274,8855598.449707031,16743709.564208984,9069276.809692383,9436311.721801758,8795485.496520996,8293517.112731934,8844995.498657227,13853314.399719238,13021899.223327637,-3248003.2444000244,44259162.90283203,9532997.131347656,8785210.609436035,9988204.956054688,9432240.48614502,22567605.97229004,5374022.483825684,5534001.350402832,8616748.809814453,9698740.005493164,8065616.607666016,20746519.088745117,27032234.19189453
0.3,53129344.94018555,73643066.40625,120720329.28466797,17865222.930908203,37641792.29736328,-14403497.695922852,-627970.3378677368,-31404.47661280632,-1221642.6134109497,10473313.331604004,24232160.568237305,38171802.52075195,35693298.33984375,91534477.23388672,-4460879.802703857,-294540.137052536,-77815.40602445602,-85101.45545005798,3303961.5154266357,8616151.809692383,26696424.48425293,29649353.02734375,27027494.430541992,-5712616.443634033,10081561.088562012,266923.09975624084,-98325.87838172913,18539695.739746094,2973395.586013794,-1598388.7910842896,34179969.787597656,33056484.22241211,9402440.071105957,9652873.992919922,4561807.155609131,684298.9325523376,13368663.787841797,-353218.2276248932,1935654.4017791748,8769762.03918457,12858373.641967773,8994857.788085938,9427206.993103027,8883584.976196289,8022531.509399414,5357722.282409668,13381938.934326172,11458327.293395996,-7163116.455078125,40671737.67089844,9666761.39831543,8877317.428588867,10084260.940551758,6005368.709564209,14816511.154174805,1134035.4681015015,1211240.0531768799,5097966.194152832,9654338.836669922,4695768.356323242,14666216.850280762,21024755.477905273
0.305,53519958.49609375,61321796.41723633,107150558.47167969,19086271.286010742,29333127.975463867,-249686.74778938293,908677.339553833,1396644.3538665771,-52070.118486881256,8962005.615234375,19191951.751708984,31006082.53479004,27913986.206054688,68502456.66503906,7866714.000701904,1270321.1307525635,1352103.1141281128,1350804.8057556152,2213335.7524871826,4374867.4392700195,22858602.52380371,15505428.314208984,10303636.55090332,1721065.0444030762,12333539.009094238,1774293.4226989746,1132404.2081832886,16451047.897338867,2223240.1371002197,1154744.029045105,29649913.787841797,28113891.6015625,15064196.586608887,15375304.222106934,3993414.6404266357,4585410.594940186,11720797.538757324,1626455.7838439941,2375910.758972168,7104083.061218262,8339910.507202148,14498935.69946289,15001968.383789062,14559862.13684082,12196091.651916504,14491998.672485352,17373701.095581055,12440700.53100586,-3807293.41506958,40295272.82714844,15276083.946228027,14500690.460205078,15829848.289489746,15106953.620910645,14549201.965332031,6146880.149841309,6182447.43347168,14424451.82800293,15197594.64263916,14078022.003173828,20462827.682495117,29068141.93725586
0.31,59901477.8137207,60196990.966796875,105577682.49511719,23321817.39807129,29920093.536376953,12571604.72869873,3166554.2125701904,3449922.800064087,1963050.9614944458,10187799.453735352,18642517.08984375,30003736.49597168,24226278.30505371,58107719.42138672,18261016.845703125,3387962.579727173,3601738.452911377,3342455.3871154785,2283347.3682403564,2748205.4233551025,21381944.65637207,9592997.550964355,5262405.3955078125,9955029.487609863,14809172.630310059,3958024.740219116,3148124.933242798,14785101.890563965,1440599.4415283203,4201135.635375977,26986080.169677734,28549184.799194336,20900754.928588867,21220338.821411133,4146292.6864624023,7971404.075622559,10638361.930847168,5156532.287597656,3739219.4271087646,7694862.842559814,9885648.727416992,20218044.28100586,20746526.71813965,20297176.361083984,16916807.174682617,24623584.747314453,21819166.18347168,15373485.565185547,3211879.253387451,43905521.392822266,20979503.631591797,20224510.192871094,21692989.349365234,25159606.93359375,19754558.563232422,15454194.068908691,15435127.258300781,24827743.530273438,20955198.287963867,24373430.252075195,29717754.364013672,40563186.64550781
0.315,63379390.716552734,77496147.15576172,128507583.61816406,23836330.41381836,44208515.16723633,2790500.8792877197,1406084.5375061035,1655359.148979187,460861.7126941681,12636466.979980469,25724178.314208984,41975074.768066406,37006931.30493164,78540443.42041016,8377922.058105469,1444690.5851364136,1989702.820777893,1549226.4032363892,2947641.372680664,8791954.99420166,27869886.39831543,29629556.65588379,20867673.873901367,5319976.806640625,12970209.121704102,2193977.3559570312,1548901.5579223633,15501329.42199707,3453907.251358032,6402863.502502441,36981922.1496582,36539020.53833008,17747678.756713867,18059617.99621582,3873685.359954834,5873767.375946045,12775662.422180176,6724702.835083008,7817425.25100708,15779090.881347656,19506574.630737305,17129482.26928711,17589365.005493164,17089031.219482422,16627506.256103516,21423618.31665039,22860271.453857422,19230133.056640625,5608312.129974365,50203792.572021484,17828496.9329834,17076539.993286133,18622787.475585938,22017108.917236328,25727010.72692871,19850034.713745117,19760789.87121582,21681362.15209961,17944805.145263672,21113389.96887207,31072193.145751953,39348598.48022461
0.32,60030498.50463867,95243560.79101562,153517578.125,19515193.939208984,57241382.59887695,-21219081.87866211,-3534250.020980835,-3122774.362564087,-3990269.660949707,12396397.590637207,32540016.174316406,55341201.78222656,54922351.8371582,100703353.88183594,-13920221.328735352,-3483479.7382354736,-2770602.4646759033,-3111788.9881134033,3059238.4338378906,17187320.709228516,36806083.67919922,55622013.092041016,33635837.55493164,-10045297.622680664,7967257.976531982,-2686868.42918396,-2980845.9281921387,17319244.384765625,6939831.733703613,7296416.759490967,51680358.88671875,40619201.66015625,7395231.7237854,7784471.035003662,1863027.4534225464,248393.9677476883,16616155.624389648,5666489.601135254,12067130.088806152,25605712.890625,27025907.516479492,6915023.326873779,7296637.058258057,6837589.263916016,11475816.72668457,8721475.601196289,21115892.41027832,21770219.802856445,1594932.198524475,54921962.73803711,7598166.942596436,6850330.829620361,8394693.374633789,9551109.313964844,29345903.396606445,17630979.537963867,17554826.736450195,8804175.37689209,7856900.691986084,8318124.771118164,25771141.052246094,28582721.710205078
0.325,57125869.75097656,93796058.65478516,150903488.1591797,18196855.545043945,53541667.93823242,-27619195.93811035,-4398541.450500488,-3901864.0518188477,-4759200.096130371,9668160.438537598,30861000.061035156,53867263.79394531,55030864.71557617,85771736.14501953,-20628507.614135742,-4122919.0826416016,-3642759.7999572754,-3757396.459579468,3348020.553588867,18735837.936401367,37801368.713378906,52143325.80566406,20175048.828125,-17174659.729003906,7080916.881561279,-3603418.5886383057,-3727542.6387786865,17983100.89111328,7895394.802093506,6604446.887969971,51237998.962402344,30162158.966064453,1852099.7762680054,2409256.69670105,226809.24832820892,-1921383.7385177612,18069768.90563965,3954568.386077881,10956741.333007812,24828275.680541992,21961032.86743164,1366968.274116516,1800409.3170166016,1476567.9836273193,7198872.5662231445,2219542.7417755127,19399442.672729492,20481624.603271484,-3513919.3534851074,53713619.232177734,2091861.4864349365,1356068.0150985718,2868613.9583587646,3233891.487121582,29558397.29309082,14147805.213928223,14165341.3772583,2189347.267150879,2399981.737136841,1914408.3261489868,22923767.08984375,24912637.71057129
0.33,62135173.79760742,79825912.47558594,126478912.35351562,25521327.97241211,39380500.79345703,-4625720.977783203,1923740.3869628906,2261926.8894195557,1157343.864440918,8718968.391418457,24190742.49267578,40119773.864746094,36223403.93066406,44152126.31225586,-1880097.6276397705,2387648.820877075,2445786.952972412,2460341.215133667,4901294.708251953,13748173.713684082,30292428.970336914,20778898.239135742,-5410304.069519043,-5891348.361968994,13939389.2288208,2525249.719619751,2249189.853668213,17535940.170288086,5411571.025848389,4576540.946960449,33462791.442871094,12738478.660583496,6842006.206512451,7515159.130096436,1858021.4977264404,1412376.1653900146,16312702.178955078,2972516.5367126465,3948014.259338379,12441662.788391113,8846622.467041016,6206973.075866699,6798873.424530029,6567801.475524902,7545917.03414917,6312373.638153076,18589788.43688965,15549884.796142578,-6253384.113311768,47309539.794921875,6956616.401672363,6217793.941497803,7709844.11239624,7216771.602630615,26617315.2923584,12268651.962280273,12293498.992919922,6348466.873168945,7176276.683807373,6140700.340270996,24008836.74621582,31977787.017822266
0.335,71925056.45751953,73734481.81152344,110179626.46484375,36581619.26269531,32060096.740722656,25407033.920288086,9745317.459106445,9848435.401916504,8595875.74005127,11229961.395263672,21739759.44519043,31038516.998291016,20342681.884765625,19371726.989746094,22425199.508666992,10149227.142333984,9997738.8381958,10007206.916809082,6714829.444885254,10985970.497131348,23760517.120361328,-1007259.0112686157,-12351252.555847168,11910614.013671875,23394197.463989258,10199182.510375977,9687358.856201172,17514932.63244629,2883963.5848999023,2495717.2870635986,17947334.28955078,4771850.109100342,14779996.871948242,15401727.676391602,5635652.542114258,5340075.492858887,14360402.10723877,2351255.416870117,-2693181.276321411,1242238.7599945068,612554.0137290955,14067650.79498291,14730981.826782227,14454992.294311523,10129554.748535156,10121059.41772461,17504898.071289062,9866017.34161377,-8648145.67565918,40624328.61328125,14776512.145996094,14007344.245910645,15428205.490112305,10698693.27545166,21533702.850341797,9140902.519226074,9021709.442138672,10170031.547546387,14789192.199707031,9801023.483276367,21610872.268676758,35797626.49536133
0.34,77419731.14013672,76355323.7915039,108439636.23046875,42430408.4777832,32656238.555908203,40357173.919677734,13331742.286682129,13359105.110168457,12151042.938232422,13437779.426574707,23643947.60131836,31596416.473388672,18019136.428833008,21115407.943725586,33770191.19262695,13479291.915893555,13433538.436889648,13348064.422607422,6788979.530334473,13390659.33227539,22943973.541259766,3638611.078262329,-896162.3311042786,20973812.103271484,29075223.922729492,13742182.731628418,13185095.78704834,17917903.900146484,2794266.700744629,1389713.6449813843,16149461.74621582,8511485.09979248,17721191.40625,18186250.686645508,7876407.623291016,6607791.900634766,13851475.715637207,1615139.6036148071,-4415165.901184082,-674713.8500213623,-30822.113156318665,17115228.6529541,17656240.463256836,17246273.040771484,11362334.251403809,7191522.121429443,15808622.360229492,5660702.228546143,-11993929.862976074,36392917.63305664,17767229.080200195,16964672.088623047,18171216.96472168,7554299.831390381,16177865.982055664,3232571.3634490967,3005445.718765259,7055880.546569824,17526456.832885742,6533245.086669922,13553866.386413574,28613065.719604492
0.345,75276756.2866211,69654060.36376953,98884750.36621094,40814933.77685547,26517829.89501953,44432312.01171875,14164317.13104248,14289936.065673828,13007764.81628418,11478505.13458252,21143161.77368164,28731279.373168945,14422772.407531738,17232143.40209961,37432388.30566406,14069037.437438965,14184634.2086792,13910238.265991211,4949694.1566467285,13517768.859863281,21651416.778564453,8580650.329589844,947841.9423103333,22431953.43017578,31320108.41369629,14461841.583251953,14001004.219055176,17178667.068481445,3428095.817565918,795241.7731285095,16349617.004394531,11731435.775756836,18654590.606689453,19002586.364746094,7830102.443695068,8205671.310424805,13075375.5569458,1330129.0273666382,-3811222.553253174,493667.6621437073,-894523.2629776001,18188920.974731445,18547920.22705078,18030506.134033203,12260051.727294922,5717212.200164795,15264646.530151367,3465174.674987793,-12479412.078857422,33538200.37841797,18837125.778198242,18039583.206176758,18967325.21057129,6152563.095092773,13827328.6819458,-644718.2893753052,-781639.8739814758,5443167.209625244,18435239.791870117,4981124.401092529,8707684.516906738,21847881.317138672
0.35,70539360.04638672,51377620.697021484,76258560.18066406,36465457.916259766,11408795.356750488,49002368.92700195,15523711.204528809,15797542.572021484,14140448.570251465,6923382.28225708,11864673.614501953,16140306.47277832,-586180.9849739075,-3641453.742980957,43561168.6706543,15341058.731079102,15433630.94329834,14944081.30645752,2850631.7138671875,6682615.280151367,15219523.429870605,-6907259.464263916,-13161001.205444336,25054052.352905273,33682334.899902344,15634086.608886719,15142992.01965332,15197729.110717773,2694891.929626465,355254.3818950653,8509159.088134766,10087347.030639648,23315963.745117188,23629060.745239258,8233166.694641113,12735256.19506836,11266920.08972168,2210495.4719543457,-4131603.717803955,-1263617.5155639648,-2871616.3635253906,22848447.799682617,23165271.759033203,22632638.931274414,16037349.700927734,13008816.719055176,17776245.1171875,4544550.41885376,-6736566.066741943,32511245.727539062,23531513.214111328,22798677.444458008,23617782.592773438,13635837.55493164,18148519.51599121,2980984.2109680176,2993794.6796417236,12886607.17010498,23196445.46508789,12586314.20135498,14229246.139526367,27208190.91796875
0.355,69123428.34472656,45006114.9597168,69818977.35595703,33640083.31298828,6031366.82510376,48811267.8527832,15551946.640014648,15954039.573669434,13933169.3649292,4568875.312805176,5449646.949768066,8632918.357849121,-9356802.940368652,-6801990.985870361,45318943.02368164,15425889.96887207,15353749.27520752,14828346.252441406,1644461.3933563232,638070.9409713745,10644147.872924805,-19300376.892089844,-15043148.040771484,27340749.740600586,35489635.4675293,15699563.026428223,14966253.280639648,14244127.27355957,2440659.284591675,1817169.3086624146,5882350.921630859,14404442.78717041,27788917.541503906,28081138.610839844,10276895.523071289,16525091.171264648,11079975.128173828,3945622.205734253,-2490424.633026123,606719.8514938354,3545828.5808563232,27219020.84350586,27639646.530151367,27175153.732299805,21581321.716308594,20813043.59436035,22800441.74194336,10659224.510192871,1537128.8061141968,36835720.06225586,27914529.80041504,27272281.646728516,28231565.475463867,21498346.32873535,28889463.424682617,11851181.983947754,11849179.2678833,20939586.639404297,27812026.977539062,20665420.532226562,23805047.9888916,36694213.8671875
0.36,72005035.40039062,65538749.69482422,99013755.79833984,33032157.89794922,22833797.454833984,35337715.14892578,11589173.316955566,12051603.317260742,10071748.733520508,6432802.677154541,10165915.489196777,20853967.666625977,8267232.894897461,31372497.55859375,32956752.77709961,11548336.98272705,11359573.364257812,11067459.106445312,1308685.064315796,5371305.9425354,16844335.556030273,2942879.6768188477,11644314.765930176,21928808.212280273,33566726.68457031,12077123.641967773,11129111.289978027,15952634.811401367,5791445.732116699,6866147.518157959,24308082.580566406,30509525.299072266,23835069.65637207,24081668.853759766,11719190.59753418,14856422.424316406,14527027.130126953,5345855.236053467,4794868.469238281,12921087.265014648,20264654.1595459,23212451.934814453,23720285.415649414,23353425.979614258,23607984.54284668,16784147.262573242,27223945.61767578,19698219.299316406,5105110.645294189,46553955.078125,23895883.560180664,23289705.276489258,24423164.36767578,17378246.307373047,39263782.5012207,17596183.77685547,17483146.66748047,16905693.05419922,23914182.662963867,16488479.614257812,25820755.004882812,34194103.2409668
0.365,76869766.23535156,94325149.53613281,138001358.03222656,34826381.68334961,47218193.05419922,19768276.21459961,7462240.695953369,7825298.309326172,6208216.190338135,10575771.33178711,21087282.180786133,43061130.52368164,39750720.9777832,77621078.49121094,17004453.659057617,7410293.102264404,7248925.20904541,7231114.864349365,2081489.3245697021,17938182.830810547,29830074.310302734,44905540.466308594,41006610.87036133,12188472.747802734,29164388.65661621,8163455.963134766,7276077.2705078125,18921380.9967041,11597737.312316895,13165007.591247559,51529899.59716797,45458087.92114258,13167461.395263672,13394760.131835938,10888607.025146484,9843326.568603516,19114778.518676758,5407060.146331787,13431573.867797852,26513963.69934082,32765819.549560547,12565412.521362305,13048821.449279785,12747205.73425293,19739822.387695312,4066851.1390686035,28011337.280273438,24874624.252319336,2216426.134109497,54539508.81958008,13250884.056091309,12584639.549255371,13727928.161621094,4602271.556854248,41110218.0480957,15550201.416015625,15502499.5803833,3971379.9953460693,13112175.941467285,3386876.106262207,19353418.350219727,20339199.06616211
0.37,81622795.10498047,103511077.88085938,148434356.68945312,39429779.052734375,56253364.56298828,20518039.70336914,9105377.197265625,9220685.958862305,7884801.387786865,14583424.56817627,27228874.20654297,52851375.579833984,53013488.76953125,85177207.94677734,16566696.166992188,8930470.46661377,8901812.553405762,8902883.529663086,4432457.447052002,25527256.01196289,36624393.463134766,61523540.49682617,40928730.01098633,9450374.603271484,27077678.680419922,9562991.14227295,8937322.616577148,20433282.85217285,15125083.923339844,15754463.195800781,59266574.85961914,44599166.87011719,6516287.326812744,6799793.720245361,9290515.899658203,8000406.265258789,20889278.411865234,4203599.92980957,15024570.46508789,26096433.639526367,28528821.94519043,5914770.603179932,6338378.90625,6042474.269866943,14213732.719421387,-2287757.635116577,25256305.694580078,21834157.943725586,-1819412.112236023,54221752.16674805,6599005.222320557,5851080.417633057,6958571.434020996,-1675100.8033752441,34304141.998291016,9875144.004821777,10109341.621398926,-2467160.224914551,6251907.3486328125,-3154776.8115997314,14550941.467285156,11892816.543579102
0.375,83989349.36523438,91900352.47802734,129996719.36035156,44109111.78588867,47823776.24511719,34055793.76220703,14453875.541687012,14396248.817443848,13092911.720275879,17029052.734375,25206378.936767578,44917118.072509766,39596874.23706055,59011253.356933594,29875925.064086914,14177447.319030762,14307518.95904541,14085764.88494873,7102833.7478637695,21968696.59423828,32266803.741455078,40566707.611083984,19064031.60095215,14808494.567871094,28193761.825561523,14571755.409240723,14100556.373596191,19589426.040649414,14311034.202575684,13359719.276428223,42565860.748291016,33310882.568359375,8719420.433044434,9088632.583618164,8684463.500976562,11236028.671264648,19655244.827270508,2959054.708480835,9001770.01953125,13123206.13861084,15642561.912536621,8071168.899536133,8504823.684692383,8190962.791442871,12927551.26953125,3677785.873413086,22368303.298950195,14813420.295715332,-1866566.777229309,48479915.618896484,8699428.55834961,7962749.95803833,9212388.038635254,4415415.287017822,27942346.572875977,7990384.578704834,8435199.737548828,3635442.9721832275,8449298.858642578,2911509.0370178223,18098302.841186523,17699258.80432129
0.38,80757926.94091797,79888397.21679688,113562545.77636719,43200004.57763672,38223812.103271484,38221916.19873047,14915627.479553223,14968382.835388184,13598077.774047852,16254915.237426758,20097623.825073242,34826042.17529297,23359762.19177246,43644348.14453125,35705852.50854492,14685239.791870117,14938260.078430176,14524025.917053223,7316386.2228393555,14059104.919433594,24857398.986816406,16632564.544677734,9382128.715515137,16840827.94189453,28347564.697265625,15156175.61340332,14570339.20288086,17690965.65246582,12318526.268005371,10462376.594543457,26587785.720825195,29535005.569458008,13372359.275817871,13753524.780273438,8260199.546813965,14886594.772338867,18523851.39465332,3175015.449523926,3919153.928756714,5404092.311859131,12440796.852111816,12705580.711364746,13200699.806213379,12903061.866760254,16817743.3013916,12478948.593139648,22737201.690673828,12296646.118164062,1828013.7777328491,46212284.088134766,13252072.33428955,12614735.60333252,14117481.231689453,13261466.979980469,29947586.059570312,12220767.0211792,12577883.72039795,12530148.50616455,13380891.799926758,11875300.407409668,25756610.870361328,28339723.587036133
0.385,71191902.16064453,77068496.70410156,113701004.02832031,35048244.47631836,36627555.84716797,24745639.80102539,7855683.80355835,8199353.218078613,6761543.750762939,11563055.038452148,16201915.740966797,34414279.93774414,24011157.989501953,56940727.23388672,24585496.90246582,7746638.774871826,8051090.240478516,7624125.003814697,4397861.480712891,10755081.176757812,22842840.19470215,18411584.854125977,22722452.16369629,9589836.120605469,25414163.58947754,8554181.098937988,7741715.431213379,16231739.044189453,12840405.464172363,11364016.53289795,30532127.380371094,38244575.50048828,13658263.206481934,13941556.930541992,6659208.297729492,15002820.014953613,19094509.12475586,5285552.024841309,5454035.28213501,12363090.515136719,22467927.932739258,13054924.011230469,13550711.631774902,13305179.595947266,21735431.671142578,14600635.528564453,26055679.321289062,16773271.560668945,6125627.517700195,50655582.427978516,13570018.768310547,13004649.16229248,14596165.657043457,15336936.950683594,37448738.09814453,18158758.16345215,18243621.826171875,14556112.289428711,13973741.53137207,14099143.028259277,30265396.118164062,32195674.896240234
0.39,61010250.091552734,74530426.02539062,115285583.49609375,26344802.856445312,36690155.029296875,10480568.885803223,1139576.6735076904,1647454.9770355225,104502.99829244614,6309221.7445373535,13630095.481872559,37889556.884765625,32429782.86743164,71552719.11621094,11260519.027709961,1040992.9752349854,1320263.8626098633,951104.6409606934,1627470.2548980713,12599716.186523438,24870275.497436523,32222160.33935547,35560096.740722656,1172908.5445404053,22464420.318603516,1978315.2341842651,1088871.1214065552,15709816.932678223,15307799.339294434,14708671.569824219,43327144.622802734,45770744.32373047,10746561.050415039,10913680.076599121,4680360.794067383,13363533.973693848,19811204.91027832,8026302.337646484,9140812.873840332,22721511.840820312,30844648.361206055,10274933.815002441,10641543.3883667,10426349.639892578,23578077.31628418,11997232.437133789,28469867.706298828,21891567.23022461,8866407.39440918,55616374.96948242,10764842.03338623,10201663.970947266,11682531.356811523,12679707.527160645,40463428.49731445,19809984.20715332,19707317.352294922,11857441.902160645,11152107.238769531,11587634.086608887,29976352.69165039,30208154.678344727
0.395,58869274.1394043,67392440.79589844,106379173.2788086,25557134.6282959,32623847.96142578,11835635.1852417,2370792.3889160156,2792363.8820648193,1189819.6935653687,6017474.174499512,12611596.10748291,35871643.06640625,30757255.55419922,63294826.50756836,11397339.820861816,2162649.631500244,2344867.467880249,1977403.8791656494,2460658.311843872,14584657.669067383,25269027.709960938,31409887.313842773,27651359.55810547,333355.75461387634,22195045.471191406,2852643.0130004883,2091680.5267333984,16019016.26586914,16452751.159667969,16243648.529052734,44557788.84887695,40570945.739746094,8771788.597106934,8933886.528015137,4007562.6373291016,13630568.504333496,19183420.181274414,9392845.153808594,8088591.575622559,21894914.627075195,25862722.396850586,8476348.876953125,8634630.20324707,8394887.924194336,22115503.311157227,10813764.572143555,26835138.32092285,20526121.139526367,8641878.128051758,54293930.05371094,8808043.479919434,8259395.599365234,9700980.186462402,11501280.784606934,34353904.724121094,15161451.33972168,15067172.050476074,10746673.583984375,9135307.312011719,10457163.81072998,27045026.779174805,28990310.668945312
0.4,66327033.99658203,65129135.13183594,98129051.2084961,32240531.92138672,29399658.203125,22815326.690673828,8582712.173461914,8847637.176513672,7394024.37210083,11225522.994995117,14418440.818786621,30805431.365966797,20800971.98486328,46191638.9465332,20632093.42956543,8355293.273925781,8370728.492736816,7979626.655578613,5612896.919250488,14370450.019836426,23386981.964111328,18456594.467163086,9458710.670471191,4276188.373565674,22898241.04309082,8768144.607543945,8157245.635986328,16709840.774536133,15019161.224365234,15038110.733032227,35053794.860839844,29023717.880249023,8209840.774536133,8498332.977294922,4805599.689483643,15705617.904663086,18250709.533691406,8514000.89263916,3081942.081451416,11990420.3414917,14269868.850708008,8102049.827575684,8103658.676147461,7823493.957519531,20463562.01171875,11272478.103637695,22533576.96533203,13258028.984069824,4231640.338897705,48104904.17480469,8168228.1494140625,7678021.430969238,9271354.675292969,12010635.375976562,25397071.838378906,7557221.412658691,7581146.240234375,11308510.780334473,8614245.414733887,10814497.947692871,22673000.33569336,28310554.50439453
0.405,73593200.68359375,74210273.74267578,104165603.63769531,36317169.189453125,32845661.163330078,25854082.107543945,10593810.081481934,10839055.061340332,9639205.932617188,15086880.683898926,17298143.38684082,31008270.263671875,18783843.994140625,48222923.278808594,24345653.533935547,10550773.620605469,10383969.3069458,10015266.418457031,6125882.625579834,13582556.72454834,22683773.040771484,17390920.639038086,5205556.392669678,5435806.751251221,22316585.540771484,10989261.627197266,10369709.014892578,16918775.55847168,12840945.24383545,13803878.784179688,32836368.560791016,25719367.98095703,7948781.490325928,8372076.988220215,6398970.603942871,16385541.915893555,19063947.677612305,6536683.082580566,470231.44364356995,6710764.408111572,11050471.305847168,7943547.248840332,7950630.187988281,7664530.277252197,21792472.83935547,10334802.627563477,20181228.637695312,7274851.322174072,-2924901.247024536,44411590.576171875,7908197.87979126,7408197.87979126,9087356.567382812,11096307.754516602,23309743.881225586,2567099.3328094482,2686033.248901367,10295269.012451172,8442185.401916504,9652534.484863281,18128688.81225586,23929521.560668945
0.41,68833045.95947266,83825653.07617188,117173225.40283203,29694404.60205078,38702289.58129883,15569741.249084473,5012054.920196533,5359966.75491333,4190370.559692383,11208182.334899902,16574453.353881836,36421512.603759766,29497154.235839844,71511245.72753906,18856517.791748047,5170570.373535156,4942359.924316406,4612635.135650635,1720066.3089752197,13361686.706542969,23878524.780273438,35204299.92675781,21140668.869018555,3062977.7908325195,21577016.830444336,5834831.714630127,5084710.597991943,16055902.481079102,11808229.446411133,14065780.639648438,44972393.03588867,34066616.05834961,8816311.836242676,9249446.868896484,8764454.84161377,14383115.768432617,21863750.457763672,5455819.129943848,2458433.3896636963,11549377.44140625,19793109.893798828,8728723.526000977,8906278.610229492,8639958.381652832,26032892.22717285,8733152.389526367,22174022.674560547,7744856.357574463,-7964168.548583984,47032348.6328125,8944778.442382812,8301296.234130859,9770754.81414795,9431094.1696167,30024713.51623535,2818385.124206543,2924254.894256592,8482172.012329102,9228130.340576172,7881812.09564209,16402784.34753418,17720762.252807617
0.415,51704425.81176758,78584930.41992188,118430053.7109375,16073385.238647461,38136596.6796875,3105882.6446533203,-2432120.3231811523,-2004765.272140503,-3437711.000442505,2049733.1619262695,10733921.05102539,38951248.16894531,39956691.74194336,92434539.79492188,13312128.067016602,-2284995.7942962646,-2373997.211456299,-2716174.1256713867,-3943046.5698242188,12806763.648986816,24121349.334716797,52212093.353271484,40548854.82788086,1522991.418838501,22249750.1373291,-1499040.6036376953,-2321728.9447784424,14707625.389099121,11686725.616455078,14463310.241699219,58157550.81176758,43271202.087402344,11050007.820129395,11345572.471618652,11468523.979187012,12166310.31036377,24661273.956298828,6049627.780914307,4594347.4769592285,18119419.09790039,29484409.33227539,10719261.169433594,11128763.198852539,10859326.362609863,29720327.377319336,9441569.328308105,25664335.250854492,12328031.539916992,-7392529.010772705,51981292.724609375,11349068.641662598,10566973.686218262,11742452.621459961,10023220.06225586,38114177.70385742,5780353.06930542,5754973.888397217,9071379.661560059,11198751.449584961,8568040.84777832,18848375.32043457,16285882.949829102
0.42,34447761.53564453,58812053.68041992,102411117.55371094,6445672.988891602,29769666.67175293,901659.0118408203,-4803210.258483887,-4375350.9521484375,-6042055.606842041,-3918056.2496185303,4022624.969482422,34624309.53979492,38330204.010009766,92760101.31835938,15335021.97265625,-4814310.073852539,-4699715.137481689,-5103676.319122314,-5545362.47253418,11545774.459838867,22154327.392578125,50482818.603515625,45471389.77050781,2135048.3894348145,22739469.528198242,-4112948.8945007324,-4880783.0810546875,14051589.012145996,11403769.493103027,14151140.213012695,58245571.13647461,43037929.53491211,12182349.20501709,12261398.315429688,12654236.793518066,12672725.677490234,25285316.467285156,7215075.492858887,2913486.2422943115,17477058.41064453,29423515.31982422,11592084.884643555,12168575.286865234,11870441.436767578,30028224.94506836,12316628.456115723,26247940.063476562,14872032.165527344,-3467515.707015991,53167339.32495117,12437140.464782715,11684560.775756836,12866506.576538086,12849912.643432617,40182418.82324219,7433609.962463379,7248513.698577881,12053602.21862793,12157239.91394043,11524202.346801758,22727733.612060547,20920627.59399414
0.425,28209188.46130371,39922203.063964844,81997962.95166016,6151794.43359375,20793354.034423828,9702346.801757812,-1589040.3985977173,-1181383.2521438599,-2821018.4574127197,-2790874.95803833,1064827.4421691895,28331821.44165039,28532144.54650879,78135589.59960938,23034328.46069336,-1652572.9894638062,-1501093.7452316284,-1972130.298614502,-2431996.1071014404,10858122.825622559,20208286.28540039,35946598.052978516,35700267.79174805,3196115.9706115723,21322513.580322266,-1107624.6500015259,-1832211.3752365112,14261781.692504883,11069784.164428711,14649817.46673584,48240394.592285156,35518692.01660156,11299585.342407227,11175102.233886719,11456955.909729004,15792492.866516113,23536724.090576172,7518086.4334106445,-590946.4359283447,11566823.959350586,21743005.752563477,10565551.7578125,11171863.555908203,10883379.936218262,28800525.665283203,14899836.540222168,23877468.10913086,13113941.192626953,-1130876.5411376953,50212066.650390625,11334922.790527344,10720944.40460205,12189885.139465332,15518614.768981934,37331783.294677734,7467956.54296875,7232882.022857666,14897087.097167969,11376949.310302734,14256364.822387695,25043279.64782715,25773418.426513672
0.43,31316574.096679688,33900188.44604492,71918601.9897461,9908501.625061035,17517322.540283203,19963176.727294922,2346784.1148376465,2741586.923599243,1217530.608177185,673440.8140182495,1281241.2977218628,25969038.009643555,22396558.76159668,66712806.701660156,30120857.23876953,2382471.799850464,2391321.1822509766,1867171.4067459106,963805.5562973022,11514249.801635742,20249504.08935547,26838022.232055664,25566669.464111328,5039470.672607422,20372840.881347656,2861825.2277374268,2022636.6519927979,14288779.258728027,11608202.934265137,16973173.141479492,41750591.27807617,30571430.206298828,11887342.45300293,11680654.525756836,10174725.532531738,18868198.39477539,21369684.21936035,7114850.5210876465,-1400568.4852600098,8571174.621582031,16807420.73059082,11169949.531555176,11662654.876708984,11466114.99786377,30509117.126464844,16312776.565551758,22838012.6953125,10702180.862426758,-1613321.9003677368,48368347.16796875,11785415.649414062,11233812.33215332,12831457.138061523,17040769.577026367,36158695.220947266,8832819.938659668,8699831.008911133,16516525.268554688,12186449.05090332,15850364.685058594,26159709.930419922,26286359.786987305
0.435,34070499.420166016,37896968.841552734,73842247.00927734,10441781.044006348,18929328.91845703,23249240.87524414,3244658.7085723877,3580933.094024658,2034981.9660186768,396350.32415390015,835319.9362754822,27064363.479614258,24013650.89416504,67387100.21972656,33688354.4921875,3304927.8259277344,3230731.248855591,2674615.8599853516,847868.9193725586,12489743.23272705,21259773.25439453,29870609.283447266,25919826.50756836,9438974.380493164,23433883.666992188,3864270.2102661133,2824763.298034668,13461778.64074707,12970110.893249512,19433437.34741211,44723339.08081055,32627643.585205078,16771852.493286133,16681663.513183594,11514405.250549316,19982337.951660156,20795194.625854492,7673686.504364014,1209794.4021224976,11382143.020629883,19452924.728393555,16208435.05859375,16488466.262817383,16410270.690917969,35851371.76513672,16902500.15258789,25518142.700195312,11527368.545532227,-1849186.897277832,51107490.53955078,16756845.474243164,16151576.99584961,17448852.5390625,17574995.040893555,38830680.84716797,12405709.266662598,12422283.172607422,17070146.560668945,17108682.63244629,16518966.674804688,27057527.542114258,24386039.73388672
0.44,31947486.877441406,41050960.540771484,77951393.1274414,7971779.346466064,19870573.043823242,21074232.10144043,2070103.645324707,2269428.9684295654,658707.0226669312,-3074652.1949768066,-1612583.875656128,27381166.458129883,27250894.54650879,72411209.10644531,35801704.40673828,1939816.5941238403,1970548.2721328735,1423606.276512146,-1516288.5189056396,12806994.438171387,21343782.424926758,35779186.2487793,32910789.489746094,15270841.598510742,29210990.90576172,2641720.0565338135,1524212.8372192383,12450567.245483398,13883471.488952637,20169078.826904297,50264823.91357422,36457107.54394531,22908525.466918945,23050565.719604492,14420474.0524292,19725200.653076172,21646156.311035156,10212948.7991333,3764086.0080718994,14929277.420043945,24177021.026611328,22559869.76623535,22619995.1171875,22574184.41772461,39985610.96191406,16099807.739257812,28780654.907226562,14446386.337280273,88604.73334789276,55487766.26586914,23066209.79309082,22400743.48449707,23220951.080322266,16533187.866210938,40148059.8449707,14903825.759887695,14999814.0335083,15997539.520263672,23013902.66418457,15595692.63458252,26079746.24633789,23910772.3236084
0.445,28797815.322875977,38455249.78637695,76585975.64697266,7481640.815734863,18290655.1361084,20707679.748535156,1640154.3617248535,1699567.3179626465,171998.32201004028,-4722414.016723633,-3510870.6951141357,26013757.705688477,26803598.403930664,71138786.31591797,38701087.951660156,1290452.7187347412,1398940.3247833252,909920.6328392029,-2195804.1191101074,13437231.063842773,20709314.346313477,35694473.26660156,36280364.990234375,18615596.771240234,32243556.97631836,2019003.6296844482,1002419.114112854,12171480.178833008,13590271.949768066,20053636.55090332,50656620.025634766,36155490.87524414,24889455.795288086,25143405.91430664,15364701.271057129,19542808.532714844,22173864.364624023,13460494.995117188,3789187.19291687,14248723.983764648,24409891.12854004,24683797.83630371,24637195.587158203,24494277.954101562,38812477.111816406,13739992.141723633,28406360.626220703,15758296.012878418,2170007.4672698975,56743129.73022461,25101976.39465332,24404151.916503906,24996711.73095703,13974181.175231934,36121330.26123047,13456276.893615723,13560018.539428711,13391585.350036621,24704462.0513916,13058571.815490723,22250915.52734375,24898031.23474121
0.45,28113227.84423828,35619018.5546875,73827552.79541016,9399013.51928711,17439603.805541992,23041255.950927734,1979373.4550476074,2006788.969039917,622100.4128456116,-3026358.127593994,-2477854.4902801514,26343452.45361328,25629112.243652344,66121002.197265625,39862075.80566406,1646383.6431503296,1561010.5991363525,1154659.628868103,-242287.08446025848,15818994.522094727,20906820.29724121,33283164.978027344,34530998.22998047,16865694.046020508,29628540.0390625,2199041.3665771484,1288983.4642410278,12425652.503967285,12829108.238220215,20791194.915771484,47847373.962402344,33411109.924316406,21719520.568847656,21850990.295410156,13577555.656433105,19439500.80871582,21777362.823486328,14885314.94140625,2707183.599472046,10995097.160339355,21517681.121826172,21489891.052246094,21510311.126708984,21221691.131591797,34652103.424072266,11437489.50958252,24948394.775390625,14994578.36151123,1577075.481414795,54995731.353759766,21861763.00048828,21092916.48864746,21787555.694580078,11729041.09954834,31002462.38708496,9647605.895996094,9750154.495239258,11107037.544250488,21443019.86694336,10746315.002441406,18768312.454223633,24290616.989135742
0.455,27742116.928100586,39312057.49511719,78470314.0258789,8758819.580078125,20439195.63293457,20800962.448120117,544687.9267692566,653618.6933517456,-759113.7290000916,-1769178.867340088,141491.07038974762,29814992.904663086,28762054.443359375,68339553.83300781,34610523.22387695,426138.60964775085,33236.682415008545,-290297.12080955505,1215423.9416122437,18897581.100463867,21891321.182250977,36666015.625,34653102.87475586,10896533.012390137,23941989.89868164,773738.6226654053,-180652.81212329865,12241506.576538086,12531598.091125488,21537456.512451172,48435035.705566406,33258003.23486328,17042503.356933594,17014034.271240234,12040218.353271484,18412794.11315918,21726245.880126953,13566506.385803223,2860340.8336639404,9995234.489440918,20933280.94482422,16677196.502685547,16876054.763793945,16506137.84790039,33052532.196044922,10350191.116333008,22523290.634155273,15031666.75567627,-1308971.1666107178,54271884.91821289,17132747.650146484,16283113.479614258,17144008.63647461,10894771.575927734,31685895.919799805,7225822.925567627,7327126.026153564,10220774.65057373,16920902.252197266,9791404.724121094,19049781.799316406,20812999.725341797
0.46,25577505.111694336,46797122.955322266,88389907.83691406,4173808.5746765137,24580362.31994629,12316707.611083984,-2862293.7202453613,-2675083.875656128,-4274652.481079102,-3549612.045288086,803231.1797142029,32149391.174316406,33721473.693847656,77228462.21923828,25221303.939819336,-2882081.0317993164,-3272895.336151123,-3539135.694503784,-113293.27523708344,19568204.879760742,21596504.21142578,43490573.88305664,37783115.38696289,4639805.793762207,19414760.58959961,-2501399.278640747,-3581312.656402588,11174383.163452148,12355507.850646973,20253620.147705078,52101268.76831055,34909526.82495117,14417156.219482422,14439208.030700684,12839170.455932617,16693893.432617188,22656602.85949707,11567350.387573242,3792132.3776245117,11805659.294128418,22723030.09033203,13947289.46685791,14308095.932006836,13942149.16229248,35435493.46923828,9713170.051574707,22957660.675048828,16906160.354614258,-3258077.621459961,56013648.986816406,14526057.243347168,13723359.107971191,14614902.49633789,10433154.106140137,37581344.60449219,7547622.6806640625,7612778.663635254,9685313.22479248,14519359.588623047,9225008.010864258,21218875.885009766,17329242.706298828
0.465,25042743.682861328,47634357.45239258,88738174.43847656,2210599.422454834,23675786.9720459,10171806.335449219,-3854234.6954345703,-3700087.547302246,-5410053.253173828,-5147757.530212402,-1858743.0715560913,28166173.934936523,32129966.735839844,75956771.85058594,23431831.35986328,-4064427.8526306152,-4052050.5905151367,-4345331.192016602,-1827693.1047439575,16705848.693847656,18578430.17578125,41472320.556640625,34227657.318115234,3562047.4815368652,17950679.779052734,-3440896.74949646,-4550721.645355225,9689852.714538574,11546216.96472168,17913337.70751953,50713512.4206543,32209552.764892578,15086616.516113281,15293159.484863281,14323856.353759766,16143699.645996094,22873987.197875977,11753737.449645996,3193430.6621551514,11981772.422790527,21274892.807006836,14601520.538330078,15020170.211791992,14677606.582641602,37882545.471191406,9352869.033813477,24056524.2767334,17877355.575561523,-1645023.5843658447,57039413.45214844,15182500.839233398,14567069.053649902,15416995.04852295,10015840.530395508,40857742.30957031,8903053.283691406,8908106.803894043,9263567.924499512,15280468.940734863,8882501.602172852,20454824.447631836,17826042.17529297
0.47,29957550.048828125,37190246.58203125,71144371.03271484,8747592.92602539,16466009.140014648,25886159.896850586,1243328.8097381592,1273644.6857452393,-372567.8324699402,-2180214.4050598145,-5446452.1408081055,19206720.35217285,21313686.37084961,54026645.66040039,37272262.57324219,765174.8657226562,1140595.0784683228,685847.4612236023,-134614.16959762573,13130974.769592285,13909582.138061523,25347948.07434082,18065704.345703125,10211877.822875977,19061349.868774414,1481378.9129257202,469271.60024642944,8426534.652709961,10608044.624328613,18009920.120239258,39915008.544921875,23008995.056152344,18313091.278076172,18540987.014770508,14167322.158813477,17892156.60095215,20719522.47619629,14203987.121582031,474620.2826499939,7689923.286437988,13982503.890991211,17845331.1920166,18202043.533325195,17862543.1060791,36922473.9074707,10529278.755187988,23455280.303955078,15504837.036132812,2698472.9766845703,54404018.40209961,18278720.85571289,17810121.536254883,18675354.00390625,11033546.447753906,36759044.6472168,8893069.26727295,8877311.706542969,10436061.85913086,18431173.32458496,10243603.706359863,15652294.158935547,22116550.44555664
0.475,37259849.548339844,24377805.709838867,48841026.306152344,19195436.477661133,9461481.094360352,49709545.13549805,9073146.82006836,9002389.907836914,7451458.930969238,3573612.689971924,-7040927.886962891,12391491.889953613,9344783.782958984,25989068.98498535,57262554.16870117,8590792.655944824,8855934.143066406,8167972.564697266,4018691.5397644043,12131693.840026855,9712878.227233887,6327962.398529053,-768883.2879066467,19560798.64501953,21178867.34008789,9028168.678283691,8104003.90625,7573851.108551025,10569616.317749023,21017248.153686523,26587003.707885742,12930570.602416992,21265138.626098633,21296373.36730957,13002672.19543457,20697628.021240234,17601972.579956055,15699051.856994629,-2615535.4976654053,1871220.7078933716,5334416.389465332,20817298.889160156,21020532.608032227,20693344.116210938,33815200.80566406,12370540.618896484,21454517.364501953,11082618.713378906,5739092.826843262,49318977.35595703,21045942.306518555,20550632.47680664,21489871.978759766,12832170.486450195,29460165.02380371,6273907.661437988,6307827.949523926,12432703.971862793,21254589.080810547,12420231.819152832,10315048.217773438,24917543.411254883
0.48,40199562.072753906,22126533.50830078,43472877.502441406,22945039.749145508,9532818.794250488,58471660.61401367,11883997.917175293,11821345.329284668,10262578.010559082,5494743.347167969,-6798546.79107666,12271420.4788208,6028461.456298828,16499935.150146484,64460960.388183594,11704322.814941406,11526548.385620117,10702865.600585938,5288355.350494385,13362962.72277832,6877672.6722717285,-267121.97065353394,-6704080.104827881,22691719.05517578,22459144.592285156,11752010.345458984,10786109.924316406,6944108.009338379,10830009.460449219,22582363.12866211,21249479.293823242,8373507.499694824,20766187.66784668,20653907.775878906,13239343.643188477,22558469.772338867,16741096.496582031,13632389.068603516,-4537581.920623779,-573616.2662506104,1309912.085533142,20382854.461669922,20424085.61706543,20142141.342163086,32537208.557128906,11586398.124694824,19673355.102539062,7847299.575805664,4146291.732788086,45321537.017822266,20442768.096923828,19835517.88330078,20846603.393554688,12146478.652954102,26701107.025146484,2098363.6379241943,2209414.9589538574,11745129.585266113,20680118.560791016,11758693.69506836,8085433.9599609375,22278900.146484375
0.485,37221519.470214844,32215106.964111328,59010616.302490234,16843532.56225586,16107624.053955078,44477535.247802734,6955067.6345825195,7008594.512939453,5374322.414398193,1094919.6815490723,-6871417.999267578,16388629.913330078,12080084.800720215,30895864.486694336,53346618.65234375,7073897.361755371,6645891.189575195,5899342.060089111,1154039.0253067017,14374192.237854004,5347134.113311768,7437814.235687256,2796462.5358581543,17336866.37878418,22050043.1060791,7064126.491546631,5935913.0859375,6314917.087554932,9748539.924621582,19353372.57385254,25914390.563964844,9684251.78527832,17519895.553588867,17484088.897705078,15467854.499816895,23094995.498657227,19116109.84802246,9665526.390075684,-5142362.117767334,1447163.5818481445,3290482.997894287,17228404.998779297,17243946.075439453,17003734.588623047,35215179.443359375,8352967.262268066,19125274.658203125,7668401.24130249,-428957.37290382385,44670677.185058594,17243865.966796875,16598972.32055664,17660974.502563477,8990468.978881836,31536090.850830078,-103185.76544523239,46449.23284649849,8350406.646728516,17438716.888427734,8229328.155517578,10201432.228088379,17727416.9921875
0.49,32839473.724365234,43900047.302246094,77742042.5415039,8932957.649230957,22878984.451293945,24841873.168945312,96186.36965751648,307323.48561286926,-1365904.9272537231,-4178064.3463134766,-7698679.9240112305,19919454.57458496,19964014.053344727,50947322.845458984,38112007.14111328,231428.72750759125,-34108.489751815796,-549560.1892471313,-4115583.4197998047,15113636.016845703,5529556.2744140625,18150804.51965332,15569588.661193848,10601558.685302734,20913311.004638672,560614.1090393066,-771742.5227165222,5629952.430725098,7690495.014190674,14066897.39227295,32926208.49609375,12722846.031188965,16079603.19519043,16154958.724975586,17742416.381835938,23352041.244506836,22295782.0892334,7872251.987457275,-4591417.7894592285,4664555.549621582,8303489.685058594,15781252.86102295,15999920.845031738,15762978.553771973,40218708.03833008,7907041.549682617,20067096.710205078,10264846.801757812,-2607631.6833496094,47034633.63647461,15971856.117248535,15392296.79107666,16452953.338623047,8496836.66229248,40178115.84472656,2402158.02192688,2533728.3611297607,7632537.364959717,16088302.612304688,7373176.574707031,15711658.477783203,18099445.343017578
0.495,30448253.631591797,47319423.67553711,82761367.79785156,7428053.379058838,25396139.14489746,18035858.154296875,-1812330.3651809692,-1496854.6628952026,-3122719.0494537354,-4068184.8526000977,-7594254.970550537,21389793.395996094,22984092.712402344,58647758.48388672,33069850.92163086,-1859824.776649475,-1872594.4757461548,-2169382.333755493,-4771954.536437988,17907836.9140625,7596869.468688965,22491920.471191406,19996566.772460938,8708816.528320312,20264335.63232422,-1170146.4653015137,-2672941.207885742,5073890.686035156,7338294.02923584,11960797.309875488,34770771.02661133,13919555.6640625,18173782.348632812,18177165.985107422,18057661.056518555,23791347.50366211,23512163.162231445,9349653.244018555,-3119862.5564575195,5348323.345184326,12269827.842712402,17703960.418701172,18249292.373657227,18002096.17614746,43847728.72924805,12320325.85144043,21935010.91003418,13817887.306213379,-104517.31085777283,49895664.21508789,18256752.014160156,17774356.842041016,18694648.74267578,12815817.832946777,45922492.98095703,7025429.248809814,7127627.372741699,11952085.494995117,18337575.912475586,11693770.408630371,21006780.62438965,23170410.15625
0.5,29561376.571655273,43602680.20629883,75506378.17382812,11051939.010620117,24294326.782226562,22651729.583740234,1306597.5904464722,1599097.0134735107,94942.64423847198,618692.3980712891,-6006085.395812988,21817056.65588379,20414813.995361328,53657115.9362793,36024776.458740234,1170974.4930267334,1141186.7141723633,916836.142539978,-836504.2209625244,22873537.063598633,9878611.56463623,21310129.165649414,15654682.159423828,9588123.321533203,20008918.76220703,1920889.6160125732,341046.15449905396,4952682.4951171875,9732813.835144043,13711727.142333984,31463619.232177734,12116131.782531738,19696300.506591797,19524806.97631836,16474067.687988281,23765998.84033203,22549699.783325195,10790156.364440918,-2058589.4584655762,2406536.57913208,12240852.355957031,19021713.256835938,19770824.432373047,19525106.43005371,43776874.54223633,15566371.91772461,23074230.194091797,15625479.698181152,2835539.5793914795,50146812.438964844,19879121.780395508,19469507.217407227,20116054.53491211,16045211.791992188,44707668.30444336,7756309.509277344,7876998.9013671875,15340684.89074707,19958333.96911621,15178966.522216797,21270467.75817871,25093801.498413086
0.505,30208564.75830078,41132198.333740234,69035568.23730469,13562451.362609863,22866636.276245117,26285959.243774414,4635182.857513428,4808466.43447876,3445236.6828918457,4451982.498168945,-4472185.6117248535,21557144.165039062,15744114.875793457,47159225.46386719,37007064.81933594,4616051.197052002,4396818.161010742,4066272.735595703,2681030.9886932373,26782299.041748047,10240399.360656738,20116991.04309082,9745065.689086914,9460240.364074707,20306806.564331055,5215677.261352539,3671512.6037597656,5373298.645019531,12030835.151672363,15240970.611572266,28522476.196289062,8433017.73071289,17703189.849853516,17462219.23828125,14955249.786376953,22778509.14001465,21333934.783935547,9227933.883666992,-2948509.2163085938,-2202123.8803863525,8726110.458374023,16991981.506347656,17692840.576171875,17425636.291503906,41388309.478759766,12091619.491577148,22239044.189453125,14154725.074768066,1128360.629081726,47450763.70239258,17858818.05419922,17455829.620361328,17899040.22216797,12632200.241088867,38698768.615722656,3196548.7003326416,3371759.6530914307,12077816.009521484,17854665.756225586,11942207.336425781,15989186.28692627,20163286.209106445
0.51,34893409.729003906,45846103.66821289,71887313.84277344,14059821.128845215,24442102.432250977,25677267.07458496,5734370.708465576,5835097.312927246,4548414.707183838,5558838.844299316,-3458767.4140930176,21151542.66357422,13671729.08782959,47514228.82080078,34996784.21020508,5851101.875305176,5619361.400604248,5084075.450897217,2757372.6177215576,27784997.940063477,9347545.623779297,22080055.236816406,8522769.927978516,10405946.731567383,23091381.072998047,6377284.049987793,4938740.7302856445,6073707.103729248,11328468.322753906,14017723.083496094,30459667.205810547,5894432.067871094,16037450.790405273,15848207.473754883,15501604.080200195,21209560.39428711,21677822.11303711,6123112.201690674,-5028911.113739014,-4863134.384155273,6309165.000915527,15494068.145751953,16021183.013916016,15687800.407409668,40164154.052734375,5948723.316192627,20492191.314697266,11355905.532836914,-3991018.056869507,45727191.92504883,16140703.201293945,15638721.466064453,16158245.086669922,6542572.975158691,34445056.9152832,-919424.4742393494,-753044.3668365479,6073552.60848999,15921756.744384766,5834053.516387939,11116661.071777344,14950173.377990723
