time,Fp1,Fpz,Fp2,AF3,AF4,F7,F5,F3,F1,Fz,F2,F4,F6,F8,FT7,FC5,FC3,FC1,FCz,FC2,FC4,FC6,FT8,T7,C5,C3,C1,Cz,C2,C4,C6,T8,TP7,CP5,CP3,CP1,CPz,CP2,CP4,CP6,TP8,P7,P5,P3,P1,Pz,P2,P4,P6,P8,PO7,PO5,PO3,POz,PO4,PO6,PO8,CB1,O1,Oz,O2,CB2
0.0,-7801751.613616943,-6895599.365234375,-7822829.723358154,-4658160.68649292,-5265770.91217041,-2935629.6062469482,-3288889.169692993,-3245125.2937316895,-302200.2875804901,-1148744.4639205933,-1423375.3681182861,-5431630.611419678,-5384196.2814331055,-5031108.379364014,-1756944.5371627808,-2278642.8928375244,-1476053.8339614868,44469.14792060852,67919.10529136658,-1718997.7169036865,-4128968.7156677246,-5503994.464874268,-5053986.072540283,-1954474.5683670044,-2065604.4483184814,-2175085.3061676025,-819532.2751998901,171987.66767978668,1225271.3441848755,-1186364.6507263184,-5137771.6064453125,-5040993.213653564,-769488.0366325378,-2114372.730255127,171263.23282718658,-299862.6232147217,12725.228443741798,274193.4359073639,-2077615.49949646,-4583868.503570557,-4541472.434997559,-1098937.98828125,-1727931.6186904907,-1728638.2913589478,395795.7327365875,-26924.200356006622,-623402.7147293091,-1667688.6081695557,-1679799.9143600464,-1682660.460472107,-1328773.9753723145,-1333232.6412200928,-1218233.585357666,-42425.82246661186,-1637750.506401062,-1649142.2653198242,-1642198.8010406494,12454686.164855957,-11525890.350341797,-1448066.5922164917,-1640999.674797058,2206999.3019104004
0.005,-44925899.505615234,-17088708.877563477,-7287216.663360596,-12719.403021037579,579099.5359420776,83709098.81591797,85044502.25830078,85678848.26660156,24205118.17932129,7248585.7009887695,4339956.760406494,-896450.2811431885,665155.3511619568,-10789822.578430176,5977890.491485596,59979862.213134766,30246007.919311523,13775308.609008789,3935589.551925659,658587.634563446,-6250698.089599609,-2483380.3176879883,-10810342.788696289,59525249.48120117,30601778.030395508,1730375.5283355713,4688913.822174072,-205980.37540912628,-4260976.314544678,-4346629.619598389,-8618782.997131348,-10514966.96472168,14713748.931884766,-18943544.387817383,-3419294.1188812256,-3124760.627746582,147327.4827003479,-746445.5962181091,-3724265.3369903564,-15963693.618774414,-16127220.153808594,-11903990.745544434,-12182060.241699219,-12319549.560546875,-7944652.080535889,-8096260.070800781,-3437205.7914733887,-15546609.878540039,-16244218.826293945,-15724862.098693848,-18619958.877563477,-18207818.98498535,-18290645.599365234,-9771766.662597656,-15764267.921447754,-15942153.930664062,-15671113.014221191,-119357025.14648438,64594429.01611328,-9114227.294921875,-16163818.359375,-24417051.315307617
0.01,-61287582.39746094,-25368606.567382812,-12505864.143371582,-601977.288722992,-286061.22732162476,116019378.66210938,118115386.96289062,119076461.79199219,31924320.220947266,7824059.963226318,4229841.709136963,-1195412.039756775,1011372.6854324341,-15552259.44519043,11827433.586120605,85194740.29541016,42345508.57543945,18928686.141967773,3679148.6740112305,-456618.90506744385,-8481135.368347168,-2127151.2508392334,-15632219.314575195,84174888.61083984,44820133.209228516,5777368.068695068,7791636.4669799805,-390985.1014614105,-4284502.983093262,-4606436.252593994,-10370681.762695312,-15179176.330566406,22013454.43725586,-22025527.954101562,-1829102.3969650269,-2294089.0789031982,63448.87614250183,-188684.26978588104,-2823464.870452881,-19082677.841186523,-19283452.9876709,-14017434.120178223,-12993688.583374023,-13275356.29272461,-8285342.216491699,-9099059.104919434,-1869250.774383545,-17728651.04675293,-18538032.53173828,-17834255.21850586,-22692424.774169922,-22068887.71057129,-22117155.075073242,-11457368.850708008,-18007141.11328125,-18128879.54711914,-17831541.061401367,-160058486.93847656,87800025.9399414,-10838537.216186523,-18594642.639160156,-35156726.8371582
0.015,-60332901.00097656,-32165126.80053711,-22062908.172607422,-5799941.539764404,-7197305.202484131,98111633.30078125,100019767.76123047,101039054.87060547,25557865.142822266,2534536.123275757,-488423.1686592102,-7426970.958709717,-5431158.542633057,-20427631.378173828,10251464.84375,74214981.07910156,37439960.47973633,16533340.454101562,880877.2563934326,-5348401.5464782715,-12083062.171936035,-6350080.0132751465,-20649280.548095703,71218696.59423828,41364967.346191406,9475996.017456055,9044980.0491333,-307706.92229270935,-1257046.5803146362,-3348783.7314605713,-12161073.684692383,-20211761.474609375,19284868.240356445,-13784337.043762207,4087468.147277832,1296958.6849212646,-122884.8323225975,1705142.855644226,-1253692.626953125,-17024402.618408203,-17133834.838867188,-10926958.084106445,-7264439.582824707,-7619481.563568115,-2847836.2560272217,-5741389.751434326,1221624.6128082275,-12156043.05267334,-12713570.594787598,-12063991.54663086,-17824029.92248535,-17171461.10534668,-17107862.47253418,-7904022.216796875,-12334386.825561523,-12298830.032348633,-12171186.447143555,-113478027.34375,55498329.162597656,-10133706.092834473,-12941285.133361816,-30874460.220336914
0.02,-57610950.4699707,-35928852.08129883,-26645906.448364258,-8708749.771118164,-11554781.913757324,78196891.78466797,79820388.79394531,80799072.265625,20745256.423950195,-153073.95160198212,-3160072.5650787354,-13774850.845336914,-12130505.561828613,-24955392.837524414,1318158.6265563965,59112018.58520508,33247978.21044922,14304673.194885254,221372.7831840515,-9938736.915588379,-15909586.906433105,-12324196.815490723,-25336971.282958984,51449226.37939453,36406101.22680664,12395102.500915527,10370054.244995117,-85952.7587890625,-1871636.3906860352,-4038875.102996826,-15277980.80444336,-25010185.24169922,12627723.693847656,-6866517.066955566,8834361.07635498,3982858.180999756,-135774.1355895996,3145371.198654175,-2124795.436859131,-17744338.989257812,-17799369.81201172,-11399686.813354492,-4789252.281188965,-5086731.433868408,-108217.9918885231,-5643325.328826904,-122778.2592177391,-11278813.362121582,-11841267.585754395,-11165419.578552246,-17198041.915893555,-16558109.283447266,-16588897.705078125,-7554404.735565186,-11391444.206237793,-11365685.46295166,-11373637.199401855,-79878463.74511719,27757715.225219727,-13765974.998474121,-12020921.70715332,-26761384.963989258
0.025,-54935520.17211914,-31213176.727294922,-17960277.557373047,-2745632.8868865967,-5264302.730560303,87019615.17333984,89053749.08447266,89992660.52246094,24983043.670654297,3693062.5438690186,163166.52297973633,-11065027.236938477,-9403312.683105469,-24627326.96533203,-3082215.3091430664,63908615.11230469,38778869.62890625,16384981.155395508,2796713.352203369,-9076022.148132324,-14823006.629943848,-12400457.382202148,-25083168.029785156,51467132.568359375,41392715.45410156,14938596.725463867,11775356.29272461,-3590.246429666877,-7575232.982635498,-6737382.888793945,-16123241.424560547,-24815294.26574707,10584852.21862793,-6585072.994232178,8960521.697998047,4413038.25378418,52827.607840299606,3099838.0184173584,-4100087.6426696777,-20793212.890625,-20895099.639892578,-15208506.58416748,-7361079.692840576,-7548256.397247314,-3192222.3567962646,-9681925.773620605,-5520699.024200439,-17558235.16845703,-18501281.73828125,-17671165.466308594,-22691171.646118164,-22066535.94970703,-22337566.375732422,-11699464.797973633,-17769514.083862305,-17935571.670532227,-17934448.2421875,-150399139.40429688,72879371.6430664,-19698423.385620117,-18477363.58642578,-33939121.24633789
0.03,-43769474.029541016,-17300920.486450195,31411.28271818161,10029547.691345215,9199472.427368164,109985893.24951172,112983810.42480469,113882781.98242188,31403110.50415039,9590879.440307617,6382154.941558838,2275648.1170654297,4173471.9276428223,-17190769.19555664,6718791.961669922,81313735.96191406,46667900.08544922,19795602.798461914,5186820.983886719,-2580770.969390869,-6519730.567932129,-3180458.5456848145,-17611913.681030273,69573989.86816406,51573234.55810547,17211254.119873047,11695862.770080566,-340961.39669418335,-12646612.167358398,-7716325.283050537,-11148543.357849121,-17291803.35998535,15813998.222351074,-7464562.892913818,6446414.470672607,4478363.990783691,205220.35658359528,2792037.24861145,-3096784.830093384,-19051553.72619629,-19212566.375732422,-14476847.648620605,-7974643.230438232,-8127568.244934082,-7168962.001800537,-11467577.934265137,-8167703.628540039,-21429622.650146484,-22658382.415771484,-21776212.692260742,-24183588.0279541,-23623865.127563477,-23997852.325439453,-13646396.63696289,-21833425.521850586,-22146198.272705078,-22102722.16796875,-294562347.4121094,181697387.6953125,-19301939.010620117,-22609001.15966797,-46761100.76904297
0.035,-27408632.278442383,-3913975.238800049,13237165.451049805,19693733.21533203,20163833.618164062,118905227.66113281,122525047.3022461,123424354.55322266,32113292.694091797,11724987.030029297,9667756.080627441,15562214.851379395,17534282.684326172,-8766902.923583984,22223611.83166504,89403457.64160156,47938106.536865234,20651996.612548828,4880883.693695068,3384716.510772705,2432333.9462280273,7644671.91696167,-9123280.52520752,85853866.57714844,55325393.67675781,18212308.883666992,10257466.316223145,-1212842.8220748901,-12038527.488708496,-5112749.5765686035,-4423177.242279053,-8730266.571044922,23092418.670654297,-5017630.100250244,5454792.9763793945,5674575.8056640625,191447.1834897995,3907610.4164123535,801637.7687454224,-11953194.618225098,-12090543.746948242,-7377315.044403076,-3260915.756225586,-3475106.716156006,-7221956.253051758,-8037265.777587891,-4815186.500549316,-16976230.62133789,-18078258.514404297,-17335615.158081055,-17042879.104614258,-16585500.717163086,-16911087.036132812,-10116822.242736816,-17481113.43383789,-17769706.72607422,-17796665.19165039,-384177124.0234375,261966430.6640625,-10501491.54663086,-18300540.924072266,-50857429.50439453
0.04,-20896091.46118164,-1042341.2322998047,13399919.509887695,19271881.103515625,19966259.002685547,109968582.15332031,113304199.21875,114321617.12646484,28622880.935668945,9912402.153015137,8325729.3701171875,17244775.772094727,19085943.2220459,-7789353.370666504,26878076.553344727,81328872.68066406,44254760.7421875,19620388.03100586,3428790.0924682617,3124063.491821289,3220573.4252929688,9343188.285827637,-8102345.4666137695,87767547.60742188,49924350.73852539,17347478.86657715,9776801.109313965,-2413264.274597168,-7607738.494873047,-2132385.25390625,-4153020.8587646484,-7721584.796905518,26578182.220458984,-2018757.3432922363,7308221.340179443,6979027.271270752,157883.1672668457,5770292.282104492,2492885.8280181885,-7808394.432067871,-7838194.847106934,-1290100.2168655396,1497415.6618118286,1197305.0832748413,-4451058.864593506,-4590606.212615967,-813932.9552650452,-10309679.03137207,-11107810.020446777,-10503016.471862793,-8928092.956542969,-8544186.59210205,-8958883.285522461,-6454913.139343262,-10716969.49005127,-10900641.441345215,-11104326.248168945,-345216430.6640625,245384674.07226562,-987137.4368667603,-11600954.055786133,-41364356.994628906
0.045,-28701667.78564453,-6460131.645202637,6833796.977996826,12027934.074401855,13100482.940673828,99931205.74951172,102495124.81689453,103686912.5366211,26309137.34436035,7700544.834136963,5582870.4833984375,8873681.06842041,10628928.184509277,-13900191.307067871,20233345.03173828,70412223.81591797,42048221.588134766,19434850.692749023,3230668.783187866,-1678341.7463302612,-3335036.039352417,1953853.2495498657,-14140381.813049316,80850090.02685547,43739288.330078125,15834413.528442383,11335088.729858398,-3392261.9819641113,-4933388.710021973,-2558319.091796875,-11417814.254760742,-13838164.329528809,27011592.864990234,-1699318.766593933,9556795.120239258,6978826.999664307,247720.6438779831,6225969.314575195,-850828.2899856567,-11316801.071166992,-11205054.28314209,-1101690.0539398193,1407638.0729675293,1031017.8995132446,-2207891.9410705566,-6153539.180755615,-2174504.518508911,-9196065.902709961,-9884099.960327148,-9258674.621582031,-7167235.374450684,-6805348.873138428,-7566337.108612061,-7941030.025482178,-9388390.54107666,-9485751.152038574,-9839870.45288086,-247325668.33496094,174230484.00878906,2778841.018676758,-10316543.579101562,-28060726.165771484
0.05,-38043327.33154297,-10163908.004760742,4177828.311920166,6127647.399902344,8982472.41973877,98745399.47509766,100932197.57080078,102157447.8149414,25766222.00012207,6850697.994232178,4735689.163208008,2593498.468399048,4422712.326049805,-18151233.673095703,18544376.373291016,70155265.80810547,42351657.86743164,20261730.194091797,4000484.4665527344,-4258186.817169189,-7253205.299377441,-3686015.1290893555,-18254222.869873047,77676971.43554688,44718231.201171875,15509403.228759766,13030352.592468262,-3491999.864578247,-6380170.3453063965,-4992852.687835693,-17623968.12438965,-18005699.157714844,29096389.770507812,-2062178.8501739502,9283536.911010742,6123510.360717773,334338.9630317688,5609017.372131348,-5054612.159729004,-16056982.040405273,-15825944.900512695,-2548194.408416748,-939943.3732032776,-1389114.1414642334,-1070687.7708435059,-9731637.001037598,-6301311.96975708,-11514825.820922852,-12311620.712280273,-11611603.736877441,-8859609.603881836,-8478002.548217773,-9586502.075195312,-11527111.053466797,-11574460.983276367,-11598331.451416016,-11963568.687438965,-213355819.70214844,146957397.4609375,3142015.9339904785,-12429644.584655762,-22448705.673217773
0.055,-38006294.25048828,-8360072.135925293,7169047.3556518555,5070768.356323242,10665580.749511719,100919502.25830078,103476860.04638672,104521766.66259766,24690649.032592773,6901977.062225342,6059830.665588379,5822974.20501709,7726906.776428223,-14499016.761779785,29266807.556152344,78537345.88623047,42268749.23706055,20449884.41467285,4377335.071563721,-1305077.5527954102,-2504522.0851898193,-73404.9305319786,-14481423.377990723,82256134.03320312,51159679.4128418,16616886.138916016,12976449.966430664,-2487541.913986206,-9375539.779663086,-4698001.861572266,-15159807.205200195,-14243980.407714844,33372482.299804688,-705671.7872619629,6287170.886993408,5662019.729614258,194372.9668855667,7322331.428527832,-4078755.3787231445,-13719022.750854492,-13453647.61352539,-738549.8285293579,-1164038.3005142212,-1629372.5967407227,-124865.5691742897,-9225653.648376465,-5601956.367492676,-10028925.895690918,-10924295.425415039,-10251577.377319336,-8288461.685180664,-7845099.925994873,-9046913.146972656,-10934863.090515137,-10147507.667541504,-10125473.976135254,-10352766.990661621,-271557281.4941406,194304809.5703125,4760086.536407471,-10859741.2109375,-24902780.532836914
0.06,-32181713.104248047,-5010373.592376709,11248373.985290527,6930053.234100342,15026042.938232422,99772041.32080078,102973991.39404297,103811279.296875,24318264.00756836,8683124.542236328,8873342.514038086,14441690.444946289,16258829.116821289,-6229759.216308594,38909145.35522461,84015663.14697266,42125099.182128906,20437953.94897461,5264036.178588867,3936892.509460449,6023613.452911377,8694264.41192627,-6202849.388122559,87329406.73828125,55398609.16137695,18081222.534179688,12455050.468444824,-846954.9417495728,-10050360.679626465,-426262.58730888367,-6397787.570953369,-6000091.075897217,35008682.25097656,170141.38400554657,3308806.4193725586,5810486.316680908,-134569.61512565613,13083657.264709473,2194767.2367095947,-5725759.506225586,-5542722.225189209,1466494.4410324097,-459152.7283191681,-796853.1250953674,-117679.96102571487,-4888395.309448242,1118960.4997634888,-4322267.055511475,-5183670.520782471,-4581753.730773926,-6873933.792114258,-6376634.120941162,-7495530.605316162,-6460902.214050293,-4575623.989105225,-4621414.1845703125,-4634188.175201416,-342429779.0527344,253107879.63867188,6444739.34173584,-5267800.331115723,-27487316.131591797
0.065,-28001201.629638672,-2049311.3994598389,15285858.154296875,10150364.875793457,20070619.583129883,97130653.38134766,100563591.00341797,101377166.74804688,28087644.577026367,14130507.469177246,13678459.167480469,21168289.184570312,22794301.986694336,-115106.7465543747,34144382.47680664,81054473.87695312,44721191.40625,22625595.092773438,8744064.331054688,7222343.921661377,10842308.99810791,14519506.454467773,-172449.88679885864,85503303.52783203,53914669.036865234,19517129.89807129,14052885.055541992,723677.4563789368,-6799951.553344727,4013854.98046875,684655.5471420288,-52305.34076690674,31633167.266845703,-1708068.4900283813,3697184.8011016846,6302410.125732422,-343675.6730079651,19662668.228149414,8200685.501098633,-355884.313583374,-303914.72578048706,-643426.8951416016,-1941637.9928588867,-2025389.1944885254,-1714927.5541305542,-2461410.7608795166,6433106.422424316,-1149574.2797851562,-1923104.166984558,-1265320.4202651978,-8949810.981750488,-8506743.431091309,-9609871.864318848,-4031617.1646118164,-1409958.6009979248,-1631139.5168304443,-1450973.8683700562,-355732482.91015625,261186279.296875,4586225.0328063965,-2264057.397842407,-25478002.548217773
0.07,-25996639.251708984,1967094.06375885,19983224.868774414,14358351.707458496,25321832.65686035,96747238.15917969,99818061.82861328,100742782.59277344,34928489.685058594,21821563.720703125,19969667.434692383,23659780.502319336,25165178.298950195,877179.741859436,22855850.219726562,74307952.88085938,48987037.658691406,27185829.162597656,13972239.49432373,8268549.919128418,11405804.634094238,15076745.03326416,709599.9121665955,78993659.97314453,50211341.857910156,21370288.848876953,17465744.018554688,1924172.6398468018,-1168656.2299728394,5371135.711669922,2060139.8944854736,769818.9616203308,27744464.874267578,-3302620.6493377686,8281410.217285156,7598700.523376465,-220022.7975845337,22606094.360351562,9769165.992736816,-1556085.467338562,-1542604.3272018433,-4461670.875549316,-3618092.7753448486,-3483778.238296509,-2558081.1500549316,-4081359.86328125,4423391.342163086,-4146922.5883483887,-4894634.246826172,-4064127.4452209473,-12552712.440490723,-12254032.135009766,-13504059.791564941,-5795616.626739502,-4262463.569641113,-4594801.425933838,-4332944.869995117,-323511840.8203125,229204040.52734375,831363.0223274231,-5258578.777313232,-21232336.044311523
0.075,-25709165.573120117,3920495.2716827393,20400173.18725586,16340929.03137207,26903436.6607666,96915382.3852539,99413688.65966797,100370712.28027344,38683898.92578125,25939683.91418457,23705474.853515625,22174882.888793945,23711112.97607422,-2568053.0071258545,22352285.385131836,70041137.6953125,49912605.28564453,30486141.204833984,16659397.12524414,8529113.76953125,11307885.16998291,12604329.109191895,-2850574.731826782,76044601.44042969,48332065.58227539,22891298.294067383,19415830.612182617,2723552.703857422,3156453.847885132,4873904.705047607,-529893.6367034912,-2760121.5839385986,28388105.392456055,-728384.9120140076,13912154.197692871,10052787.780761719,94527.7288556099,21817932.12890625,8070924.758911133,-5713982.105255127,-5579993.724822998,-3808581.3522338867,-1199088.6926651,-1050199.5086669922,351207.7033519745,-5498623.371124268,-1578022.3608016968,-9058700.561523438,-9859797.477722168,-8958614.349365234,-11963337.898254395,-11711309.432983398,-13175065.994262695,-7327321.0525512695,-9065002.44140625,-9299741.744995117,-9125114.440917969,-293602416.9921875,203929840.08789062,484504.371881485,-9978727.340698242,-18442308.42590332
0.08,-30566560.745239258,-1918826.699256897,11364866.256713867,12169281.005859375,20605588.912963867,94783691.40625,96961967.46826172,97833404.54101562,35542827.60620117,22372587.203979492,20676666.259765625,16225399.017333984,17881086.349487305,-8616572.380065918,33780315.39916992,69544456.4819336,45865116.119384766,29206436.157226562,13844243.049621582,7438153.7437438965,10692036.628723145,8315463.066101074,-8976699.829101562,79754959.10644531,47852771.7590332,22417364.1204834,18126113.891601562,2790591.239929199,2809072.494506836,5035752.296447754,-4289268.493652344,-8802982.330322266,31778932.571411133,3738401.6513824463,16035692.21496582,12649292.945861816,257524.84798431396,20695461.27319336,6509541.988372803,-8270774.841308594,-7966207.027435303,737890.6011581421,4005070.209503174,3948208.0936431885,5998426.43737793,-3261119.604110718,-4086719.9897766113,-10414880.752563477,-11276408.195495605,-10547122.00164795,-7301650.047302246,-6894558.906555176,-8459846.496582031,-5069844.2459106445,-10490695.95336914,-10488118.171691895,-10547498.70300293,-286313873.2910156,203898452.75878906,4753479.957580566,-11171236.991882324,-18078531.26525879
0.085,-39140972.13745117,-12035593.032836914,-503383.0404281616,4586886.882781982,10587836.265563965,92875961.30371094,95104141.23535156,95969276.42822266,28857370.376586914,14301245.68939209,12581525.802612305,8090012.550354004,9837974.548339844,-13741118.431091309,42307929.99267578,71500534.05761719,41491699.21875,24540166.8548584,7656437.873840332,3978029.96635437,7350185.871124268,3240184.783935547,-14016170.501708984,85242843.62792969,47005489.349365234,20201124.19128418,15726262.092590332,1661544.0845489502,-2099105.5965423584,5521957.874298096,-7452670.097351074,-13818770.408630371,32624858.856201172,4642165.660858154,13472070.693969727,13999063.491821289,84035.64989566803,20679807.662963867,6462320.804595947,-8525004.386901855,-8179222.106933594,2625008.5830688477,6239708.423614502,5912917.137145996,10127278.327941895,59762.69021630287,-883182.7044487,-8362768.173217773,-9217885.971069336,-8758324.62310791,-4524925.231933594,-3928245.5444335938,-5310878.753662109,-1677721.0235595703,-8606492.042541504,-8428821.563720703,-8717397.689819336,-299940338.1347656,219574752.8076172,9518352.508544922,-9144457.817077637,-20127744.674682617
0.09,-40890197.75390625,-14198434.829711914,-1342608.3326339722,2645295.1431274414,7559496.4027404785,96509986.8774414,99000816.34521484,100062477.1118164,24998275.756835938,9155032.15789795,6572487.831115723,4744687.557220459,6481422.901153564,-13310326.57623291,40960453.033447266,76045593.26171875,41835884.09423828,20914434.4329834,3010371.685028076,229411.2890958786,3179081.678390503,1417371.392250061,-13311038.01727295,88574966.43066406,47628093.71948242,19482833.862304688,15302074.432373047,-334758.37111473083,-7675543.308258057,4707431.793212891,-7862854.957580566,-13199882.507324219,30996795.654296875,2383018.0168151855,10101872.444152832,14283082.008361816,-289768.5170173645,19905744.552612305,7312286.853790283,-7520724.773406982,-7323940.753936768,194337.42761611938,4396983.623504639,3934709.7873687744,10474369.049072266,202145.08473873138,3980206.7279815674,-6680062.294006348,-7479397.773742676,-7110041.14151001,-5975866.794586182,-5358054.161071777,-6291324.615478516,-1533639.0733718872,-7032408.714294434,-6865840.911865234,-7167466.163635254,-341052276.6113281,250209594.7265625,11444109.916687012,-7618320.465087891,-24998661.041259766
0.095,-29406377.7923584,-3936089.038848877,11475082.397460938,10915599.822998047,15602150.917053223,106297119.140625,109128845.21484375,110419837.95166016,26187061.309814453,10443413.734436035,7414544.105529785,10646658.897399902,12274960.5178833,-6449404.716491699,40365322.11303711,83439888.00048828,46334636.68823242,21063524.24621582,2301175.594329834,-133653.75995635986,3343549.0131378174,6353642.463684082,-6231854.438781738,93182052.61230469,52967658.99658203,22988344.192504883,17043218.6126709,-1942594.5281982422,-10227741.241455078,3467689.275741577,-3887136.459350586,-6212430.477142334,32669467.92602539,3355638.265609741,10464219.093322754,14816582.679748535,-576507.2703361511,17430698.39477539,8665384.292602539,-5387917.995452881,-5416455.7456970215,-255467.92149543762,3933781.147003174,3534387.5885009766,8522017.478942871,-2657047.748565674,6260968.208312988,-7152060.031890869,-7947322.368621826,-7403335.5712890625,-7254704.95223999,-6706424.713134766,-7308238.506317139,-4465230.464935303,-7528295.040130615,-7531520.366668701,-7569535.732269287,-413648498.53515625,303764587.40234375,11105714.797973633,-8250554.084777832,-31654872.89428711
0.1,-12599712.371826172,9174050.331115723,25821279.525756836,23753768.920898438,27148406.982421875,117486335.75439453,120734382.62939453,122021820.06835938,29622013.092041016,15174142.837524414,12704758.644104004,21361957.550048828,22869058.60900879,1965061.6645812988,51059349.060058594,92054016.11328125,51102146.14868164,23929012.298583984,3901653.289794922,3364068.2697296143,8902608.871459961,15458608.627319336,2056775.0930786133,103306785.5834961,62191814.42260742,29555238.723754883,18927373.8861084,-2138475.4180908203,-9879920.959472656,4415973.663330078,2796075.3440856934,2148212.671279907,40130542.75512695,10552852.630615234,14441863.059997559,16057563.781738281,-627603.7096977234,15420303.344726562,10670063.018798828,-2319301.3668060303,-2493487.3580932617,5655039.7872924805,8244672.775268555,7983694.553375244,6214057.922363281,-5194404.602050781,5001201.152801514,-8452590.942382812,-9338464.736938477,-8557744.979858398,-4811714.649200439,-4210740.089416504,-5062556.266784668,-7042802.333831787,-8824868.202209473,-9052226.066589355,-8754432.678222656,-494577056.8847656,368574005.1269531,10210549.354553223,-9669950.485229492,-37316867.82836914
0.105,-1802293.062210083,16097593.307495117,32235431.671142578,33046058.654785156,33819168.09082031,125983856.20117188,129667694.09179688,130687637.32910156,32379917.14477539,19127260.208129883,17289247.512817383,28914133.071899414,30369855.880737305,7068856.716156006,67689849.85351562,100377258.30078125,54676914.21508789,27001636.505126953,5411433.696746826,7363436.222076416,15114909.172058105,22605541.229248047,6756027.2216796875,115553741.45507812,70674179.07714844,35373123.16894531,20021579.74243164,-1083696.1269378662,-9046545.028686523,8032880.783081055,8362833.9767456055,7103248.596191406,48554870.60546875,19222597.122192383,17912000.65612793,17330680.84716797,-528557.8370094299,15873311.042785645,12954312.324523926,650446.0573196411,454578.57847213745,13713399.887084961,13560791.015625,13362302.780151367,4001666.54586792,-6019673.3474731445,1392361.9985580444,-8760210.037231445,-9738612.174987793,-8893906.593322754,-945223.7486839294,-202232.31613636017,-1813739.6574020386,-7756948.947906494,-9089663.5055542,-9487555.503845215,-9059282.302856445,-547729187.0117188,414752655.0292969,9931854.248046875,-10032174.110412598,-40096736.907958984
0.11,1795980.5727005005,18871030.807495117,33774616.24145508,36940639.49584961,35655380.24902344,131419479.37011719,135335494.9951172,136033081.0546875,34453830.71899414,21455070.49560547,19534206.39038086,30816694.259643555,32276092.529296875,9433326.721191406,77813598.6328125,108688873.29101562,58527347.564697266,29136692.04711914,6468007.564544678,8889392.852783203,17811349.868774414,25369215.01159668,8821612.358093262,122732322.6928711,75685317.99316406,38012168.884277344,21283023.834228516,400838.37509155273,-8456556.32019043,12060942.649841309,11247570.991516113,9396574.974060059,53214725.494384766,23965278.62548828,18602310.180664062,18418296.813964844,-422912.00160980225,17860801.696777344,14882310.86730957,3355388.641357422,3201424.8371124268,18199556.350708008,15515942.573547363,15307364.463806152,2832273.483276367,-5970082.2830200195,-2153377.5329589844,-6995724.678039551,-7974079.132080078,-7235332.96585083,1559347.39112854,2291860.580444336,88854.1117310524,-7414294.242858887,-7218241.6915893555,-7665050.029754639,-7348467.826843262,-556509887.6953125,425526458.7402344,12523645.401000977,-8191223.14453125,-39397827.1484375
0.115,1454675.4360198975,20316171.646118164,33888195.0378418,37081050.872802734,35489063.26293945,133749343.87207031,137507080.078125,138007080.078125,36405342.10205078,22756734.84802246,20521114.349365234,29261972.427368164,30686559.677124023,11457736.015319824,78418746.94824219,116027679.44335938,62848388.671875,30629592.895507812,7689184.188842773,7819584.846496582,17388504.028320312,25443056.106567383,10885765.075683594,123710609.43603516,78391174.31640625,38176902.770996094,23465843.200683594,1873193.9792633057,-6999034.881591797,14481124.877929688,12605609.893798828,11432024.002075195,56098934.173583984,25659065.24658203,19045022.96447754,20077312.469482422,-323270.4699039459,19620250.701904297,16551733.016967773,6682444.095611572,6593926.906585693,20433118.82019043,16099504.470825195,15901533.126831055,4848871.231079102,-4780301.570892334,-2420676.9466400146,-2616564.7506713867,-3560062.6468658447,-2915878.5343170166,4647736.549377441,5180791.854858398,3051962.13722229,-5872851.371765137,-2761815.7863616943,-3139578.8192749023,-2967657.0892333984,-527407897.94921875,408738098.14453125,20034215.927124023,-3602814.197540283,-33837394.71435547
0.12,-4529891.490936279,15904232.9788208,28302204.132080078,33011257.17163086,32038066.864013672,131035156.25,134390975.95214844,134824295.0439453,36848045.349121094,22032348.6328125,19886281.967163086,25321840.286254883,26628599.166870117,11527590.75164795,74907768.24951172,118081848.14453125,65328651.428222656,31854694.366455078,8556141.85333252,5273093.700408936,15851046.562194824,23673824.310302734,11177209.854125977,122597602.84423828,79858604.43115234,37978713.98925781,25999727.249145508,3205205.9173583984,-4983584.403991699,15118594.1696167,12654584.884643555,11476439.476013184,60491329.193115234,27980434.41772461,22456207.275390625,22582864.76135254,-182849.16877746582,21099586.486816406,18257175.44555664,9920058.250427246,9935903.549194336,24408166.885375977,19387514.114379883,19191030.502319336,10109505.653381348,-1435023.6654281616,1522160.4108810425,3388020.9922790527,2394635.9157562256,3047120.0942993164,10293133.735656738,10706467.628479004,9026393.89038086,-2348065.137863159,3173449.5162963867,2919459.104537964,3060239.07661438,-475893859.86328125,379221740.72265625,29561670.303344727,2604111.433029175,-23280914.306640625
0.125,-13820246.696472168,7584501.74331665,19430406.57043457,26181352.615356445,26285770.416259766,123643775.9399414,126736305.2368164,127175971.98486328,34863197.326660156,19042114.2578125,17164325.714111328,20607654.571533203,21783344.268798828,7419565.200805664,69640022.27783203,112570297.24121094,64852661.1328125,32929195.404052734,8147717.475891113,2358162.8799438477,14211045.265197754,20402267.456054688,7219397.54486084,119578147.8881836,78897666.93115234,38739295.959472656,28106111.526489258,3944105.386734009,-4354863.64364624,14677104.949951172,10275479.316711426,7315903.663635254,62809947.9675293,30432220.458984375,27478815.07873535,24903333.66394043,-87449.3196606636,22618726.73034668,19204557.418823242,10437482.833862305,10559971.809387207,27342311.85913086,23432128.90625,23104469.299316406,14859217.643737793,2309096.574783325,5743367.671966553,7769717.693328857,6660169.1246032715,7344481.468200684,14065020.561218262,14603590.965270996,13130317.687988281,1262740.135192871,7411144.256591797,7275157.451629639,7419647.693634033,-423959228.515625,345452484.1308594,33587520.599365234,7038216.590881348,-13608004.570007324
0.13,-9366473.197937012,15078081.130981445,26954969.40612793,25903953.552246094,28774810.791015625,118227386.47460938,121345230.10253906,121844573.97460938,33870559.69238281,17977371.215820312,16282804.489135742,21935419.0826416,23071460.723876953,4021700.859069824,61136844.635009766,104508720.39794922,63863094.329833984,34293178.55834961,7471091.270446777,1175571.5608596802,14200902.938842773,19927177.42919922,3869963.8843536377,110218803.40576172,74893089.2944336,40285354.61425781,29590723.037719727,3703091.859817505,-5094870.567321777,14195493.698120117,7135721.206665039,3949375.629425049,56240749.35913086,29111673.35510254,29282554.626464844,25776126.861572266,-204272.3149061203,23102807.998657227,18264192.581176758,7587047.100067139,7699544.906616211,21724287.033081055,21884586.334228516,21366558.074951172,15352063.179016113,2518950.2239227295,5417758.464813232,7476943.016052246,6329778.19442749,6996543.407440186,9128846.168518066,9834453.582763672,8229015.350341797,1160850.167274475,7094365.59677124,7049733.1619262695,7138465.881347656,-397154693.6035156,313710296.6308594,27956222.534179688,6665625.095367432,-13970005.03540039
0.135,24708204.26940918,55817195.892333984,67566162.109375,42233016.96777344,50032215.1184082,123015274.04785156,126206718.44482422,126785926.81884766,39822666.16821289,24624322.89123535,23588600.158691406,36073055.267333984,37279441.833496094,10808455.467224121,52777385.71166992,101530242.91992188,65703147.888183594,36935855.865478516,9360064.506530762,4592012.405395508,18825839.99633789,28084657.669067383,10686336.517333984,95664474.48730469,70048515.31982422,41627769.470214844,30435617.446899414,3306043.1480407715,-4323031.902313232,15376919.746398926,8412613.868713379,10797636.985778809,41947345.73364258,23217628.479003906,25563415.52734375,25002759.93347168,-500882.26795196533,22034116.744995117,16283256.530761719,4670195.10269165,4623979.091644287,6839838.027954102,13173785.209655762,12722408.294677734,12119728.088378906,-1687274.3368148804,1394633.0547332764,3043462.7532958984,1995218.9922332764,2645613.431930542,-4002981.185913086,-3353281.021118164,-5027411.460876465,-3226481.6761016846,2774343.967437744,2786257.266998291,2850970.0298309326,-405583953.8574219,292202667.2363281,17086719.512939453,2143250.4653930664,-26338220.596313477
0.14,77425598.14453125,116530685.42480469,128041534.42382812,71885993.95751953,84675186.15722656,138464126.58691406,141612716.6748047,142216415.40527344,54009517.669677734,39051502.2277832,39695373.53515625,59481040.954589844,60786487.5793457,29471420.288085938,51920116.42456055,104850372.31445312,70932250.9765625,41688835.14404297,15365801.811218262,13354169.845581055,28796216.96472168,43795856.47583008,29317087.173461914,85777160.64453125,67136169.43359375,42256156.92138672,30803485.870361328,4552051.067352295,-766671.9555854797,19203142.166137695,16733234.405517578,29350530.62438965,29867593.76525879,16639158.248901367,19197475.43334961,23399229.049682617,-689547.2407341003,21416852.951049805,15918454.17022705,4828178.405761719,4636047.840118408,-8396535.873413086,3100687.9806518555,3097743.272781372,8460290.908813477,-6603649.139404297,-1007371.9024658203,-2276683.568954468,-3200170.9938049316,-2503512.382507324,-16979503.631591797,-16535884.857177734,-18038597.106933594,-8052912.712097168,-2513261.079788208,-2491413.5932922363,-2296174.5262145996,-439509368.8964844,290218170.1660156,8552484.512329102,-3211019.75440979,-42722293.853759766
0.145,116706741.33300781,161371246.33789062,174055740.3564453,98052429.19921875,114092262.2680664,155264480.5908203,158571640.01464844,159132034.3017578,69533218.38378906,54044059.75341797,56820495.60546875,80213752.74658203,81546394.34814453,49196109.771728516,58755626.6784668,109112770.0805664,77251457.21435547,48036525.72631836,23530563.354492188,24529195.78552246,40775138.85498047,58509017.94433594,48861583.7097168,87045043.9453125,66621376.037597656,42852825.16479492,31522356.033325195,8167970.657348633,2463144.7792053223,23954023.361206055,27722221.37451172,48780323.02856445,26424194.3359375,12768562.316894531,14238480.567932129,22026649.475097656,-579522.3116874695,23091222.763061523,18042928.69567871,6791218.7576293945,6610092.1630859375,-16331562.042236328,-2666764.497756958,-2207116.8422698975,5782312.870025635,-9318099.021911621,-241481.4978837967,-6805925.369262695,-7709881.30569458,-6942380.428314209,-23783517.837524414,-23392656.326293945,-24790655.1361084,-10612678.527832031,-7239677.429199219,-7238476.753234863,-6848510.265350342,-492890045.1660156,316431060.7910156,4339962.959289551,-7752997.875213623,-55766490.9362793
0.15,123672142.0288086,170181884.765625,186366531.3720703,106980392.45605469,126120277.40478516,163045059.20410156,167112457.27539062,167661956.78710938,77199348.44970703,62245071.41113281,66552001.953125,91474449.15771484,92736526.48925781,58052745.8190918,63753112.79296875,110779975.89111328,81889030.45654297,53552146.911621094,29924209.594726562,33953861.236572266,51008388.51928711,66444908.142089844,57490562.438964844,92727188.11035156,67527023.31542969,44442367.55371094,33323745.727539062,12507652.282714844,2071624.0406036377,26788383.48388672,34681190.490722656,57408412.93334961,27222761.154174805,11339221.000671387,11508782.386779785,21715242.385864258,-350990.50402641296,25377357.482910156,20114513.397216797,7409993.1716918945,7277084.3505859375,-18821739.196777344,-4428925.514221191,-3955771.9230651855,3019907.7129364014,-11743560.791015625,-931246.280670166,-11590420.722961426,-12588215.827941895,-11783372.87902832,-26655422.21069336,-26066587.448120117,-27729600.90637207,-13117891.311645508,-12311148.643493652,-12321171.760559082,-11879988.670349121,-570704956.0546875,370707458.49609375,815186.9773864746,-12580547.332763672,-66602386.474609375
0.155,108695800.78125,155374954.2236328,175808685.30273438,100547142.0288086,124865997.31445312,159557556.15234375,164734649.65820312,165375335.69335938,74693153.38134766,62969749.450683594,67988868.7133789,96720680.2368164,97906127.9296875,55821834.564208984,60180244.44580078,110999786.37695312,83061096.19140625,55340473.17504883,32123325.34790039,39357387.54272461,58232223.51074219,70224243.1640625,55200183.8684082,91532829.28466797,68992301.94091797,46676460.26611328,35458972.9309082,15041600.227355957,-300802.43945121765,27494335.174560547,36095211.029052734,55180469.51293945,25475812.911987305,11041301.727294922,9592715.2633667,22675354.00390625,-298517.04835891724,25378587.72277832,19839988.708496094,6636537.551879883,6381159.30557251,-21305009.841918945,-5209939.479827881,-5113811.016082764,125132.09879398346,-16869091.033935547,-6155262.9470825195,-16881233.21533203,-17991088.8671875,-17164682.388305664,-29897237.77770996,-29112535.47668457,-31348981.857299805,-18548866.271972656,-17726325.98876953,-17736656.188964844,-17420471.19140625,-656062500.0,430031829.8339844,-4108628.749847412,-17965066.90979004,-77294609.06982422
0.16,90860511.77978516,138649200.43945312,161567138.671875,90632011.41357422,119967117.30957031,150916763.30566406,156824523.92578125,157569671.63085938,68379959.10644531,60754295.349121094,66172615.05126953,99958366.39404297,101206794.73876953,52065261.84082031,52740905.76171875,110435234.06982422,80848236.08398438,53093822.47924805,30871356.964111328,40708812.71362305,61747642.517089844,73843002.31933594,51586696.62475586,83030166.62597656,70170227.05078125,48037528.99169922,36480216.97998047,15015867.233276367,-290502.1905899048,28398666.381835938,35862579.345703125,51531951.904296875,22572591.78161621,12186126.708984375,8481637.001037598,24202827.45361328,-409643.35203170776,23757135.39123535,19046426.77307129,7069337.844848633,6618091.583251953,-23339750.289916992,-5398325.9201049805,-5564415.454864502,-869803.1902313232,-23142477.03552246,-11731860.160827637,-19899574.279785156,-21029972.076416016,-20181276.321411133,-32201648.712158203,-31495445.251464844,-34411411.28540039,-25028661.727905273,-20638177.8717041,-20679491.04309082,-20497671.127319336,-700512207.03125,458350952.1484375,-7650149.822235107,-21105228.424072266,-81784988.40332031
0.165,75556648.25439453,125421501.15966797,148664916.9921875,85172737.12158203,114147399.90234375,144649810.79101562,150735961.9140625,151467605.5908203,65582351.68457031,58948146.82006836,64579887.39013672,98697143.5546875,100178565.9790039,53528060.91308594,49571033.4777832,107799880.98144531,78093444.82421875,50039913.177490234,28593679.428100586,39046783.447265625,60017162.32299805,75628311.15722656,53201866.149902344,77572563.17138672,70564659.11865234,48374969.482421875,36560573.57788086,14022899.627685547,2627253.0555725098,30102544.7845459,37177577.97241211,53048175.81176758,24760566.71142578,15082680.702209473,9681925.773620605,25159626.007080078,-438135.8325481415,23739429.473876953,20969724.655151367,9582742.691040039,9188686.37084961,-20479854.583740234,-3656688.451766968,-3711508.03565979,770596.7426300049,-26161489.486694336,-11985450.744628906,-18206291.19873047,-19211696.62475586,-18409013.748168945,-29458732.60498047,-29060100.555419922,-32677234.649658203,-27954309.463500977,-18745847.702026367,-18852458.953857422,-18711372.37548828,-682235473.6328125,448083404.5410156,-6565419.673919678,-19487474.44152832,-73384704.58984375
0.17,59127822.87597656,108875526.42822266,132082855.22460938,82535400.390625,104872009.27734375,143378143.31054688,149759750.36621094,150393798.828125,66338279.724121094,56610824.58496094,61908500.67138672,90495834.35058594,92186309.81445312,57694240.57006836,50693050.384521484,104929199.21875,78485351.5625,49140888.21411133,26673440.93322754,35958126.068115234,53686794.28100586,72576187.13378906,57380329.13208008,81384582.51953125,71172996.5209961,49577709.19799805,37217109.68017578,13861493.110656738,4272783.7562561035,30058645.248413086,39328701.01928711,57264884.94873047,32294052.124023438,18121280.670166016,12927741.050720215,25164522.171020508,-353411.9129180908,25467796.325683594,24417583.465576172,12663390.159606934,12586938.858032227,-13059199.333190918,-723635.0774765015,-591089.2486572266,2573685.884475708,-24900920.867919922,-7847961.902618408,-13638090.133666992,-14430027.961730957,-13797236.442565918,-22523702.62145996,-22363033.294677734,-26645780.563354492,-26494651.794433594,-14033338.54675293,-14183538.436889648,-14067131.996154785,-651233886.71875,438579437.2558594,-1500136.0177993774,-14866328.239440918,-58042972.564697266
0.175,41802940.368652344,86046455.38330078,110104812.62207031,75931724.54833984,91277481.07910156,143242172.24121094,150371780.3955078,150995956.42089844,63983047.48535156,50922500.61035156,55382053.37524414,79296646.11816406,80919486.99951172,57692302.70385742,50097141.26586914,106269523.62060547,81388771.0571289,48822006.22558594,24353120.803833008,32660850.524902344,46711944.580078125,66586166.38183594,57319046.02050781,88383811.9506836,72934020.99609375,52203895.568847656,38289932.25097656,14461931.228637695,2051512.9566192627,26764398.5748291,40029895.7824707,57390357.971191406,38493820.19042969,19555711.74621582,15561651.229858398,25091695.78552246,-408182.0845603943,25460319.51904297,24604373.931884766,15199387.550354004,15251121.520996094,-6971385.955810547,1271718.0252075195,1306498.2891082764,2586875.9155273438,-22391437.530517578,-4427580.833435059,-10180546.760559082,-10819473.266601562,-10397949.21875,-16896661.75842285,-16693799.97253418,-21507162.09411621,-23976509.09423828,-10521780.967712402,-10665443.420410156,-10634147.644042969,-663235168.4570312,462918426.5136719,4897907.733917236,-11246305.465698242,-48894714.35546875
0.18,25778728.485107422,59996532.44018555,85074440.0024414,60910179.138183594,74801162.71972656,137756912.2314453,145255935.6689453,146034255.9814453,53644348.14453125,41135200.50048828,44869670.86791992,69960258.48388672,71248382.56835938,50339008.33129883,45846050.26245117,110177734.375,80595649.71923828,44913120.26977539,20254398.345947266,28721672.05810547,41709354.400634766,61200168.60961914,49978481.29272461,89098686.21826172,73563629.15039062,53115200.04272461,37351577.75878906,14299636.840820312,-1403989.6726608276,22767709.732055664,38342090.60668945,50123195.64819336,39352787.017822266,19972173.6907959,15991909.980773926,26005849.838256836,-667638.4210586548,22660102.84423828,21027923.583984375,16838321.685791016,16552801.132202148,-5370117.1875,2557886.3620758057,2307012.7964019775,3409256.69670105,-20046455.38330078,-2387035.369873047,-8477334.022521973,-9123738.288879395,-8810361.862182617,-14742462.158203125,-14286373.138427734,-19502134.323120117,-21780441.284179688,-8822201.7288208,-8949311.256408691,-8998129.844665527,-688629089.3554688,492360961.9140625,12212194.442749023,-9403732.299804688,-47749122.619628906
0.185,9700615.882873535,34220703.125,59312961.57836914,40829139.709472656,57544902.80151367,125037193.29833984,131720016.47949219,132694671.63085938,38478385.92529297,29981418.60961914,33380035.400390625,61830986.02294922,62840438.84277344,39257564.544677734,41966789.24560547,108098022.4609375,71708587.64648438,36986827.8503418,14509417.533874512,23099822.998046875,37052604.67529297,55991741.18041992,39011363.9831543,83215721.1303711,69560462.95166016,49149162.29248047,33309936.5234375,12406785.96496582,-3025220.3941345215,21191511.154174805,35191574.09667969,38959560.39428711,38458805.084228516,21358449.935913086,15616058.349609375,27729400.634765625,-764110.9824180603,20911296.844482422,20198675.15563965,16690248.489379883,15972109.7946167,-4436006.546020508,5797789.573669434,5434165.954589844,9375726.699829102,-15259088.516235352,2851719.617843628,-5188221.454620361,-5949181.55670166,-5591188.430786133,-11843597.412109375,-11131618.49975586,-16721879.959106445,-17012630.462646484,-5568943.500518799,-5695559.024810791,-5728666.305541992,-658795532.2265625,479866088.8671875,22330591.201782227,-6090722.08404541,-43565116.88232422
0.19,-5290365.219116211,13455143.928527832,37619277.95410156,26053380.966186523,43510925.29296875,112287078.85742188,117818290.71044922,118875511.1694336,26410619.735717773,21585731.506347656,24423540.115356445,52986930.84716797,54056007.385253906,31537500.381469727,41690162.658691406,97968910.21728516,59796726.22680664,29831369.400024414,8781882.286071777,16977474.212646484,31350580.2154541,49540718.07861328,31436826.705932617,79671470.64208984,62998336.79199219,42522274.017333984,28812204.360961914,9348300.93383789,-4858960.6285095215,21074337.005615234,32552070.61767578,31128530.502319336,41008113.861083984,24554307.93762207,16254486.083984375,28976554.87060547,-361707.80658721924,23144929.885864258,26529693.603515625,15383605.95703125,14646520.614624023,819681.7636489868,12209684.371948242,11994898.796081543,19812025.07019043,-6444882.392883301,13020523.071289062,1575751.9006729126,701031.6252708435,1208269.2384719849,-4196371.078491211,-3340924.9782562256,-9210776.329040527,-8019261.360168457,1128175.2586364746,1017065.0482177734,1069777.8463363647,-598738708.4960938,451703002.9296875,35606285.095214844,633975.7442474365,-32063076.01928711
0.195,-12368433.952331543,2835966.110229492,26080492.01965332,23495052.337646484,36276634.216308594,108740234.375,114440338.13476562,115455978.39355469,20926090.240478516,17270732.879638672,18609848.022460938,45478607.177734375,46854213.71459961,30379116.05834961,43756919.860839844,90756637.57324219,54524391.174316406,26954021.453857422,4022528.648376465,13096736.907958984,27096784.591674805,44223094.94018555,30402910.232543945,85149467.46826172,61357002.25830078,39104747.7722168,27196016.311645508,6227452.754974365,-11016176.223754883,18992536.544799805,31609022.14050293,30074075.69885254,47095867.15698242,28868335.723876953,17733909.606933594,29193338.39416504,319122.9999065399,26656665.802001953,33078460.693359375,17484502.7923584,17007446.2890625,9954594.612121582,19874303.817749023,19811336.517333984,28516424.17907715,2981452.9418945312,23156438.82751465,8765014.6484375,7792412.757873535,8487245.559692383,6034955.5015563965,6930716.514587402,1112723.1121063232,1533183.0978393555,8229462.623596191,8153964.996337891,8277121.543884277,-616856994.6289062,487972412.109375,48745281.21948242,7822577.476501465,-24264108.657836914
0.2,-11474399.56665039,-1414882.4214935303,21540809.631347656,26052738.189697266,32045082.092285156,112527015.68603516,119620307.92236328,120559349.0600586,17287349.700927734,13591309.547424316,12765468.59741211,40146572.11303711,41734046.936035156,30238866.806030273,45588073.73046875,95524986.26708984,57357131.95800781,25637472.15270996,-767215.1327133179,11073506.355285645,25706529.61730957,41737331.39038086,30372140.884399414,95579208.37402344,67340339.66064453,40879577.63671875,28374448.776245117,3468269.3481445312,-20197072.982788086,14359339.714050293,30413223.266601562,30236961.364746094,53022125.244140625,33220859.52758789,19508136.749267578,29690942.764282227,727671.205997467,27538242.34008789,27165725.708007812,26958974.838256836,26411785.125732422,18336233.139038086,26240331.649780273,26122970.581054688,31408876.419067383,8514483.451843262,27793243.408203125,11838502.883911133,10764994.621276855,11588697.43347168,13599743.843078613,14436750.411987305,9022868.156433105,7002753.734588623,11250924.110412598,11173109.05456543,11334961.891174316,-729070617.6757812,590940429.6875,57071102.142333984,10951311.111450195,-28498525.619506836
0.205,-15373957.633972168,-11942330.360412598,11254418.37310791,19395090.103149414,21762868.881225586,110949729.9194336,118573150.63476562,119428230.28564453,9678023.338317871,6567076.206207275,4041142.463684082,31982053.756713867,33502407.07397461,22589452.743530273,46002540.588378906,104775100.70800781,59590785.98022461,21559978.485107422,-6476135.25390625,6673821.926116943,22854669.57092285,37591766.357421875,22851051.330566406,100560836.79199219,73759277.34375,43699859.619140625,29744483.947753906,975188.7917518616,-25736207.962036133,10310536.38458252,25399383.544921875,22857717.514038086,56258068.0847168,36613048.5534668,22607574.462890625,32074672.69897461,650656.9981575012,27038362.503051758,6303916.454315186,40467891.693115234,39331165.3137207,22760387.420654297,30559490.203857422,30263696.670532227,31703863.1439209,10316946.029663086,27710096.35925293,10541439.056396484,9448189.735412598,10204805.374145508,16831251.14440918,17502384.185791016,12496538.162231445,8777827.262878418,10009116.172790527,9879426.002502441,10095707.893371582,-796015991.2109375,648437744.140625,58808361.0534668,9712026.596069336,-35081394.19555664
0.21,-30844106.674194336,-31449762.34436035,-8105679.512023926,2615704.05960083,5418107.032775879,98668144.22607422,104871063.23242188,105583450.31738281,547501.266002655,-1638861.060142517,-4725872.993469238,18589654.92248535,19895318.98498535,8394228.9352417,45060321.80786133,105013671.875,55330944.0612793,16235656.73828125,-11221570.96862793,-1525803.3275604248,14703793.5256958,27699504.852294922,8821960.44921875,95772949.21875,73108810.42480469,43732116.69921875,30153598.78540039,-956730.306148529,-24218885.42175293,9303332.328796387,17234037.399291992,8808657.6461792,57018264.77050781,38156753.54003906,27402767.181396484,35667900.08544922,384136.02113723755,29110511.779785156,-16432151.794433594,50130752.56347656,48384071.350097656,23659132.00378418,33222969.05517578,32823307.037353516,34570526.123046875,11781609.535217285,27730207.443237305,9120311.737060547,8177602.767944336,8656553.268432617,18230657.57751465,18737203.59802246,13816085.815429688,10458151.817321777,8731248.85559082,8590471.267700195,8887468.338012695,-712764831.5429688,583380126.953125,56753585.81542969,8311147.689819336,-30155462.26501465
0.215,-42332958.22143555,-42692302.70385742,-20254192.352294922,-6294309.616088867,-2842698.812484741,88616111.7553711,93196952.81982422,93712677.00195312,-1248926.043510437,-3427875.9956359863,-6532269.477844238,9092771.530151367,10254632.949829102,212934.9261522293,44341590.881347656,97421165.4663086,50086463.928222656,15342322.34954834,-11678863.525390625,-7656914.234161377,6409059.524536133,18292388.916015625,800430.3574562073,88511817.9321289,68264572.14355469,42520595.55053711,30504289.627075195,-1745314.0020370483,-20390178.680419922,10341933.250427246,12673293.113708496,756594.6578979492,56685379.02832031,37912178.03955078,30947475.43334961,37633663.177490234,245072.70753383636,33075408.935546875,-26005069.732666016,53656097.412109375,51753795.6237793,22981315.61279297,34282459.2590332,33917556.76269531,38908275.60424805,13661053.657531738,29821809.768676758,10867289.543151855,10126089.096069336,10353865.623474121,19638259.887695312,20164632.79724121,15057899.475097656,12586560.249328613,10585936.546325684,10521042.823791504,10873786.926269531,-581795471.1914062,480914611.81640625,55639968.87207031,10034824.37133789,-17899574.279785156
0.22,-31452442.169189453,-30657667.16003418,-10631281.852722168,6147210.121154785,7398196.220397949,95063545.22705078,99979141.23535156,100362342.83447266,7233833.312988281,4335597.515106201,707670.3906059265,13991795.539855957,15140984.535217285,6901563.64440918,46565727.23388672,94928337.09716797,51375816.345214844,19892747.87902832,-7671615.6005859375,-5349986.0763549805,6786615.371704102,19784183.502197266,7525669.574737549,88442001.34277344,67255584.71679688,43103397.369384766,30918689.727783203,-1629577.7559280396,-20721096.03881836,11098888.397216797,16615076.065063477,7567984.104156494,56385879.51660156,37025142.669677734,29892679.21447754,36351764.67895508,211800.60505867004,33933853.14941406,-21426149.368286133,56084594.7265625,54363105.77392578,21933004.37927246,33614868.1640625,33342933.654785156,38824028.01513672,13331863.403320312,31401466.369628906,14097499.84741211,13364308.35723877,13643146.514892578,19983795.166015625,20714248.657226562,15390517.234802246,12183474.54071045,13822728.157043457,13825626.373291016,14149613.380432129,-581665161.1328125,481808959.9609375,57510219.57397461,13233874.320983887,-15084301.948547363
0.225,-7797085.762023926,-8231132.507324219,9000410.079956055,27137619.018554688,25143772.12524414,110733856.20117188,117305130.00488281,117719963.07373047,16922304.153442383,14031512.260437012,9306785.583496094,27680017.471313477,28880363.46435547,20237327.575683594,51706398.010253906,100158264.16015625,56184795.37963867,23864824.295043945,-3595506.191253662,2567557.0964813232,14784600.257873535,30509870.529174805,20694643.020629883,94530960.08300781,70307426.45263672,44352493.28613281,30076045.989990234,-1853783.130645752,-24656122.2076416,10824476.24206543,24170019.149780273,20858983.993530273,56005313.873291016,36173145.29418945,25648851.39465332,33637153.62548828,135589.43569660187,30280553.817749023,-14388265.609741211,60147300.720214844,58552227.02026367,20537164.68811035,31643791.19873047,31442844.39086914,32980834.9609375,9974697.11303711,30101556.7779541,14593285.56060791,13661493.301391602,14240627.28881836,18030397.415161133,18894113.540649414,13404910.08758545,8475024.223327637,14338607.788085938,14320695.877075195,14514295.57800293,-708899414.0625,583353637.6953125,60206222.53417969,13800380.70678711,-25812129.974365234
0.23,-223770.06709575653,-2743504.524230957,13457844.734191895,31809759.14001465,29771018.981933594,114563446.04492188,121652801.51367188,122204048.15673828,16987258.911132812,15482007.98034668,10089271.545410156,32805000.30517578,34076221.46606445,24624794.006347656,55156467.43774414,101491394.04296875,55761264.80102539,22473972.32055664,-3496193.1705474854,6873447.418212891,19554090.49987793,36804401.39770508,24801528.930664062,96708152.7709961,70538230.8959961,43261413.57421875,28047706.604003906,-3058620.9297180176,-25867723.46496582,10478051.18560791,26303237.915039062,25003004.07409668,54364627.838134766,34937648.77319336,23232566.833496094,32545341.49169922,38711.752742528915,26979974.7467041,-13649571.418762207,61785602.56958008,60144832.611083984,18597295.7611084,29250837.326049805,29095729.82788086,27491575.241088867,6811733.245849609,27561092.376708984,11412488.93737793,10369383.811950684,11135337.829589844,15013234.13848877,15757021.9039917,10108244.895935059,5083174.705505371,11316779.136657715,11279649.73449707,11297294.616699219,-787570434.5703125,648481140.1367188,60842124.938964844,10882644.653320312,-35657875.061035156
0.235,-16475120.544433594,-18822225.57067871,-1103595.9720611572,16544620.513916016,18428192.138671875,102127662.6586914,108016395.56884766,108646408.08105469,8689582.824707031,8995702.743530273,3950568.437576294,23715356.826782227,25081863.403320312,17927742.00439453,53031066.89453125,94007057.1899414,50194042.20581055,18785383.224487305,-6015205.383300781,4444127.559661865,15758874.893188477,32031265.258789062,17914953.231811523,90779243.46923828,66647682.189941406,40860626.220703125,27369112.014770508,-4101684.5703125,-21435010.91003418,11129779.815673828,22487192.153930664,18092594.146728516,51425579.07104492,33672969.818115234,24630708.694458008,33776062.01171875,16043.759882450104,27959001.541137695,-16108175.277709961,58526226.04370117,56804218.29223633,16876403.80859375,27548362.731933594,27438600.540161133,27809436.798095703,6799220.085144043,27389221.19140625,8524851.79901123,7666823.863983154,8279381.75201416,13455611.228942871,13989930.152893066,8223268.508911133,5142196.178436279,8621883.392333984,8667093.276977539,8593302.726745605,-733544372.5585938,610775512.6953125,59779487.60986328,8322359.085083008,-33500579.833984375
0.24,-32585426.330566406,-33175033.569335938,-13312589.645385742,2902463.674545288,8768160.820007324,92349769.59228516,97260551.45263672,97834953.30810547,3189713.716506958,4583515.644073486,207154.85513210297,14082551.002502441,15554857.25402832,13055556.297302246,48520183.56323242,88963714.59960938,48535545.349121094,18680244.44580078,-6637578.48739624,1815883.0404281616,10759052.276611328,25697158.813476562,13042563.438415527,84994102.47802734,65540603.63769531,40976169.58618164,29696514.129638672,-3475201.8451690674,-15765854.835510254,12888038.635253906,20962097.16796875,13212735.176086426,49995441.43676758,34344497.68066406,26681516.647338867,35618431.091308594,38545.284420251846,30549808.502197266,-14482050.895690918,55601001.73950195,53835884.09423828,17150989.532470703,27865747.451782227,27763246.536254883,31908027.64892578,8818920.135498047,30461843.490600586,9968989.372253418,9411970.138549805,9717094.421386719,14583167.07611084,15093890.190124512,9322346.687316895,7298245.906829834,10066924.095153809,10185539.245605469,10205521.583557129,-662391052.2460938,558967834.4726562,59737297.05810547,9854910.850524902,-26190948.486328125
0.245,-28623746.871948242,-28910429.000854492,-8792468.070983887,6424150.9437561035,13266894.340515137,98773719.78759766,104187217.71240234,104649497.98583984,6107438.564300537,7940259.93347168,3714121.3417053223,16925060.272216797,18466489.791870117,18325155.25817871,48506153.10668945,95062171.93603516,53798141.47949219,22088148.11706543,-4369917.869567871,4501440.525054932,12736297.607421875,28529533.38623047,18400747.299194336,87902999.87792969,70394401.55029297,43520168.30444336,32874958.038330078,-1642235.8751296997,-14541540.145874023,14772898.67401123,25759891.510009766,18565635.681152344,52908996.58203125,37938240.05126953,26557409.286499023,36677547.454833984,51922.29524254799,30143997.192382812,-8617219.924926758,58266014.099121094,56480384.826660156,20359355.926513672,30848140.716552734,30632225.036621094,34311836.24267578,9974084.854125977,33579002.380371094,14630445.48034668,14158548.355102539,14346561.431884766,17716424.9420166,18366546.630859375,12627144.813537598,8455835.342407227,14535520.553588867,14550064.086914062,14778488.159179688,-691271972.65625,584358459.4726562,61575847.62573242,14264180.183410645,-25524562.83569336
0.25,-15129307.746887207,-16639383.316040039,1704014.778137207,17119585.037231445,23868299.48425293,109830535.88867188,116030776.97753906,116433639.52636719,11007319.450378418,13507556.915283203,9278273.582458496,27322040.557861328,28858251.571655273,26737957.000732422,54404590.60668945,103449508.66699219,57565250.396728516,23761447.90649414,-2959048.9864349365,8800758.361816406,18893806.45751953,37097599.029541016,26853481.29272461,96006782.53173828,74742050.17089844,44083965.30151367,33268817.901611328,-681669.1756248474,-17874275.20751953,15569147.109985352,30999330.520629883,26977146.14868164,58682750.7019043,42244766.23535156,25820968.627929688,36853813.17138672,129109.48693752289,27360656.73828125,-4651515.960693359,63257076.263427734,61501602.17285156,24999509.811401367,35038299.560546875,34617938.99536133,33467548.370361328,9568393.70727539,33092365.264892578,17650970.458984375,16999332.427978516,17358951.568603516,21381132.125854492,22068420.41015625,16183122.634887695,8065561.294555664,17417087.55493164,17253242.49267578,17591054.916381836,-766023986.8164062,645679809.5703125,63130264.28222656,16995407.104492188,-30635864.2578125
0.255,-11664859.771728516,-13311930.656433105,3124762.773513794,18772487.64038086,27433458.32824707,108705413.81835938,114621086.12060547,115026329.04052734,10547604.56085205,14117531.776428223,10549514.770507812,32239162.44506836,33685207.36694336,28679452.896118164,61077289.58129883,102687103.27148438,53642677.307128906,21745254.516601562,-4679265.49911499,8367721.5576171875,21339172.36328125,40857238.76953125,28787822.723388672,100215141.29638672,73343315.12451172,41491561.88964844,30594804.763793945,-1402271.8667984009,-21232744.216918945,15427222.25189209,31146009.44519043,28894470.21484375,63028198.2421875,44571929.931640625,27145000.457763672,36135032.653808594,319945.0671672821,26403383.255004883,-5237766.742706299,64353294.372558594,62676197.05200195,28785255.432128906,37712615.966796875,37215087.890625,31630159.378051758,8796565.055847168,29138408.660888672,16861841.201782227,16012773.513793945,16644226.07421875,24531764.98413086,25063707.35168457,18695812.225341797,7498010.635375977,16670259.475708008,16549032.211303711,16780874.252319336,-772682495.1171875,654445190.4296875,62808357.23876953,16226495.742797852,-32090419.76928711
0.26,-15797051.429748535,-16653423.309326172,-1373861.9089126587,13807314.8727417,24489395.141601562,99861305.2368164,105140045.16601562,105538803.10058594,7373970.508575439,11448998.45123291,8711807.250976562,29061494.827270508,30348258.97216797,25554473.876953125,65303382.873535156,97840591.43066406,48466884.61303711,19951927.185058594,-6445937.633514404,4172445.297241211,19152980.80444336,37921562.19482422,25699169.158935547,100290786.74316406,71316841.12548828,40730045.318603516,28521905.89904785,-2227372.169494629,-21222173.6907959,16025161.743164062,29541488.647460938,25882123.947143555,64952697.75390625,45511817.932128906,29812313.079833984,34482254.02832031,452043.44391822815,27878047.943115234,-6220146.656036377,62322746.27685547,60646381.37817383,31617128.372192383,37787902.83203125,37512557.98339844,29889091.49169922,8004626.274108887,25311763.763427734,15254527.09197998,14367086.410522461,15160629.272460938,26908691.40625,27287954.330444336,20152030.94482422,6944993.97277832,15112720.489501953,15288754.4631958,15333831.787109375,-722699707.03125,619323059.0820312,61878639.221191406,14869525.909423828,-27607698.440551758
0.265,-11637600.898742676,-14557786.94152832,-960869.7295188904,15721020.698547363,23186946.868896484,100280090.33203125,105901718.13964844,106233039.85595703,8677088.737487793,11675091.743469238,8346257.209777832,24680370.330810547,25809074.40185547,23222099.30419922,69855155.94482422,101153358.45947266,51256732.94067383,21451797.485351562,-4620914.936065674,2017859.4589233398,17176418.30444336,34405422.21069336,23469289.779663086,103789024.35302734,75804367.06542969,45593601.22680664,30096086.502075195,-1686863.5416030884,-18578981.399536133,17910367.965698242,30848209.381103516,23746866.22619629,67583274.8413086,47412906.646728516,31319972.99194336,33018730.16357422,311018.6457633972,27760625.8392334,-4154314.9948120117,61743309.020996094,59928909.30175781,34963954.92553711,36778652.19116211,36841232.29980469,27558206.55822754,6596447.467803955,24082946.77734375,15836878.776550293,14990472.793579102,15781395.91217041,28487184.524536133,28870300.29296875,20979284.286499023,5545949.935913086,15587066.650390625,15969746.589660645,15959872.245788574,-711862182.6171875,614621093.75,61716079.71191406,15556059.837341309,-24006256.103515625
0.27,1684237.7185821533,-7695748.329162598,2781529.664993286,25830867.767333984,23918262.481689453,112237556.45751953,118735832.21435547,118932876.58691406,14538295.74584961,15181719.779968262,9457583.4274292,22171148.3001709,23262159.34753418,20081340.789794922,77487991.33300781,110842857.36083984,59766429.90112305,23773710.250854492,-892216.2055969238,3161065.101623535,16693304.061889648,32470237.731933594,20432455.06286621,112388511.65771484,83915794.3725586,52073207.85522461,33872547.1496582,-553296.3275909424,-16309864.044189453,18751857.75756836,31524002.075195312,20691280.364990234,72080085.75439453,49708049.77416992,31281929.01611328,33136142.73071289,-29255.136847496033,23939929.962158203,-2102356.6722869873,61232513.427734375,59317440.032958984,38513027.19116211,36175590.51513672,36288440.7043457,25318468.09387207,5095462.799072266,24070598.602294922,16742046.356201172,15874613.761901855,16572717.666625977,28850788.116455078,29319850.92163086,21085653.30505371,3873622.8942871094,16342830.657958984,16578092.575073242,16663873.672485352,-754970581.0546875,650723266.6015625,61138763.427734375,16290035.247802734,-25499219.89440918
0.275,10155434.608459473,-6085908.41293335,1440010.7860565186,32934940.338134766,21722099.30419922,121729934.69238281,128219238.28125,128236145.01953125,18519447.326660156,17223312.377929688,9172307.014465332,19207923.889160156,20442493.438720703,11921775.817871094,85234092.71240234,113965606.68945312,63995063.78173828,23321250.915527344,284650.4747867584,3801558.73298645,15290668.487548828,29226371.76513672,12325797.080993652,118461524.9633789,86665161.1328125,53151947.021484375,35592212.67700195,-292914.0031337738,-16328826.904296875,16462572.09777832,26033718.10913086,12483324.05090332,74778457.64160156,49046260.833740234,30847986.221313477,34047096.252441406,-283037.394285202,19979043.96057129,-4284700.393676758,55861820.220947266,54076358.795166016,39939647.67456055,35364643.09692383,35137966.15600586,24976814.27001953,5352357.387542725,23031473.15979004,14650850.296020508,13713005.065917969,14347951.889038086,27756336.212158203,28295330.047607422,20293806.076049805,4085061.550140381,14248809.814453125,14163461.685180664,14334272.384643555,-779522827.1484375,669843627.9296875,59130279.541015625,14011827.46887207,-28358978.271484375
0.28,9449756.622314453,-9213337.898254395,-2083215.2366638184,32677555.084228516,19012071.60949707,121263824.46289062,126954856.8725586,126815811.15722656,17781984.329223633,16616033.554077148,8542076.110839844,17399763.107299805,18856948.852539062,4075666.904449463,88049240.11230469,107723960.87646484,60940235.13793945,20959808.349609375,-1435763.1206512451,2963585.85357666,14349024.772644043,26306034.088134766,4487468.242645264,117049346.92382812,82343284.6069336,48147071.838378906,33167144.775390625,-595822.6919174194,-17676959.991455078,13551147.4609375,18826225.28076172,4626323.699951172,73012374.87792969,44708702.087402344,29748643.87512207,33441497.802734375,-344663.7690067291,20650264.739990234,-7884361.743927002,48563850.40283203,47051048.278808594,38842750.549316406,33496269.22607422,32909618.377685547,26070646.286010742,8419997.215270996,22064729.690551758,11687033.653259277,10734363.555908203,11422493.934631348,26443824.768066406,27062801.361083984,19578039.169311523,7364585.399627686,11375731.468200684,11139520.645141602,11307737.350463867,-762917053.2226562,655955017.0898438,58399032.59277344,11056838.035583496,-28058631.896972656
0.285,9790137.29095459,-6798163.414001465,2527871.84715271,32166660.30883789,23090736.389160156,117998168.9453125,123584175.10986328,123433319.09179688,15742474.555969238,16705463.409423828,11063907.623291016,21860185.623168945,23428564.071655273,6865678.787231445,85434463.50097656,103347900.390625,57399772.64404297,19803956.985473633,-2333634.614944458,4204633.712768555,18198305.130004883,29952562.33215332,7264349.937438965,112852012.63427734,78473472.59521484,43388553.619384766,28980184.55505371,-192696.09451293945,-17685909.271240234,15077880.859375,20219718.93310547,7503077.983856201,70019508.3618164,40956672.66845703,27358478.546142578,31271144.86694336,-376544.41595077515,25866258.62121582,-5595714.569091797,49186313.62915039,47843265.533447266,38220096.588134766,32016761.779785156,31396457.67211914,26044002.532958984,13051298.141479492,24056243.896484375,14072645.18737793,13179579.734802246,13994825.36315918,27125644.68383789,27828004.837036133,20689649.58190918,12274189.949035645,13756493.56842041,13575642.585754395,13759395.599365234,-762494262.6953125,657981689.453125,62383853.912353516,13501533.508300781,-25658958.435058594
0.29,15005975.723266602,1366870.641708374,13054314.613342285,34573135.37597656,31817098.61755371,117896347.04589844,124415168.76220703,124440963.74511719,14796277.99987793,17973773.956298828,15235366.821289062,30256366.729736328,31745910.64453125,18815546.0357666,81329147.33886719,107475120.5444336,58497417.44995117,19798301.696777344,-1186683.2971572876,8352807.04498291,25128227.23388672,39386230.46875,19202520.3704834,111562698.36425781,80399116.51611328,43859493.255615234,26960109.71069336,596938.7888908386,-15154929.161071777,21553054.809570312,30389860.153198242,19494634.6282959,70160949.70703125,41845737.45727539,25559225.08239746,30463781.356811523,-488464.6534919739,30933475.494384766,3653681.2782287598,59448673.248291016,58114139.556884766,40051544.189453125,32958026.885986328,32519294.73876953,24008237.838745117,16253614.42565918,28182216.64428711,22714117.0501709,21872968.673706055,22722265.243530273,29938220.977783203,30607826.232910156,23570280.075073242,15599924.087524414,22281152.725219727,22135274.88708496,22435813.903808594,-798659545.8984375,692090270.9960938,68697425.84228516,22018505.096435547,-24984319.68688965
0.295,15290103.912353516,2943836.212158203,15192343.711853027,33502708.435058594,34146945.95336914,117050285.33935547,124097297.66845703,124329963.68408203,13130029.678344727,16829402.923583984,15387976.64642334,32696907.04345703,34034675.59814453,25765207.290649414,78937904.35791016,112897598.26660156,61249271.392822266,18559770.584106445,-1001959.8007202148,10834318.161010742,27421131.134033203,44674995.42236328,26164974.212646484,111377540.5883789,84651748.65722656,47771919.25048828,28200811.3861084,292246.63972854614,-12176172.256469727,27209445.95336914,37231468.200683594,26359291.076660156,71976860.04638672,45701313.01879883,26761005.401611328,32496337.890625,-567568.1829452515,31760776.51977539,11865337.371826172,67846954.34570312,66504455.56640625,41741287.23144531,35234699.24926758,34878589.63012695,21322225.57067871,15039692.878723145,29315406.799316406,29648624.420166016,28806501.388549805,29501054.763793945,31480703.353881836,31993644.71435547,25138414.38293457,14346406.936645508,29134975.43334961,28907880.783081055,29328359.603881836,-812698364.2578125,705173645.0195312,69838813.78173828,28694175.720214844,-27749858.856201172
0.3,6234911.918640137,-6260576.7250061035,5148161.888122559,26671628.952026367,27276248.931884766,112904617.30957031,119130844.11621094,119361145.01953125,10243011.474609375,13302714.347839355,11078152.656555176,26179418.563842773,27463020.32470703,20111572.265625,78521156.31103516,111795043.9453125,61316143.03588867,16521957.397460938,-2893327.474594116,9213730.812072754,22988588.333129883,40632843.017578125,20535543.44177246,108564414.97802734,85340454.1015625,50251876.83105469,30354213.71459961,-812324.047088623,-11693876.266479492,27177177.42919922,33045112.60986328,20625715.255737305,70691749.5727539,47141853.33251953,29146867.752075195,34559837.341308594,-510156.15463256836,28255149.841308594,12057683.944702148,64570152.282714844,63274929.04663086,39613525.390625,35130302.42919922,34720893.85986328,18407878.875732422,8508344.650268555,24409397.12524414,26948114.3951416,26117074.966430664,26605628.967285156,28196031.57043457,28640110.01586914,22220617.294311523,7724256.51550293,26446981.43005371,26152215.9576416,26564846.03881836,-776762145.9960938,668316833.4960938,61992202.75878906,25852680.206298828,-33920925.14038086
0.305,-180028.49817276,-13285830.4977417,-2612166.8815612793,23331052.780151367,22494144.439697266,111759048.46191406,116931167.60253906,116941413.87939453,9936985.969543457,13398080.825805664,9409172.058105469,20773365.020751953,22136978.149414062,11540258.407592773,79042671.20361328,108037490.84472656,60245872.497558594,17113969.802856445,-2877236.1278533936,8313404.083251953,19967590.33203125,35313220.9777832,11919276.237487793,105798294.06738281,82583473.2055664,49883495.33081055,31206991.19567871,-436722.5170135498,-13627869.606018066,23508794.7845459,25130352.020263672,12110438.346862793,66109428.40576172,43952278.13720703,27929388.04626465,33319419.860839844,-414140.16485214233,23312984.466552734,7073967.456817627,54627967.834472656,53358810.42480469,34390121.45996094,31012941.360473633,30597949.981689453,14195040.702819824,-720185.4586601257,16949180.603027344,16415355.682373047,15684301.376342773,16141431.80847168,20784643.173217773,21385696.411132812,15432609.558105469,-1594035.029411316,15940014.839172363,15677918.434143066,15991505.62286377,-761749328.6132812,639811157.2265625,49923248.291015625,15403399.467468262,-44002517.70019531
0.31,7153972.625732422,-6653273.582458496,3763647.3178863525,31010480.880737305,28930479.049682617,118385841.3696289,123871238.7084961,123729988.09814453,14721364.02130127,20299865.72265625,15039381.02722168,25844293.59436035,27312187.19482422,12933185.577392578,79861999.51171875,110012100.21972656,62295219.42138672,21337844.848632812,2052119.0166473389,13320170.402526855,25266546.24938965,38530448.91357422,13132730.484008789,108389785.76660156,81616096.49658203,49483474.73144531,31426656.72302246,2207607.9845428467,-15358838.081359863,21304441.452026367,24549266.815185547,13615036.964416504,63238159.1796875,39600715.63720703,22165719.985961914,29644077.30102539,-402234.5840930939,19940193.17626953,4576175.212860107,49636585.2355957,48348129.27246094,30346017.837524414,25555656.43310547,25199548.721313477,9263226.509094238,-7816036.224365234,12707632.064819336,6719987.392425537,6140082.836151123,6749618.053436279,13548163.414001465,14358729.362487793,8720316.886901855,-8796925.54473877,6249014.854431152,6044880.8670043945,6294822.216033936,-836157409.6679688,683663269.0429688,40928176.87988281,5886570.453643799,-57498825.07324219
0.315,21586248.39782715,7066477.7755737305,16543663.024902344,43519977.56958008,40239906.311035156,127471939.08691406,134470443.72558594,134482772.82714844,21222761.154174805,28274986.267089844,22840068.817138672,36552410.12573242,38039379.11987305,22917047.50061035,81445701.5991211,118352142.33398438,67530586.24267578,25550729.751586914,7980751.991271973,21073286.056518555,34023521.423339844,47513103.48510742,22873712.53967285,115504417.4194336,85989105.22460938,51433887.48168945,32855918.884277344,4683658.123016357,-16102396.011352539,21230291.36657715,30865596.771240234,23598875.045776367,65147857.666015625,38859592.43774414,16796392.4407959,27043432.235717773,-409650.7430076599,19270921.70715332,6341949.939727783,51772720.33691406,50519454.95605469,29900379.180908203,22573019.02770996,22204734.802246094,6492696.285247803,-9568107.604980469,12902149.200439453,2998173.236846924,2482281.446456909,3194450.855255127,9780185.69946289,10622879.028320312,5349413.871765137,-10664463.04321289,2552568.197250366,2379333.734512329,2609250.783920288,-953790344.2382812,769993652.34375,37170974.73144531,2274175.8823394775,-70153701.78222656
0.32,28822032.928466797,13546446.800231934,20292224.884033203,49241397.857666016,43876396.17919922,131280776.97753906,139254104.6142578,139584060.6689453,24158010.482788086,29629913.330078125,24502542.49572754,40367309.5703125,41780246.73461914,29723625.18310547,85320152.28271484,126254211.42578125,71266281.12792969,25809511.184692383,8448876.38092041,23288482.666015625,35930450.439453125,51015739.44091797,29545934.677124023,121115631.10351562,93404129.02832031,53990673.06518555,35085826.8737793,4395709.991455078,-17874284.744262695,19771677.017211914,34829170.22705078,30268650.05493164,69538986.20605469,42553104.400634766,16242706.298828125,26640520.095825195,-299984.9021434784,20433380.126953125,7579215.526580811,53508514.404296875,52386257.17163086,31924205.780029297,23279493.33190918,22859706.87866211,7568930.625915527,-6788212.299346924,14461627.960205078,3639168.5009002686,3016638.75579834,3619950.771331787,9650185.585021973,10400137.901306152,5752340.316772461,-7941779.136657715,3220346.212387085,3106471.538543701,3270308.73298645,-1002345764.1601562,808764770.5078125,36601264.95361328,2911140.6803131104,-75214935.30273438
0.325,26630754.470825195,10397722.244262695,13293134.689331055,46075046.53930664,38126502.990722656,129549499.51171875,136824432.37304688,137282714.84375,22495246.88720703,24686605.45349121,19415304.18395996,33816017.150878906,35126594.54345703,28461740.493774414,92832794.18945312,128155227.66113281,69520866.39404297,22284423.828125,3376459.3601226807,17781929.01611328,29201118.46923828,45387649.53613281,28340166.091918945,123051322.93701172,97997093.2006836,53239025.1159668,35657749.17602539,2114800.9300231934,-21138547.897338867,15981559.753417969,32868946.075439453,28841878.89099121,73490325.92773438,47523841.857910156,18965517.044067383,26517187.118530273,-103312.23160028458,21811668.395996094,5930406.093597412,50962707.51953125,49957820.892333984,35165737.15209961,26466798.782348633,26105678.55834961,11008304.595947266,-2879202.8427124023,15552018.165588379,6066432.476043701,5246332.64541626,5654070.3773498535,12258581.161499023,12984988.21258545,8973144.53125,-3974561.4528656006,5591474.533081055,5571242.809295654,5620544.43359375,-943802368.1640625,766798400.8789062,38156948.08959961,5247044.086456299,-69477905.2734375
0.33,23972782.135009766,6752875.328063965,7092960.357666016,41080059.05151367,32123073.57788086,126467887.87841797,132075088.50097656,132358245.84960938,19195194.244384766,20321125.030517578,14404504.776000977,25582366.943359375,26818540.573120117,25613563.537597656,102481292.72460938,124088417.05322266,63351242.06542969,18316240.310668945,-725504.2195320129,11519535.064697266,22189672.470092773,38699714.66064453,25637081.146240234,124869018.5546875,96527404.78515625,48413307.189941406,33787479.400634766,846831.8581581116,-22654502.868652344,13640553.47442627,30858568.19152832,25901067.73376465,77109817.50488281,50542255.40161133,20700450.897216797,25636520.385742188,6088.057532906532,22580280.303955078,5243984.699249268,48810005.18798828,47807376.861572266,39654624.938964844,30400520.32470703,30133554.458618164,14451188.087463379,-758930.4447174072,17155820.846557617,10181584.358215332,9246282.577514648,9594577.78930664,16714977.264404297,17472330.09338379,13700302.124023438,-1717634.677886963,9593333.24432373,9588253.021240234,9565897.941589355,-851687683.1054688,701365539.5507812,41824108.1237793,9221656.799316406,-57790088.65356445
0.335,24880174.63684082,7182223.796844482,8217773.4375,38902000.427246094,31655208.587646484,123395454.40673828,127953529.35791016,127999954.22363281,17020627.975463867,20420461.654663086,14136663.436889648,23581502.91442871,24777275.08544922,26536659.240722656,108794105.52978516,118062705.99365234,58036190.032958984,16825597.763061523,499986.3803386688,11216662.406921387,21565011.978149414,38190025.329589844,26643833.16040039,127623382.56835938,92051277.16064453,43823051.45263672,31922710.418701172,1893610.119819641,-20038467.407226562,15525675.773620605,33263225.555419922,26850063.32397461,80066482.54394531,50787559.509277344,20558532.71484375,25384550.094604492,-69671.43714427948,22923528.67126465,8400958.061218262,50559135.43701172,49507610.32104492,43521854.400634766,32918155.670166016,32556865.692138672,16574865.341186523,-1578625.7982254028,19028673.17199707,14564072.608947754,13697896.957397461,14121436.11907959,20197629.928588867,20870626.44958496,17022863.388061523,-2449013.7100219727,13956937.789916992,13847790.718078613,13802477.836608887,-809466735.8398438,674940368.6523438,44706245.42236328,13489652.633666992,-49814987.18261719
0.34,24969430.923461914,7116393.089294434,11269196.510314941,38267532.34863281,33365535.736083984,120391189.57519531,125308181.76269531,125303085.32714844,16998830.795288086,22438232.421875,16461469.650268555,25993892.669677734,27161947.25036621,27379087.448120117,106708496.09375,115173599.24316406,58264671.325683594,18460039.138793945,4210409.641265869,15025757.789611816,24765027.99987793,40973335.26611328,27476551.055908203,126496414.18457031,90520469.66552734,44171096.80175781,32449710.845947266,3658802.5093078613,-16194589.614868164,18999990.463256836,36244995.1171875,27823909.759521484,79015113.8305664,49095268.24951172,20630496.978759766,26520618.438720703,-255298.58469963074,22862304.6875,11644814.491271973,51936435.69946289,50924133.30078125,42503780.364990234,31688837.0513916,31106241.22619629,16129369.735717773,-4837168.216705322,18199113.845825195,14799816.131591797,14134116.172790527,14560487.747192383,18540090.560913086,19030641.555786133,15293549.537658691,-5760181.903839111,14331720.352172852,14139238.357543945,14020211.219787598,-823538513.1835938,684552307.1289062,42630210.876464844,13738216.400146484,-51400833.12988281
0.345,22960865.020751953,4461665.153503418,11079711.9140625,38316482.54394531,33537963.8671875,120143951.41601562,126220848.0834961,126307846.06933594,19246549.606323242,23091831.20727539,17587022.78137207,27268600.463867188,28430593.490600586,23393638.610839844,98242897.0336914,117934455.87158203,63470355.98754883,21749509.811401367,5419297.218322754,16498279.571533203,25920793.533325195,40803615.57006836,23452041.625976562,119166175.84228516,93649917.60253906,48670566.55883789,34301197.05200195,4239012.241363525,-15906831.741333008,19656044.006347656,34790843.96362305,23940832.138061523,72650375.36621094,46613639.83154297,21056245.803833008,27092090.606689453,-416260.7789039612,21691776.275634766,10112813.949584961,48294750.21362305,47431072.23510742,35675106.048583984,26872615.814208984,26263311.3861084,12012295.722961426,-8517900.466918945,13359845.161437988,9318710.327148438,8836127.281188965,9115425.109863281,11458226.203918457,11885251.04522705,8634582.51953125,-9569869.041442871,9018326.759338379,8880135.536193848,8635673.522949219,-850680358.8867188,693119445.8007812,36361751.556396484,8413915.634155273,-59620639.80102539
0.35,24894105.911254883,5839813.232421875,12329945.56427002,41230800.62866211,35257633.209228516,124406204.22363281,131238204.95605469,131373474.12109375,22835309.982299805,23226938.247680664,17901590.34729004,27652221.6796875,28879671.096801758,19015607.833862305,92689117.43164062,123028564.453125,68084197.99804688,24189992.904663086,3956732.0346832275,14383877.754211426,24826089.85900879,38792369.8425293,19038848.876953125,112563987.7319336,96978912.35351562,51659736.63330078,34514766.693115234,3710858.3450317383,-19221086.502075195,17335998.53515625,31471767.42553711,19444967.26989746,66570816.04003906,44500305.17578125,19212390.899658203,24927331.924438477,-490658.9388847351,19240432.739257812,5805656.909942627,43249027.252197266,42511112.213134766,29065668.1060791,22423645.01953125,22018585.205078125,5970947.265625,-10202428.817749023,7745405.197143555,3377189.6362304688,2936701.0593414307,3128810.405731201,4865163.803100586,5423253.059387207,2612553.834915161,-11311651.229858398,3115495.204925537,3075120.449066162,2809849.0238189697,-870221618.6523438,693905212.4023438,31762920.379638672,2649515.8672332764,-67113502.5024414
0.355,34001026.15356445,16671241.760253906,21870769.500732422,47392784.118652344,43017818.450927734,129355072.02148438,135935150.14648438,136040557.86132812,25759016.036987305,25575099.94506836,20560821.533203125,32041828.155517578,33413375.854492188,22904745.10192871,97129837.03613281,124045204.16259766,67432174.68261719,24379671.096801758,3801017.7612304688,14236641.883850098,26191919.326782227,41415939.33105469,22886814.11743164,115116073.60839844,96081703.18603516,49381034.85107422,32369613.647460938,3435537.815093994,-21690166.473388672,15824441.909790039,32878772.735595703,23015150.07019043,67631637.57324219,43578155.517578125,14077075.958251953,20857089.99633789,-513517.49897003174,17192970.275878906,5085058.689117432,43895099.63989258,43140148.1628418,29404199.600219727,22007593.154907227,21662923.81286621,2601068.4967041016,-9396468.162536621,5270855.42678833,2885648.012161255,2345835.9241485596,2725757.837295532,4645762.920379639,5355338.573455811,2487733.840942383,-10470236.778259277,2531900.8827209473,2477307.5580596924,2369275.3314971924,-895064392.0898438,709730651.8554688,32141178.131103516,2215426.206588745,-70151191.71142578
0.36,43571956.634521484,30584375.381469727,36028587.341308594,52512775.42114258,53777908.32519531,129223434.44824219,134987670.8984375,135115112.3046875,26518062.591552734,29888740.53955078,25886978.149414062,40755405.42602539,42242969.51293945,34503147.12524414,106665664.67285156,118476196.2890625,62347274.78027344,23352716.44592285,6760520.458221436,19756269.454956055,31495647.430419922,49246685.02807617,34473876.953125,123624122.6196289,91617202.75878906,43854621.88720703,29838073.73046875,3949707.7465057373,-21009178.161621094,17165596.00830078,39251770.01953125,34413459.77783203,73693725.5859375,43093162.536621094,8337400.436401367,17845542.907714844,-555365.5624389648,17870559.692382812,9228598.594665527,49555324.55444336,48695774.07836914,34872398.376464844,23872619.62890625,23248426.43737793,4291800.975799561,-7963412.761688232,5904463.768005371,6168681.1447143555,5525027.751922607,6241405.963897705,9060847.282409668,9792552.947998047,6534463.882446289,-9036334.037780762,5710998.53515625,5566990.375518799,5629269.599914551,-927093200.6835938,741823547.3632812,34098014.83154297,5448426.246643066,-70812690.73486328
0.365,44837818.14575195,35057136.53564453,42410202.02636719,51998226.165771484,58330432.8918457,123248214.72167969,128513870.23925781,128766799.92675781,25089433.670043945,32251239.776611328,29532382.96508789,46415710.44921875,47862945.556640625,42268814.08691406,108093711.85302734,110052360.53466797,56942546.84448242,22689800.262451172,9606907.844543457,26244583.129882812,35657226.5625,53988739.013671875,42325069.427490234,125006210.32714844,86653884.88769531,39401134.4909668,28259914.39819336,4280606.746673584,-19979442.596435547,18823451.99584961,42996501.92260742,42348964.69116211,74685691.8334961,41008922.5769043,5275880.813598633,17595424.65209961,-629065.8712387085,21306978.225708008,12437674.522399902,51613376.61743164,50733947.75390625,36539539.3371582,22827121.73461914,21916757.583618164,7904793.739318848,-7268567.085266113,7207031.726837158,6397673.1300354,5800461.769104004,6637862.682342529,10840010.643005371,11510642.051696777,8162176.132202148,-8413388.2522583,5912092.208862305,5779428.005218506,5837214.469909668,-941940246.5820312,758097045.8984375,33106906.89086914,5671801.0902404785,-72375488.28125
0.37,38339786.529541016,26491479.873657227,34828948.974609375,46477695.46508789,51933990.478515625,116111297.60742188,121620018.0053711,121965423.58398438,22141590.118408203,29318479.537963867,27087215.423583984,42469451.904296875,43750801.08642578,37683826.4465332,95486404.41894531,104019920.3491211,53742576.599121094,21941961.28845215,8291837.692260742,25973892.211914062,33438167.572021484,49177120.208740234,37887962.341308594,113125488.28125,82566528.3203125,37944042.20581055,27044593.811035156,3311771.3928222656,-21729043.96057129,17442277.908325195,38751541.13769531,38094337.463378906,65871681.213378906,37091808.3190918,5659426.212310791,19268110.275268555,-661204.5764923096,24520954.132080078,10268234.252929688,45457370.75805664,44693897.24731445,30086082.458496094,17802343.368530273,16969306.94580078,8810154.914855957,-6294748.306274414,8553496.360778809,1564056.9925308228,1153961.6584777832,1762434.6017837524,6799900.054931641,7415808.200836182,4668816.089630127,-7425909.042358398,1117688.0598068237,1125661.6115570068,1070282.5784683228,-927393554.6875,740535095.2148438,29874174.118041992,957962.691783905,-75407508.85009766
0.375,32513313.29345703,14353797.912597656,21236528.396606445,41039058.685302734,40270008.0871582,112342033.38623047,118527885.43701172,118775360.10742188,18695184.7076416,22453433.990478516,19668098.44970703,32125526.428222656,33297245.025634766,26303827.2857666,78694252.01416016,102641250.61035156,52894245.14770508,19833068.84765625,3341746.0918426514,18523309.7076416,26631334.30480957,39482395.17211914,26575307.846069336,97888153.07617188,80231979.37011719,39094188.69018555,26066465.377807617,1392308.5927963257,-24817735.67199707,13875435.829162598,30914245.60546875,26762739.181518555,55183815.002441406,34596168.518066406,8364110.946655273,21208257.6751709,-577033.2217216492,24605936.05041504,5888605.59463501,37108196.25854492,36435935.974121094,21948707.580566406,14065146.446228027,13535681.72454834,6951883.792877197,-3943681.001663208,10802328.109741211,-2730825.424194336,-3008877.2773742676,-2681542.8733825684,1726217.50831604,2292817.8310394287,569512.665271759,-4872241.497039795,-3121755.361557007,-3039148.8075256348,-3093157.7682495117,-905433166.5039062,713082641.6015625,28185552.5970459,-3207582.950592041,-78198333.74023438
0.38,32528854.370117188,9462884.902954102,14205773.35357666,39524463.65356445,33175144.19555664,112500541.68701172,119163825.98876953,119157989.50195312,16726669.311523438,16952798.84338379,13490022.659301758,25252014.16015625,26458253.860473633,20702688.217163086,72480590.8203125,105076507.56835938,54194511.41357422,17527545.928955078,-504745.4833984375,11866845.13092041,22016986.846923828,35031799.31640625,20897369.384765625,93196929.93164062,81698410.03417969,42231376.64794922,26753227.23388672,226647.80914783478,-25298377.990722656,12566018.104553223,28158624.64904785,20858558.654785156,53469642.639160156,36634609.22241211,11972872.734069824,22662311.553955078,-403730.03482818604,21867588.04321289,5198228.83605957,34957366.943359375,34205287.93334961,20986919.403076172,16047464.370727539,15645244.598388672,6183450.698852539,-1808989.6440505981,12721864.700317383,-1588558.0778121948,-1945128.083229065,-1596840.0239944458,1455618.143081665,1976795.5541610718,1035859.5848083496,-2520789.623260498,-1937808.2752227783,-1994402.289390564,-1886200.6664276123,-897728332.5195312,704698425.2929688,28710895.538330078,-2089760.7803344727,-78712867.7368164
0.385,34613796.23413086,11731055.25970459,15999371.528625488,40508689.880371094,33642463.68408203,113711402.8930664,120240196.22802734,120045654.296875,17608966.827392578,16369045.25756836,12918841.361999512,26303470.611572266,27552328.10974121,24489383.697509766,79276191.71142578,108729949.95117188,56754650.1159668,17669311.5234375,-55972.035974264145,12125998.497009277,22599058.151245117,38024818.420410156,24576147.079467773,100023696.89941406,86733474.73144531,45963417.053222656,29353445.053100586,890415.2512550354,-22259744.64416504,15617987.632751465,32169357.299804688,24389875.411987305,60824127.197265625,41495376.58691406,14884471.893310547,23561649.322509766,-240306.39231204987,18702068.328857422,8304137.229919434,38409996.032714844,37522029.876708984,27207921.981811523,21045673.370361328,20509225.845336914,8450963.020324707,-2313293.695449829,11392790.794372559,2213371.753692627,1656394.124031067,2282077.0740509033,5446842.670440674,5979122.161865234,5136737.34664917,-3034752.368927002,1890838.0270004272,1620144.8440551758,1848180.0556182861,-891521423.3398438,707094177.2460938,28663316.72668457,1558594.822883606,-75885681.15234375
0.39,32358795.166015625,12566651.344299316,17476051.330566406,39537647.24731445,35655776.97753906,112660217.28515625,118533432.00683594,118387619.01855469,19343538.284301758,18334379.196166992,15328723.907470703,29158372.87902832,30314416.885375977,28682737.350463867,87875236.51123047,110222679.1381836,57888351.44042969,19842693.328857422,2474430.0842285156,15836568.832397461,24077823.638916016,40062583.923339844,28751588.821411133,107441932.67822266,90381683.34960938,47392230.98754883,31203901.290893555,2220188.856124878,-18992973.32763672,19135528.564453125,35535430.908203125,28659893.035888672,67727195.7397461,44184337.6159668,15669070.24383545,23642753.60107422,-140428.5579919815,15952507.019042969,9647163.391113281,39175266.26586914,38331878.662109375,32871730.80444336,23055744.171142578,22384508.13293457,11371858.596801758,-4906122.207641602,6701269.149780273,2384034.1567993164,1716303.1101226807,2513543.6058044434,8624966.621398926,9215741.157531738,7932222.843170166,-5803211.688995361,2071397.7813720703,1787513.1368637085,1922324.776649475,-866574401.8554688,695158813.4765625,26644735.33630371,1630674.6006011963,-71046501.15966797
0.395,25618618.01147461,7322648.048400879,11496086.120605469,35072223.66333008,33037162.78076172,108922286.98730469,114145759.58251953,114203178.40576172,17994720.458984375,17643987.65563965,14863315.58227539,26155340.19470215,27175758.361816406,24736415.86303711,88715171.81396484,108087821.96044922,55746280.670166016,20200696.94519043,2430999.994277954,15390191.078186035,21472135.543823242,34039367.67578125,24836990.356445312,108047904.96826172,88603530.88378906,44976032.25708008,29848894.119262695,1859168.4103012085,-18624809.26513672,17481740.951538086,31653594.970703125,24908649.444580078,68108825.68359375,42865810.39428711,14680101.39465332,22638454.43725586,-84393.03934574127,12532040.5960083,6029920.1011657715,32958679.19921875,32336341.857910156,33216434.478759766,21047243.118286133,20425094.604492188,11986145.973205566,-6605997.085571289,2441178.560256958,-2148231.267929077,-2779976.6063690186,-2109797.239303589,8416785.24017334,9019140.243530273,7307723.522186279,-7552465.438842773,-2492320.5375671387,-2533522.367477417,-2607341.527938843,-839419189.453125,674106262.2070312,24367744.44580078,-2865246.7727661133,-67978614.8071289
0.4,20981590.270996094,1398423.5525131226,3011121.2730407715,31164196.014404297,27871726.989746094,106119697.57080078,111288246.15478516,111440093.99414062,13352383.613586426,13413675.308227539,10707709.312438965,19312679.290771484,20351480.48400879,16428579.330444336,84070175.17089844,105292106.62841797,52898292.541503906,17104343.41430664,-1167681.336402893,10050204.277038574,16636692.04711914,24410837.173461914,16517555.236816406,105127113.34228516,84443511.96289062,41564498.90136719,26695716.857910156,-836124.3009567261,-20453233.71887207,10879898.071289062,23711278.915405273,16595607.75756836,65371299.743652344,40914478.30200195,13968761.444091797,21134708.404541016,-57454.22840118408,8889802.932739258,1149394.3929672241,25256536.48376465,24766487.12158203,31158571.243286133,19573404.31213379,19124996.185302734,10391013.145446777,-6231689.929962158,1642545.8192825317,-6204485.893249512,-6780434.608459473,-6350498.199462891,6793200.0160217285,7349707.126617432,5647610.664367676,-7010221.004486084,-6638918.399810791,-6434650.421142578,-6585339.546203613,-847731201.171875,675126220.703125,23474193.572998047,-6886929.035186768,-69353073.12011719
0.405,24437932.96813965,3345672.130584717,3164131.8798065186,33235107.421875,27938150.40588379,108505783.08105469,114368797.3022461,114373580.93261719,10330341.339111328,10569605.827331543,8441239.356994629,18503227.23388672,19699523.92578125,15312469.482421875,81349494.93408203,106486717.2241211,53818401.33666992,13905493.73626709,-4449423.789978027,7165520.191192627,16249383.926391602,22297395.706176758,15399366.37878418,104475822.44873047,83962882.99560547,41566699.98168945,25162731.170654297,-3718406.4388275146,-21560750.96130371,6319506.645202637,21349563.598632812,15377116.203308105,64879859.924316406,41570468.90258789,14387294.76928711,20455339.431762695,-63544.80981826782,8032855.033874512,1078717.4701690674,24392868.041992188,23799610.137939453,31006378.173828125,21584730.14831543,21302858.352661133,8499541.282653809,-5684088.706970215,3035257.577896118,-5317587.375640869,-5893320.083618164,-5552573.204040527,6186559.200286865,6758660.793304443,5431262.016296387,-6323508.739471436,-5866213.321685791,-5654428.482055664,-5648546.21887207,-898110229.4921875,709863647.4609375,23632301.330566406,-6099352.836608887,-73287460.32714844
0.41,35415992.736816406,14723102.569580078,15589897.155761719,41681144.71435547,36708255.767822266,115817703.24707031,122697517.39501953,122475036.62109375,12466185.569763184,12981251.71661377,12116358.757019043,28699291.229248047,29973577.49938965,26351509.09423828,82262847.90039062,112006774.90234375,58575962.06665039,13865813.255310059,-4059433.937072754,11943654.06036377,22898660.65979004,31966186.5234375,26559902.19116211,106212242.12646484,87274055.48095703,45134948.73046875,25819477.081298828,-4332651.138305664,-20956781.3873291,9376493.453979492,29027149.200439453,26552803.03955078,66096580.505371094,43297630.310058594,14085068.702697754,21276580.810546875,-60697.734355926514,11156869.888305664,7174575.8056640625,31729015.350341797,30948469.161987305,32099338.53149414,24390209.197998047,24162057.876586914,6967677.593231201,-6559755.802154541,3665362.83493042,-796422.6603507996,-1354177.1173477173,-929561.7938041687,6257255.077362061,6956036.09085083,5973907.947540283,-7302211.284637451,-1423179.268836975,-1363138.0796432495,-1126672.387123108,-960995666.5039062,757878173.828125,24212968.826293945,-1732032.6566696167,-76023185.72998047
0.415,47387516.021728516,28223659.51538086,31749122.619628906,50657730.10253906,48430313.11035156,122250129.69970703,129821121.21582031,129516876.22070312,16504877.090454102,17677919.387817383,18181661.60583496,42851390.83862305,44031654.357910156,41745670.318603516,82597068.7866211,116586631.77490234,61987758.63647461,15088915.824890137,-1689154.5057296753,19906328.201293945,31095149.993896484,45540687.561035156,42135082.24487305,107103134.15527344,88398239.13574219,47598537.44506836,25870037.078857422,-2915594.8162078857,-20192426.681518555,17091640.47241211,40258754.73022461,42301559.44824219,65276771.545410156,42415264.12963867,11253046.989440918,22652359.008789062,18550.598993897438,14507866.859436035,14898199.081420898,40773017.88330078,39898178.10058594,31252038.955688477,24006841.6595459,23646005.630493164,5273854.732513428,-7528819.0841674805,3258215.4273986816,2862726.2115478516,2379353.0464172363,2910199.1653442383,5435712.814331055,6254736.90032959,5372479.438781738,-8473113.059997559,2201558.1130981445,2219418.76411438,2515856.5044403076,-1008403564.453125,794863708.4960938,25536577.224731445,1881414.0558242798,-76797988.89160156
0.42,52730480.1940918,34491554.260253906,39603931.42700195,53287689.208984375,53856327.056884766,121256538.39111328,128823532.10449219,128577819.82421875,16599481.582641602,18500085.830688477,19910591.12548828,49191108.70361328,50273292.541503906,49455497.74169922,79103080.74951172,114914245.60546875,59920528.411865234,13655178.07006836,-1558881.7596435547,22188964.84375,33124641.41845703,51467952.728271484,49889209.74731445,105539634.70458984,83998916.62597656,45466781.61621094,23620208.740234375,-1873599.0524291992,-20019161.224365234,21531087.87536621,44520080.56640625,50179832.458496094,62018959.045410156,38528957.36694336,7303174.97253418,23031883.239746094,165011.28673553467,13689488.410949707,18864545.822143555,44477809.90600586,43570495.60546875,28359083.17565918,20773788.452148438,20177549.362182617,4078619.4801330566,-6125302.314758301,3933864.5935058594,3557989.3589019775,3093792.9153442383,3672463.893890381,3746195.3163146973,4575790.882110596,3753973.960876465,-7063229.084014893,2868736.0286712646,3031527.9960632324,3151028.3946990967,-1025265747.0703125,806886657.7148438,27598819.732666016,2637983.560562134,-76684310.91308594
0.425,48506782.53173828,30373003.005981445,35354621.88720703,48141441.345214844,49818603.515625,111847816.46728516,118869407.6538086,118672195.43457031,12376069.068908691,14176607.131958008,16014646.530151367,43969058.990478516,45117847.44262695,45626861.572265625,72689445.49560547,107252502.44140625,54033374.78637695,9796656.608581543,-4672412.395477295,16627300.262451172,27496023.178100586,46403118.13354492,45939048.767089844,101647865.29541016,77615585.32714844,40868316.650390625,20924669.26574707,-2538521.7666625977,-19026582.717895508,19481363.29650879,38802452.087402344,46148014.068603516,59161861.419677734,35042003.6315918,5463650.703430176,22195125.579833984,288589.4179344177,9879753.112792969,17914472.579956055,41662525.17700195,40715461.73095703,26321044.921875,18655090.33203125,17987470.626831055,5205698.013305664,-1961419.701576233,6484837.055206299,2954573.392868042,2358555.793762207,2962477.684020996,2908781.2900543213,3697108.507156372,3224214.3154144287,-2651446.3424682617,2251233.5777282715,2535757.7800750732,2421535.015106201,-1000596923.828125,786896972.65625,29303667.068481445,2065016.508102417,-74485824.58496094
0.43,39510681.15234375,21249225.616455078,25840538.024902344,40680805.20629883,41716976.165771484,100265243.53027344,106769287.109375,106614746.09375,9203555.1071167,9538621.90246582,11412316.32232666,34298469.54345703,35606140.13671875,36820350.646972656,65825042.724609375,98833053.58886719,49236446.380615234,7245867.2523498535,-7893051.624298096,10068585.395812988,20025373.458862305,37260772.705078125,37038585.6628418,95889381.4086914,74111572.265625,38588912.96386719,20126132.96508789,-3751217.1268463135,-16690896.987915039,15280604.362487793,30096597.67150879,37076938.62915039,57752311.70654297,34711799.62158203,6633275.985717773,21469394.68383789,324181.9441318512,8196667.671203613,15147872.924804688,36420295.71533203,35507793.42651367,26424612.045288086,20017950.0579834,19570270.538330078,8664448.738098145,2698385.715484619,8948917.388916016,3004805.088043213,2216403.4843444824,2860938.07220459,4014608.860015869,4795258.522033691,4936614.036560059,2186565.87600708,2359901.189804077,2564246.416091919,2376622.9152679443,-946470153.8085938,746436767.578125,29683727.264404297,2081808.5670471191,-68892532.34863281
0.435,34303642.27294922,15104617.11883545,19726749.420166016,37720954.89501953,36489608.76464844,94372726.44042969,100917320.25146484,100920768.73779297,10661046.981811523,8617117.881774902,9931082.725524902,28646978.3782959,29999485.01586914,30584917.068481445,59332160.94970703,94390106.20117188,48363948.822021484,7358020.782470703,-8530850.410461426,9292354.583740234,16771972.65625,32069938.65966797,30850955.963134766,89437515.25878906,73652000.4272461,40061084.74731445,20614625.930786133,-3984570.9800720215,-15392823.219299316,13711441.993713379,25963502.883911133,30855512.619018555,55606410.98022461,36486129.76074219,8554129.600524902,21908412.93334961,273511.3203525543,10272787.094116211,13686928.749084473,32501804.35180664,31754526.138305664,26548461.9140625,22863653.1829834,22671569.82421875,11553030.967712402,4994456.2911987305,9148825.645446777,2986562.967300415,2112860.679626465,2812794.9237823486,5794282.913208008,6571343.898773193,7181008.815765381,4329105.854034424,2472023.0102539062,2498298.8834381104,2406663.8946533203,-909806030.2734375,720148010.2539062,28666557.31201172,2080909.4905853271,-63728553.771972656
0.44,35660022.7355957,13929094.314575195,17865190.505981445,39867145.53833008,34907581.3293457,95107482.91015625,102174491.88232422,102349449.15771484,14128527.641296387,9704023.361206055,9918678.283691406,27498102.18811035,28696357.72705078,27059841.15600586,52000843.0480957,93371131.89697266,50318824.768066406,7595225.3341674805,-7435288.906097412,12943262.100219727,17483573.91357422,31159410.47668457,27389549.255371094,83375885.00976562,72834472.65625,41979450.22583008,20133619.30847168,-3556434.8697662354,-17014795.303344727,13815642.356872559,25668880.462646484,27516845.703125,50777080.53588867,36890411.376953125,9075128.555297852,22941225.051879883,165022.70102500916,12550745.010375977,13269886.97052002,29500043.869018555,28887258.529663086,24127378.463745117,23246585.845947266,23039190.2923584,11360627.174377441,3751721.143722534,7220414.638519287,897487.223148346,90893.9316868782,837635.5171203613,5552562.236785889,6275645.2560424805,6884870.529174805,2724599.1230010986,490256.30950927734,442697.9422569275,449037.7902984619,-918726196.2890625,725154541.015625,26339763.641357422,101852.6554107666,-64647430.419921875
0.445,36902839.66064453,12780170.440673828,14637498.85559082,41064075.4699707,32977287.29248047,95401664.73388672,102766265.86914062,102815986.63330078,15131898.880004883,9038326.263427734,8523062.705993652,25906160.354614258,26865581.512451172,22245834.350585938,43283161.16333008,91562393.18847656,52255428.314208984,6252609.729766846,-6605871.677398682,15000147.819519043,17542356.491088867,29520969.39086914,22531072.61657715,77362876.89208984,69926193.23730469,40971618.65234375,18392860.412597656,-3547936.201095581,-19127132.415771484,12065706.253051758,23604276.657104492,22735300.064086914,44334808.349609375,33971263.88549805,8521152.49633789,23362590.789794922,68807.6913356781,12545989.036560059,11614326.477050781,25161432.26623535,24500396.728515625,19346908.569335938,19750204.08630371,19380861.282348633,9322220.802307129,287083.7152004242,5085791.58782959,-3106379.508972168,-3766112.3275756836,-3059617.519378662,2157310.2474212646,2805240.6311035156,3103488.6837005615,-963056.2663078308,-3493084.43069458,-3510089.39743042,-3490886.449813843,-932005981.4453125,728140441.8945312,22934595.108032227,-3829172.134399414,-70145431.51855469
0.45,31736484.52758789,9000028.610229492,8888731.002807617,37439640.045166016,30348806.381225586,90234313.96484375,97198219.2993164,96787086.4868164,13401002.883911133,7066237.449645996,7279588.222503662,23553501.12915039,24395381.927490234,17794977.18811035,36790622.71118164,87696334.83886719,52592399.59716797,5173767.08984375,-5804965.972900391,14253300.666809082,15799039.840698242,26715480.80444336,18008445.739746094,72274475.09765625,67168327.33154297,38224140.16723633,17331626.892089844,-3438960.075378418,-17787986.755371094,9023134.231567383,19893630.981445312,18122856.14013672,39571964.263916016,29872844.696044922,8326231.956481934,22970050.811767578,101752.1321773529,12337081.909179688,8793534.278869629,20804559.7076416,20068195.343017578,15184410.095214844,15329652.786254883,15037832.260131836,8596253.395080566,-2788292.169570923,4322429.656982422,-6046894.073486328,-6545211.315155029,-6058732.986450195,-2050874.4716644287,-1465818.4051513672,-1368810.772895813,-3993813.991546631,-6450583.934783936,-6486723.899841309,-6449058.055877686,-901603698.7304688,697210327.1484375,20016458.51135254,-6841646.194458008,-72692100.52490234
0.455,25612812.042236328,8805518.15032959,8744991.302490234,34296958.923339844,32966636.657714844,85385604.85839844,91799743.65234375,90993186.9506836,12586297.988891602,7933392.524719238,10230259.895324707,26927822.11303711,27906637.19177246,21563674.926757812,38735965.728759766,86830604.55322266,52579730.98754883,6427431.106567383,-3449500.322341919,15918994.903564453,17183874.130249023,29295213.69934082,21770139.694213867,72901489.2578125,68371498.10791016,38281215.66772461,18068702.697753906,-1614810.3475570679,-13434451.10321045,8942845.344543457,21813995.361328125,21781602.85949707,39374431.61010742,29218126.29699707,8710268.9743042,22479484.55810547,282642.1856880188,13756974.220275879,8261672.9736328125,21443937.301635742,20868192.672729492,14811779.975891113,14345111.846923828,14408174.514770508,9557920.455932617,-3960966.5870666504,5090611.457824707,-5494015.216827393,-5865383.625030518,-5712133.407592773,-3440766.8113708496,-2936398.506164551,-2787955.7609558105,-5080047.130584717,-5893696.7849731445,-6032843.589782715,-5910085.678100586,-869957275.390625,671730834.9609375,19715871.810913086,-6421462.535858154,-70624473.57177734
0.46,29433267.59338379,18535600.662231445,20045810.69946289,38967899.322509766,43635322.57080078,89418258.66699219,96054214.47753906,95222526.55029297,14786746.02508545,12672971.725463867,16949861.526489258,38298892.974853516,39588230.13305664,35194007.873535156,49486728.66821289,93118408.203125,54268768.310546875,8651084.899902344,-80870.53149938583,22663570.404052734,24878643.035888672,39879810.33325195,35360183.71582031,81894187.9272461,73781883.2397461,42848655.700683594,19217390.060424805,1601896.2860107422,-10324211.120605469,13113604.545593262,32180801.391601562,35476551.0559082,43537544.25048828,33719993.591308594,8685068.130493164,22231817.2454834,418881.74414634705,14405303.001403809,12070119.857788086,28412466.049194336,28175134.658813477,18535091.400146484,17427202.224731445,17723728.17993164,9484251.022338867,-3805736.780166626,6693323.135375977,-2654926.061630249,-3006152.1530151367,-3038609.504699707,-1518502.950668335,-1093045.2346801758,-879011.4521980286,-5007374.7634887695,-3060324.9073028564,-3260917.901992798,-3108689.546585083,-916942321.7773438,712859375.0,21805625.915527344,-3626142.5018310547,-70820755.00488281
0.465,40736789.70336914,30548500.061035156,32522102.35595703,47243591.30859375,53011173.248291016,97444519.04296875,104906707.76367188,104185928.34472656,17542303.08532715,15987346.649169922,20781286.239624023,46998264.31274414,48475311.279296875,46178722.3815918,58404899.59716797,100149375.91552734,56361343.38378906,8735667.22869873,1323792.2191619873,28276369.094848633,32455680.84716797,48194595.33691406,46182476.04370117,90817649.8413086,77216880.79833984,47298824.310302734,18740547.18017578,3275159.1205596924,-10015748.977661133,17174222.946166992,41396030.42602539,46574169.15893555,47604373.931884766,38818389.892578125,7865316.867828369,21927700.04272461,322490.72194099426,12089228.630065918,16490186.69128418,34371337.890625,34325435.638427734,22770952.224731445,20273618.698120117,20440706.253051758,7540018.081665039,-3312023.162841797,8394717.2164917,-876189.8279190063,-1320137.5007629395,-1227517.4856185913,233662.1731519699,699085.7720375061,838907.1822166443,-4615452.289581299,-1321801.1856079102,-1486280.6797027588,-1466686.8448257446,-1002068664.5507812,781691284.1796875,23241394.04296875,-1786040.4253005981,-75356101.9897461
0.47,41848789.21508789,27911211.013793945,27728626.251220703,45253093.71948242,47847084.045410156,93262557.98339844,100882614.13574219,100042945.8618164,16912939.071655273,12302431.106567383,16260019.302368164,39893917.083740234,41200893.40209961,40524848.93798828,53472290.0390625,95603256.22558594,54004093.170166016,5858804.702758789,-847766.2801742554,24914319.99206543,29870399.475097656,41357517.24243164,40403255.462646484,86339172.36328125,71084106.4453125,45356575.01220703,16388517.379760742,1361310.0051879883,-9583532.333374023,16697948.455810547,37885025.02441406,40976055.14526367,46091190.338134766,37992557.525634766,7200479.984283447,21394969.940185547,130471.08054161072,9871706.008911133,15741858.48236084,30776178.35998535,30650535.583496094,23215658.18786621,18788476.943969727,18721044.540405273,6996938.228607178,-2346645.5936431885,9639917.373657227,-1229352.7126312256,-1748201.9662857056,-1399665.4748916626,-1013068.437576294,-377284.7056388855,-234545.64809799194,-3488196.611404419,-1667183.9952468872,-1800538.5398864746,-1918607.1157455444,-975680419.921875,757758422.8515625,21962898.25439453,-2055305.9577941895,-74508491.51611328
0.475,23389211.654663086,7232381.343841553,3911218.4047698975,28570550.9185791,29426406.860351562,72128814.69726562,78663490.29541016,77622329.71191406,12514883.041381836,3704293.2510375977,6779194.8318481445,20378139.49584961,21298217.7734375,22154851.91345215,36815898.89526367,77940956.11572266,45169883.728027344,2173483.13331604,-4252711.296081543,14758306.503295898,17695188.522338867,22633655.548095703,22133844.37561035,68444320.67871094,56106758.11767578,36973777.770996094,13617207.527160645,-2301455.25932312,-7470586.776733398,12948200.225830078,24439001.083374023,22663949.966430664,38575950.622558594,30694765.090942383,7599261.76071167,20587507.247924805,170969.60544586182,11859893.798828125,9987868.309020996,19844989.776611328,19583080.291748047,19652641.29638672,14257656.09741211,14193445.205688477,10262328.147888184,-956353.0683517456,9954463.005065918,-1209423.4228134155,-1676123.6190795898,-1243572.5927352905,-3633884.1915130615,-2904357.671737671,-2468379.497528076,-1759434.1039657593,-1519213.1996154785,-1698642.373085022,-1713083.028793335,-798140991.2109375,614733459.4726562,19643150.329589844,-1948382.4968338013,-60959083.557128906
0.48,1036969.3040847778,-12215372.085571289,-16813831.329345703,11815629.959106445,15744875.90789795,51842533.111572266,57203300.47607422,56349620.8190918,8162698.745727539,-1516883.6116790771,1646304.0113449097,7786059.379577637,8505047.798156738,10627779.006958008,23947561.264038086,62020332.33642578,35708400.72631836,104667.01537370682,-5160424.709320068,8622770.309448242,8741345.405578613,10639867.782592773,10801402.09197998,53882049.560546875,43430637.35961914,29161817.55065918,11762559.89074707,-4064186.0961914062,-6867660.045623779,10680888.175964355,16356006.622314453,11238835.334777832,31206260.681152344,23508453.369140625,8298512.4588012695,19036994.93408203,464286.3869667053,15966156.005859375,5992817.401885986,13288007.736206055,13019910.81237793,16394218.444824219,11458271.026611328,11570904.731750488,14124466.896057129,-850613.8324737549,9097041.130065918,1353110.909461975,974444.329738617,1298317.1939849854,-4152801.990509033,-3570276.975631714,-2763376.235961914,-1579384.3269348145,1194156.289100647,981167.4356460571,1243660.9268188477,-641077209.4726562,492392974.8535156,19058118.82019043,741938.5313987732,-44355068.20678711
0.485,-2373874.6643066406,-10780031.204223633,-14218441.9631958,11556041.717529297,20224750.518798828,51707393.646240234,57202087.40234375,56953845.9777832,7269928.455352783,1173615.574836731,5156323.432922363,13758013.725280762,14628414.154052734,16436292.64831543,25138389.587402344,61923900.60424805,33863780.9753418,231116.05644226074,-2923691.2727355957,12153800.964355469,11963507.652282715,16045764.923095703,16608184.814453125,55681850.43334961,42921199.798583984,27877140.045166016,11044002.532958984,-2912153.720855713,-10531652.450561523,11441576.957702637,21617225.646972656,17110939.025878906,29928440.09399414,22064371.10900879,7116391.658782959,16470817.565917969,621975.3623008728,16173553.466796875,8106784.820556641,16988519.6685791,16755441.665649414,16773540.496826172,12113821.029663086,12269135.475158691,13300638.198852539,-3610269.069671631,7174640.655517578,4157643.7950134277,3750946.521759033,3998856.544494629,-2606196.403503418,-2268965.244293213,-1368144.154548645,-4713838.10043335,4003167.152404785,3882887.840270996,4225090.503692627,-677165039.0625,523658325.1953125,19682250.9765625,3669613.1229400635,-41464965.8203125
0.49,13016455.65032959,5975794.792175293,3780544.0425872803,24761783.599853516,34351001.73950195,67261283.87451172,73922065.73486328,74167465.20996094,8895800.590515137,7105117.7978515625,11533264.16015625,26957601.54724121,28046400.07019043,27346080.780029297,33603149.4140625,73164390.56396484,39791576.38549805,1428450.107574463,-476338.38653564453,18986646.65222168,20475154.876708984,27457950.592041016,27330648.42224121,66543418.884277344,51136966.705322266,31135189.056396484,10933259.963989258,-1193279.3855667114,-15552763.938903809,11938966.751098633,30435184.478759766,28001985.549926758,33337814.331054688,24362462.997436523,2635676.145553589,13984480.857849121,368410.22968292236,11511761.665344238,12021069.526672363,22671058.654785156,22377157.21130371,18686140.060424805,12996706.008911133,12988381.385803223,7649195.671081543,-7985519.886016846,4415839.195251465,2130598.545074463,1638231.5158843994,1917065.143585205,-2662579.5364379883,-2407170.295715332,-1598449.70703125,-9518537.521362305,1835380.5541992188,1890538.3348464966,1952238.0828857422,-846336303.7109375,654114196.7773438,18014583.587646484,1643240.4518127441,-54561946.868896484
0.495,25263370.513916016,15453687.66784668,12459779.739379883,33917388.916015625,39619270.32470703,77554351.80664062,84957412.71972656,85236022.94921875,9551472.663879395,8988046.646118164,12726461.410522461,29086597.442626953,30132001.876831055,26228630.06591797,36668865.20385742,79741035.46142578,44981624.603271484,2070961.4753723145,-366417.88482666016,20614789.962768555,21705247.87902832,27965990.06652832,26131803.512573242,70515266.41845703,55978034.97314453,32403316.497802734,10705854.415893555,-1119159.9369049072,-16982051.849365234,9524950.02746582,29587001.80053711,26871089.935302734,35148544.31152344,24683412.551879883,-3722582.3402404785,13329915.046691895,-63654.78038787842,7514831.54296875,11019353.866577148,19772680.282592773,19382522.583007812,17779062.271118164,11223176.956176758,11068330.764770508,2339240.789413452,-11073363.304138184,1161450.0284194946,-6079595.565795898,-6506341.457366943,-6265717.506408691,-6178075.313568115,-5826562.881469727,-4853130.340576172,-12627900.123596191,-6473411.560058594,-6314019.203186035,-6575636.386871338,-946804748.5351562,723462707.5195312,12397231.101989746,-6699105.262756348,-69496810.91308594
0.5,21967525.482177734,9520675.659179688,4661404.609680176,31373905.181884766,32819126.12915039,74137100.21972656,81314910.88867188,81448226.92871094,8271940.231323242,6418718.338012695,8743204.116821289,20175596.237182617,21002208.709716797,15622730.255126953,32542598.724365234,75740562.43896484,43418388.36669922,1302740.5738830566,-1711252.9277801514,18154121.39892578,15331566.81060791,19053775.787353516,15640855.78918457,65054000.85449219,52396816.25366211,29326017.379760742,9764689.445495605,-2252016.305923462,-14605581.283569336,6586761.951446533,21184722.900390625,16305259.704589844,32900608.06274414,21899179.458618164,-8358613.967895508,14577411.651611328,-260315.62685966492,7945467.948913574,6139832.496643066,11141085.624694824,10754992.485046387,13867949.485778809,8430694.580078125,8306820.869445801,709719.4194793701,-12007483.48236084,-1655393.9580917358,-14780130.386352539,-14977017.402648926,-14915392.875671387,-10317397.117614746,-9886447.90649414,-8419538.497924805,-13275476.455688477,-15099975.5859375,-14997850.41809082,-15246417.999267578,-911730712.890625,685989440.9179688,5730741.500854492,-15517635.345458984,-74656585.69335938
0.505,14695898.056030273,3033871.650695801,-2013526.439666748,26464908.599853516,27960151.67236328,68124191.28417969,74961868.28613281,75180870.05615234,7489579.200744629,4864390.850067139,6277668.9529418945,16083427.429199219,16848649.978637695,12869557.38067627,28814651.489257812,70087402.34375,38548992.15698242,-271630.6746006012,-2017613.6493682861,18606620.78857422,12156990.051269531,16358692.169189453,12969944.00024414,60684783.935546875,47216068.267822266,25828769.68383789,8183979.034423828,-2894969.4633483887,-12400253.295898438,7158987.522125244,18404693.603515625,13542207.717895508,30263748.168945312,20012792.587280273,-8769510.269165039,15771027.565002441,-164318.33803653717,9997412.68157959,4711573.600769043,8966469.764709473,8681764.602661133,11036577.224731445,7752302.169799805,7737562.656402588,821239.4118309021,-12273228.645324707,-2709666.2521362305,-16493074.417114258,-16554031.372070312,-16597595.21484375,-11422689.437866211,-10988922.119140625,-9214037.895202637,-13415009.498596191,-16645172.119140625,-16711212.158203125,-16693124.771118164,-857288757.3242188,640593322.7539062,2493690.9675598145,-17215036.392211914,-71843086.24267578
0.51,15658998.489379883,6911404.132843018,3974806.070327759,26453107.833862305,32377887.725830078,67316833.49609375,74312889.0991211,74770629.8828125,8339097.023010254,6220540.0466918945,7957859.039306641,22244438.17138672,23167470.932006836,22898008.346557617,27775529.861450195,69508255.00488281,36240009.30786133,-1391911.8642807007,-1029472.827911377,22326738.357543945,16090311.050415039,23920989.990234375,22930595.39794922,61381477.35595703,46996181.48803711,25489685.05859375,6968249.797821045,-2534471.035003662,-12264252.662658691,10472359.657287598,24611904.14428711,23423738.479614258,29896001.8157959,20941846.84753418,-6101497.173309326,15566831.588745117,-46528.954058885574,9731592.178344727,8758952.140808105,16149824.142456055,15976514.81628418,11268402.099609375,8825580.596923828,8841841.697692871,373570.0845718384,-12255662.91809082,-1746628.2844543457,-10598840.713500977,-10796994.20928955,-10693110.466003418,-9782292.366027832,-9303495.407104492,-7788688.659667969,-13557273.864746094,-10653415.67993164,-10861230.850219727,-10720380.783081055,-861304565.4296875,648641906.7382812,3988221.4069366455,-11218979.835510254,-66763847.35107422
