time,Fp1,Fpz,Fp2,AF3,AF4,F7,F5,F3,F1,Fz,F2,F4,F6,F8,FT7,FC5,FC3,FC1,FCz,FC2,FC4,FC6,FT8,T7,C5,C3,C1,Cz,C2,C4,C6,T8,TP7,CP5,CP3,CP1,CPz,CP2,CP4,CP6,TP8,P7,P5,P3,P1,Pz,P2,P4,P6,P8,PO7,PO5,PO3,POz,PO4,PO6,PO8,CB1,O1,Oz,O2,CB2
0.0,-53087.77093887329,-655598.3424186707,-759046.1373329163,687915.9212112427,-274334.28168296814,2264744.520187378,1662911.4151000977,607316.1959648132,657644.6294784546,684893.786907196,248848.5723733902,49129.56431508064,-1154109.001159668,-2185183.7635040283,2819566.7266845703,1696380.853652954,781718.7905311584,711799.681186676,736900.3295898438,364635.6463432312,63142.068684101105,-999306.6191673279,-1281421.5421676636,2806215.286254883,1925872.3258972168,894974.1125106812,234868.49665641785,170648.2768058777,-47928.668558597565,330051.60093307495,-119419.49278116226,-645875.5731582642,1265385.8661651611,1450708.270072937,706606.9841384888,78877.65765190125,161793.72370243073,-65864.9206161499,251871.4964389801,7117645.263671875,928806.483745575,1201697.3495483398,1267627.477645874,984291.0170555115,209429.59189414978,25479.618459939957,231866.34480953217,686391.8304443359,1370521.7838287354,394349.8730659485,1213268.6376571655,1196720.9577560425,1205875.7543563843,550957.5009346008,809811.8901252747,812958.3597183228,860939.9199485779,1243032.0978164673,1214193.7017440796,642574.4891166687,792036.6525650024,783059.1201782227
0.005,-22311536.78894043,-25857019.424438477,-27745012.283325195,-23511701.583862305,-33846832.275390625,-20686815.26184082,-23360378.26538086,-24983148.5748291,-23738554.000854492,-24399532.318115234,-29552370.071411133,-33230392.456054688,-34683818.81713867,-36254455.56640625,-1106917.7389144897,-25961688.995361328,-24301727.294921875,-24363138.19885254,-20604848.861694336,-24667520.52307129,-28149044.036865234,-28657867.431640625,-36447879.791259766,2557368.755340576,-24592418.670654297,-24728736.877441406,-23270639.419555664,-22572389.602661133,-24300407.40966797,-22420223.236083984,-25844995.498657227,-53535060.88256836,-19679836.27319336,-16168088.912963867,-21326322.555541992,-26470121.383666992,-22745475.76904297,-7055227.756500244,-29173366.54663086,160197662.35351562,-31639913.55895996,-20538867.950439453,-20263299.9420166,-25975931.16760254,-28034709.930419922,-25095739.364624023,-24688533.782958984,-15308819.770812988,-20237169.26574707,-34229976.654052734,-20105205.535888672,-20199178.69567871,-20497581.481933594,-18721752.166748047,-21726985.931396484,-21812255.859375,-21647758.48388672,-19444898.60534668,-20030351.638793945,-17026382.446289062,-21790586.471557617,-22234272.003173828
0.01,-31239618.3013916,-34438613.89160156,-37660121.91772461,-32203948.974609375,-45708137.51220703,-30346775.05493164,-33358764.6484375,-34361183.166503906,-32575439.453125,-32540061.950683594,-39490207.67211914,-45883911.1328125,-49168159.48486328,-51095851.89819336,-3094284.5344543457,-35981754.302978516,-33491733.55102539,-33660610.19897461,-28372476.57775879,-34191898.345947266,-40085330.963134766,-41358528.13720703,-52122436.5234375,1940202.1169662476,-35729740.142822266,-35277996.06323242,-32393569.946289062,-32490943.908691406,-35131725.3112793,-32139801.025390625,-38348197.93701172,-76732124.32861328,-29777786.254882812,-23896575.927734375,-32602821.350097656,-38236721.03881836,-32741210.9375,-9476367.950439453,-44359756.46972656,222378479.00390625,-45978351.59301758,-30864021.30126953,-30518209.45739746,-38308742.52319336,-40709033.96606445,-36827846.52709961,-36992279.052734375,-24173604.96520996,-29886766.43371582,-50027622.22290039,-30394800.186157227,-30261381.149291992,-30832408.905029297,-28675874.710083008,-33185844.42138672,-33318290.71044922,-32932601.928710938,-29436468.12438965,-30184061.05041504,-26427284.240722656,-33221595.764160156,-33660842.89550781
0.015,-27656044.006347656,-28638601.303100586,-32572868.34716797,-26500619.888305664,-38355876.92260742,-27144065.856933594,-28873416.900634766,-28780666.35131836,-27106346.130371094,-25560174.9420166,-32115741.729736328,-39903411.865234375,-46093391.41845703,-49190074.9206543,-3180489.5401000977,-29898563.385009766,-28279760.360717773,-28582002.639770508,-23841718.673706055,-29717878.341674805,-36938518.52416992,-40092960.357666016,-50282745.361328125,1075733.9000701904,-32437873.84033203,-31485990.524291992,-28598278.045654297,-30260972.97668457,-33173179.626464844,-29414581.298828125,-37559738.15917969,-71762641.90673828,-30025085.44921875,-22897037.506103516,-32768405.91430664,-36195888.51928711,-30498315.811157227,-8009747.505187988,-44526340.48461914,201875625.61035156,-42754474.63989258,-30885009.765625,-30535915.37475586,-37213878.6315918,-39078479.7668457,-35801685.33325195,-36434894.56176758,-25117004.39453125,-27726366.04309082,-47707344.05517578,-30618261.337280273,-30223381.04248047,-30886850.357055664,-29523826.599121094,-33791229.248046875,-33933300.01831055,-33371166.229248047,-29711853.02734375,-30263120.651245117,-27670478.82080078,-33778045.654296875,-33985309.60083008
0.02,-22542259.216308594,-23078695.29724121,-26897598.266601562,-19854005.813598633,-30342336.654663086,-22799074.172973633,-22951562.881469727,-22254659.65270996,-20845636.36779785,-18370094.299316406,-24641597.747802734,-32515300.750732422,-40445621.490478516,-46041275.02441406,-3847691.535949707,-23528812.408447266,-22750846.86279297,-23037517.547607422,-18644741.05834961,-24375946.044921875,-31773393.630981445,-36332912.44506836,-46570724.48730469,-555706.0241699219,-28199247.360229492,-26111913.681030273,-24513761.520385742,-26315977.096557617,-28979812.622070312,-24431402.2064209,-33355064.392089844,-62440460.205078125,-29904441.833496094,-22192138.671875,-30135168.075561523,-32542926.788330078,-26508890.15197754,-6676532.26852417,-39767284.39331055,174036514.28222656,-36499107.360839844,-30604612.350463867,-30207126.61743164,-34955741.88232422,-36025760.650634766,-32812519.073486328,-32502208.709716797,-22948236.4654541,-23369840.621948242,-42258071.89941406,-30404592.514038086,-30114316.940307617,-30632858.276367188,-28667943.954467773,-32341117.85888672,-32473079.681396484,-31969511.032104492,-29621591.567993164,-29984386.444091797,-27260950.088500977,-32348278.045654297,-32573795.318603516
0.025,-22510728.83605957,-24642467.498779297,-27252752.30407715,-20656303.40576172,-30742059.7076416,-25764026.641845703,-24885301.58996582,-23220855.712890625,-21880441.665649414,-19064100.26550293,-25156839.37072754,-32453216.552734375,-39677425.384521484,-47271343.23120117,-7475209.2361450195,-26581657.40966797,-25089157.104492188,-25214992.52319336,-19110345.8404541,-24936784.744262695,-31440479.278564453,-35748752.59399414,-47907367.70629883,-4141091.823577881,-31819534.301757812,-27454917.907714844,-26973680.49621582,-26822103.50036621,-28630676.26953125,-23169372.55859375,-32455638.885498047,-63114067.07763672,-34652019.50073242,-26511272.430419922,-31245542.526245117,-34196235.65673828,-26980024.337768555,-7236612.319946289,-38087379.455566406,177550888.06152344,-36439437.86621094,-35448688.50708008,-35016998.291015625,-38031906.12792969,-38373817.443847656,-34268524.169921875,-32079460.14404297,-22221406.936645508,-23773853.302001953,-43066673.278808594,-35158908.84399414,-35164142.60864258,-35507812.5,-30958131.790161133,-34677471.16088867,-34767669.677734375,-34469333.64868164,-34340038.29956055,-34739624.0234375,-29552610.397338867,-34746902.46582031,-35225662.23144531
0.03,-24925046.920776367,-27633293.15185547,-28374124.52697754,-25193613.052368164,-32887538.90991211,-32786254.8828125,-31504051.208496094,-27479692.459106445,-26061632.15637207,-22471221.923828125,-27046989.44091797,-33821479.79736328,-39489120.48339844,-46162971.49658203,-12850464.820861816,-33825122.83325195,-30399059.295654297,-30408605.575561523,-21270362.854003906,-26654268.264770508,-31926582.33642578,-35093097.68676758,-48617580.41381836,-9044750.213623047,-39251171.11206055,-31974105.834960938,-31094053.268432617,-28706907.272338867,-29324480.056762695,-23328666.68701172,-33536853.790283203,-67897789.00146484,-40426517.486572266,-31696111.67907715,-34818145.751953125,-37115810.39428711,-28847015.380859375,-8021031.379699707,-39208488.46435547,186767288.2080078,-39517749.78637695,-41326557.15942383,-40947490.69213867,-41677112.5793457,-41543075.56152344,-36949024.20043945,-33838115.69213867,-23534545.8984375,-27560033.798217773,-46787979.12597656,-41030616.760253906,-41029129.02832031,-41405456.54296875,-34556591.03393555,-38834415.435791016,-38843338.01269531,-38659179.6875,-40096038.818359375,-40601108.55102539,-32981544.494628906,-38908615.11230469,-39447135.92529297
0.035,-25706241.607666016,-26719141.006469727,-26301410.675048828,-26780525.20751953,-30595329.28466797,-35738975.524902344,-34635089.87426758,-28249517.4407959,-26765672.68371582,-21998619.079589844,-24398273.468017578,-30992494.583129883,-37011032.10449219,-40338714.599609375,-15887933.731079102,-36009571.07543945,-31175245.28503418,-31239683.151245117,-20206912.994384766,-24466075.897216797,-29433362.96081543,-32409900.665283203,-45264751.43432617,-12121570.587158203,-42179954.528808594,-32792949.676513672,-30563447.952270508,-27705247.87902832,-27725984.573364258,-22073749.542236328,-33564144.134521484,-67783874.51171875,-41957489.013671875,-32416088.104248047,-35978252.41088867,-36000221.252441406,-27854074.478149414,-7681409.83581543,-39711662.29248047,176573654.1748047,-40332618.713378906,-42793750.76293945,-42442558.28857422,-40475017.54760742,-40453445.43457031,-36314147.94921875,-33953826.904296875,-24916400.909423828,-30198034.286499023,-47825325.01220703,-42602977.75268555,-42282661.43798828,-42809230.80444336,-35755584.716796875,-40736812.591552734,-40681850.43334961,-40490543.365478516,-41689697.265625,-42141807.556152344,-34206459.045410156,-40767990.11230469,-41034343.71948242
0.04,-25305690.76538086,-24849805.83190918,-24975784.301757812,-25161357.879638672,-27967590.33203125,-32971431.732177734,-32342330.932617188,-25941093.44482422,-24422500.610351562,-19270677.56652832,-21212491.989135742,-27953788.75732422,-36547817.23022461,-37425849.91455078,-14846220.016479492,-32491950.98876953,-27896390.914916992,-28095542.907714844,-17522851.943969727,-21054962.158203125,-27058553.69567871,-31286111.83166504,-43077110.290527344,-11558619.499206543,-39305843.353271484,-29673431.396484375,-26933254.24194336,-25215370.178222656,-25796419.143676758,-21035106.658935547,-33008979.79736328,-64355773.92578125,-39969337.463378906,-29849327.087402344,-33523921.966552734,-32477298.736572266,-25406642.91381836,-7237654.685974121,-38915172.5769043,164311187.74414062,-39461257.93457031,-40707252.502441406,-40257152.55737305,-37015762.32910156,-37479267.12036133,-33600711.822509766,-32320640.563964844,-24797885.89477539,-30144464.49279785,-46942558.28857422,-40553794.860839844,-40079505.920410156,-40572349.548339844,-34015987.396240234,-40041202.545166016,-40010925.29296875,-39867637.634277344,-39785511.0168457,-40096298.21777344,-32631134.033203125,-40105003.356933594,-40104827.880859375
0.045,-25728883.743286133,-26281085.968017578,-28001968.383789062,-24618654.251098633,-30428915.02380371,-30308309.55505371,-29815477.37121582,-25458751.678466797,-23910135.26916504,-19487939.834594727,-22921260.833740234,-30140268.325805664,-40828327.17895508,-42362552.642822266,-13021760.940551758,-29751426.696777344,-26422414.779663086,-26666612.62512207,-17565834.045410156,-21484954.833984375,-28687948.22692871,-34117465.97290039,-46172546.38671875,-9972962.379455566,-36302196.50268555,-27776897.430419922,-25924304.962158203,-24986440.658569336,-26621698.3795166,-22398410.79711914,-33662216.18652344,-63479351.04370117,-38669452.66723633,-28965106.964111328,-31015310.287475586,-31186185.836791992,-25218540.19165039,-7847085.475921631,-38222850.79956055,173663192.74902344,-39913490.295410156,-39403156.28051758,-38878852.84423828,-36801689.14794922,-36956111.907958984,-32321304.321289062,-31234256.744384766,-23180856.704711914,-28725984.573364258,-47330127.71606445,-39199447.63183594,-38931648.25439453,-39156044.006347656,-31179927.825927734,-38856636.04736328,-38909214.01977539,-38920246.12426758,-38448757.17163086,-38796863.5559082,-29867782.592773438,-39057788.84887695,-39091922.760009766
0.05,-26683385.848999023,-29469572.067260742,-32309692.3828125,-27257812.5,-35650974.27368164,-32260086.059570312,-31560598.373413086,-28670610.427856445,-27133766.174316406,-23345247.268676758,-27688493.728637695,-35572689.056396484,-45734275.817871094,-49634033.203125,-14550660.133361816,-31680900.57373047,-29344896.31652832,-29516792.29736328,-20945062.6373291,-25637496.948242188,-32893009.185791016,-38182346.34399414,-51070583.34350586,-11318154.335021973,-37547328.94897461,-29910070.419311523,-28966409.68322754,-27102903.366088867,-29350408.55407715,-25016452.78930664,-35392795.56274414,-65992393.493652344,-39256332.39746094,-30984334.94567871,-31565748.21472168,-32627368.927001953,-27320281.982421875,-8805802.345275879,-38165767.669677734,194220397.94921875,-41524929.04663086,-40009441.37573242,-39602634.42993164,-39473426.818847656,-37876525.87890625,-32337528.228759766,-31262077.33154297,-21173181.533813477,-27385475.158691406,-48727592.46826172,-39798435.21118164,-39742954.25415039,-39773223.876953125,-28735988.61694336,-38203475.95214844,-38281547.54638672,-38378562.927246094,-38833076.47705078,-39451343.53637695,-27374528.884887695,-38503143.310546875,-38788856.506347656
0.055,-27293895.721435547,-31028993.606567383,-33888084.411621094,-31471807.4798584,-38476074.21875,-36485012.05444336,-36350135.803222656,-33203643.798828125,-31720176.696777344,-27507532.119750977,-30702322.006225586,-38954334.2590332,-47286506.65283203,-52530326.84326172,-18862623.21472168,-35951980.59082031,-33871192.932128906,-33985591.888427734,-24736764.907836914,-29555200.576782227,-36106086.73095703,-40755821.228027344,-53654220.58105469,-15416070.938110352,-41447521.2097168,-33691150.6652832,-32435993.194580078,-28595926.28479004,-31128578.186035156,-26729919.43359375,-37226459.50317383,-69482498.16894531,-39630924.224853516,-32442733.764648438,-33642246.24633789,-33780242.919921875,-28756813.049316406,-8952600.479125977,-38350910.18676758,200766433.7158203,-42612167.35839844,-40381813.049316406,-40097465.51513672,-40038082.122802734,-36674758.91113281,-31355089.18762207,-31270980.834960938,-20168415.069580078,-27178138.732910156,-49462162.017822266,-40180923.46191406,-40032485.96191406,-40194366.455078125,-27886840.8203125,-38306377.41088867,-38315441.1315918,-38297271.728515625,-38992523.193359375,-39841053.0090332,-26460054.397583008,-38553955.078125,-39085433.95996094
0.06,-28524444.580078125,-31789073.944091797,-34086864.47143555,-34938888.54980469,-38722232.818603516,-38240245.8190918,-40019954.681396484,-36435741.42456055,-34951549.5300293,-29754289.627075195,-31329080.58166504,-39288757.32421875,-47388648.986816406,-52513050.0793457,-21821416.8548584,-38809574.127197266,-36582271.575927734,-36764808.654785156,-26615837.09716797,-31003858.56628418,-37574138.64135742,-42980232.23876953,-55543720.24536133,-18357490.53955078,-43711002.349853516,-35728458.404541016,-33489780.42602539,-28156352.996826172,-31287683.486938477,-27449750.900268555,-39165012.35961914,-73153762.81738281,-39209442.138671875,-31267545.700073242,-33372093.200683594,-33419517.517089844,-28299186.70654297,-8548159.5993042,-38738994.59838867,191905685.4248047,-43676502.2277832,-40056037.90283203,-39569133.75854492,-36983825.68359375,-34001853.942871094,-29839090.34729004,-31046302.795410156,-20826524.73449707,-29026197.43347168,-50448909.759521484,-39755172.72949219,-39368526.458740234,-39852062.2253418,-30110620.498657227,-40290996.55151367,-40235179.90112305,-40005054.47387695,-38568454.74243164,-39361335.75439453,-28642652.51159668,-40431522.369384766,-41105369.567871094
0.065,-31183490.753173828,-34321006.774902344,-35933692.932128906,-36377140.045166016,-38970985.412597656,-36932876.58691406,-40440002.44140625,-37497901.916503906,-35928833.0078125,-30071367.263793945,-31428215.02685547,-38804626.46484375,-48842029.5715332,-54191967.01049805,-21431854.248046875,-39397903.44238281,-36794986.724853516,-37113971.71020508,-26279323.57788086,-30461652.755737305,-38093025.20751953,-45970325.4699707,-59084098.81591797,-17941038.131713867,-42542369.8425293,-35485988.61694336,-32887042.999267578,-27189075.469970703,-31001342.7734375,-27845584.869384766,-40956012.72583008,-76503318.7866211,-39912460.32714844,-29751564.025878906,-30096759.796142578,-32957000.732421875,-27371664.04724121,-8471507.07244873,-39318252.56347656,185841812.13378906,-45815704.345703125,-40984458.923339844,-40052494.049072266,-34189086.9140625,-33667839.05029297,-30224374.771118164,-31313552.856445312,-22314704.89501953,-32412734.985351562,-53113891.6015625,-40561378.479003906,-40078723.9074707,-40758975.982666016,-34959911.34643555,-44588966.369628906,-44548706.0546875,-44216629.02832031,-39523792.2668457,-40072963.71459961,-33470924.377441406,-44731456.7565918,-45418140.41137695
0.07,-33398712.158203125,-37362743.37768555,-38219379.42504883,-35289691.92504883,-38915649.4140625,-35360858.91723633,-38443702.697753906,-36369029.9987793,-34767074.58496094,-28711175.9185791,-30697818.756103516,-38037231.4453125,-49934173.583984375,-56870651.24511719,-19442089.080810547,-38633323.669433594,-35436607.360839844,-35802207.946777344,-24435432.43408203,-28823451.99584961,-37236190.79589844,-47478462.21923828,-61527584.075927734,-15731323.2421875,-39547958.37402344,-34330379.486083984,-32255355.834960938,-26881378.173828125,-30680538.177490234,-27519018.173217773,-41065193.17626953,-77229026.7944336,-41948055.267333984,-30193857.192993164,-27699306.48803711,-32911022.186279297,-27059803.009033203,-8595437.049865723,-39446041.107177734,189472946.1669922,-47413116.455078125,-43146827.697753906,-42007240.295410156,-34596439.361572266,-36018936.15722656,-32064609.52758789,-31741697.311401367,-22970874.786376953,-34783130.64575195,-55529739.37988281,-42797447.204589844,-42356105.80444336,-43000865.9362793,-38462295.53222656,-48501735.68725586,-48496646.881103516,-48257286.071777344,-41837566.37573242,-42241348.26660156,-37011482.23876953,-48754417.419433594,-49309059.143066406
0.075,-32145980.834960938,-36882904.052734375,-37441658.02001953,-31976921.08154297,-36806503.29589844,-34091316.22314453,-35309883.11767578,-33465221.405029297,-31996686.935424805,-26128786.087036133,-28077171.325683594,-36319278.717041016,-48118755.34057617,-56821067.810058594,-17401514.053344727,-36530906.677246094,-33210586.547851562,-33483688.354492188,-22381185.53161621,-26953929.901123047,-34888355.25512695,-45543216.705322266,-59310333.251953125,-13454927.444458008,-36869720.458984375,-32937694.549560547,-31632860.18371582,-26796033.85925293,-30058563.232421875,-26367645.263671875,-38672866.82128906,-74424530.02929688,-42209339.1418457,-30837915.420532227,-29900283.813476562,-32097667.694091797,-26834569.931030273,-8278195.381164551,-38627807.6171875,193079772.94921875,-45737869.26269531,-43244327.545166016,-42364349.365234375,-36240669.25048828,-37150619.50683594,-32090370.178222656,-31196416.8548584,-22103939.056396484,-33930217.74291992,-54320117.95043945,-43109863.28125,-42698966.97998047,-43209560.39428711,-36807544.70825195,-48239860.53466797,-48232055.6640625,-48178131.103515625,-42139373.779296875,-42592361.45019531,-35464427.94799805,-48579372.40600586,-48961196.89941406
0.08,-26312353.134155273,-31320402.145385742,-32964092.254638672,-27533124.923706055,-33573738.09814453,-30142559.051513672,-31186485.290527344,-29911067.962646484,-28638442.993164062,-23543918.60961914,-24895088.19580078,-34546047.21069336,-44874721.52709961,-54236236.572265625,-14141192.436218262,-32550430.297851562,-30646696.090698242,-30838281.631469727,-21437978.744506836,-26040014.266967773,-32917163.848876953,-42147048.95019531,-54419059.75341797,-10204361.915588379,-34968097.68676758,-31233585.357666016,-30673814.77355957,-26502388.00048828,-29586383.819580078,-25603767.39501953,-35300228.118896484,-70805465.69824219,-38699909.21020508,-28769447.326660156,-35907447.814941406,-30666847.229003906,-26341085.43395996,-7830227.851867676,-37238674.16381836,191376541.1376953,-41002162.93334961,-39447719.57397461,-38972808.837890625,-36279541.015625,-35302707.67211914,-29691154.47998047,-29991744.995117188,-20787904.739379883,-30563678.741455078,-49521839.1418457,-39384391.78466797,-38998687.744140625,-39406581.87866211,-31671564.10217285,-43682273.864746094,-43721481.32324219,-43747291.564941406,-38452018.73779297,-38971256.256103516,-30408916.473388672,-44022087.09716797,-44386634.826660156
0.085,-17337545.39489746,-22919076.919555664,-26856634.14001465,-22853517.532348633,-31267604.82788086,-21910097.122192383,-26082365.036010742,-26734279.63256836,-25533718.10913086,-21447214.126586914,-22823369.9798584,-33629764.556884766,-42792995.45288086,-52498958.587646484,-8415463.4475708,-27657516.479492188,-28482503.89099121,-28774772.64404297,-21346406.936645508,-26120426.177978516,-32518493.65234375,-40272964.47753906,-51723735.80932617,-4677584.648132324,-33283042.907714844,-29770193.099975586,-30123500.82397461,-26552379.608154297,-29695163.72680664,-25632923.126220703,-33032833.099365234,-68828964.23339844,-34097526.55029297,-24986013.412475586,-42037277.22167969,-30878072.73864746,-26306707.38220215,-8116494.178771973,-35887794.494628906,190673065.18554688,-36324985.50415039,-34761840.8203125,-34465488.43383789,-35751777.64892578,-33842380.52368164,-28576406.478881836,-29881750.106811523,-20575578.689575195,-27456178.665161133,-44692024.23095703,-34588359.83276367,-34286376.953125,-34643501.28173828,-28924676.8951416,-38913177.490234375,-39126453.3996582,-39003623.962402344,-33734138.48876953,-34167701.721191406,-27601823.806762695,-39198326.110839844,-39724266.052246094
0.09,-8593490.600585938,-15273531.913757324,-21056240.08178711,-18591190.338134766,-29783208.8470459,-12947901.725769043,-21415744.78149414,-24283237.45727539,-23035057.067871094,-19093217.849731445,-21156316.75720215,-32361835.479736328,-41287593.841552734,-52727611.54174805,-2163120.985031128,-24363004.684448242,-27236558.91418457,-27755054.473876953,-20511962.890625,-25594406.127929688,-32124382.01904297,-39941387.17651367,-52319068.908691406,1493441.4625167847,-31880788.803100586,-29404865.264892578,-30637325.286865234,-27202863.693237305,-29568588.256835938,-24888992.309570312,-32247753.143310547,-67856666.5649414,-32301795.959472656,-23300828.93371582,-46055049.896240234,-33480587.005615234,-27044189.453125,-8948106.76574707,-34884700.775146484,193986709.59472656,-34112037.658691406,-33126129.150390625,-32862594.604492188,-37303657.53173828,-35723621.3684082,-31042999.267578125,-31244201.66015625,-21717796.325683594,-26570676.803588867,-42626377.10571289,-32944408.416748047,-32709312.438964844,-33068347.930908203,-30986827.850341797,-37329189.30053711,-37684486.389160156,-37307853.69873047,-32060424.8046875,-32336177.825927734,-29483255.38635254,-37503772.7355957,-38149372.10083008
0.095,-4499122.142791748,-11620633.125305176,-17565492.630004883,-16259965.896606445,-28576103.21044922,-8916668.891906738,-19504068.37463379,-23041149.139404297,-21800577.16369629,-16870815.27709961,-19202695.846557617,-29991683.959960938,-39123294.830322266,-53567134.857177734,875272.6912498474,-24335884.09423828,-26881778.717041016,-27504302.978515625,-18762834.548950195,-23862134.93347168,-30408433.91418457,-39861408.23364258,-53699813.84277344,4707623.00491333,-31508230.209350586,-29864753.72314453,-31338342.666625977,-27565576.553344727,-28359735.4888916,-22601764.678955078,-32305690.76538086,-67192451.47705078,-32987888.33618164,-24748786.92626953,-47940643.310546875,-35632274.62768555,-27555438.995361328,-9134064.674377441,-34676921.84448242,194393478.3935547,-34152511.59667969,-33945171.35620117,-33850490.57006836,-40030559.53979492,-38248115.53955078,-33714004.51660156,-31975202.560424805,-22931350.708007812,-27698505.401611328,-43043083.19091797,-33958305.35888672,-33698345.18432617,-34116268.157958984,-33324047.088623047,-37936904.90722656,-38152290.34423828,-37725307.46459961,-32946697.235107422,-33209922.790527344,-31677366.256713867,-37922168.73168945,-38482650.75683594
0.1,-7241568.088531494,-13447729.110717773,-18601078.033447266,-17283800.12512207,-28982440.948486328,-11288835.525512695,-21036994.93408203,-23671169.28100586,-22550949.096679688,-16802505.493164062,-18660211.56311035,-28641750.33569336,-38022342.681884766,-54720684.05151367,-538031.4588546753,-26588497.161865234,-27148656.845092773,-27636768.341064453,-18010408.401489258,-22728738.78479004,-29037809.371948242,-40443737.0300293,-54689647.67456055,3523948.907852173,-32228843.688964844,-30122253.41796875,-31017992.01965332,-26829669.952392578,-26832054.138183594,-20737895.965576172,-33079414.36767578,-68272087.09716797,-32484359.741210938,-26188322.067260742,-47476497.650146484,-34484527.587890625,-26937341.690063477,-8223227.500915527,-35614002.2277832,187798095.703125,-34950817.1081543,-33376972.198486328,-33530612.94555664,-40173404.693603516,-36792575.83618164,-32058742.52319336,-30201086.044311523,-22686546.325683594,-29152601.24206543,-44113246.91772461,-33496578.216552734,-33223751.068115234,-33690696.716308594,-30705841.064453125,-37502971.64916992,-37340023.040771484,-37190021.51489258,-32459697.723388672,-32917274.475097656,-29108013.153076172,-37305473.32763672,-37704677.58178711
0.105,-12826899.528503418,-18072006.225585938,-23058549.880981445,-19995540.618896484,-31221822.73864746,-15505416.870117188,-23523519.51599121,-25214891.43371582,-24170080.184936523,-18823291.778564453,-20289022.44567871,-29849399.56665039,-39499370.57495117,-56613365.173339844,-3446949.243545532,-28359352.111816406,-27607257.843017578,-27912679.67224121,-18994979.858398438,-23418638.229370117,-29744630.813598633,-42218734.74121094,-56137908.935546875,640156.1498641968,-32821743.01147461,-30069568.634033203,-29996809.005737305,-25553346.633911133,-26307880.401611328,-21174415.588378906,-34397567.74902344,-71545654.296875,-29651981.353759766,-24992378.23486328,-43820873.26049805,-31387725.830078125,-25785699.84436035,-7159049.034118652,-36929145.81298828,180904129.0283203,-35676933.28857422,-30424982.07092285,-30555519.104003906,-36810783.38623047,-32117031.09741211,-27412216.186523438,-27101333.618164062,-20768980.026245117,-29214887.619018555,-44566062.927246094,-30354269.02770996,-30178100.5859375,-30583934.783935547,-24931581.497192383,-35153064.7277832,-34726329.8034668,-34887321.47216797,-29456947.326660156,-30118927.001953125,-23555953.979492188,-34919090.270996094,-35315979.00390625
0.11,-13673930.168151855,-19624162.673950195,-25387723.922729492,-19981523.513793945,-31782796.85974121,-15657452.583312988,-23235855.102539062,-24848091.12548828,-23715221.405029297,-19314422.607421875,-21004957.19909668,-30981218.338012695,-40732814.78881836,-57801872.25341797,-3492849.111557007,-27504802.703857422,-27321916.580200195,-27642267.22717285,-19540746.688842773,-24155250.549316406,-30888874.053955078,-43440071.10595703,-57737655.63964844,440894.0076828003,-31697982.788085938,-30066843.032836914,-29254844.665527344,-24957128.524780273,-26698371.88720703,-22743247.985839844,-35224292.75512695,-74421913.14697266,-27550079.345703125,-22207145.69091797,-37594440.46020508,-30044662.475585938,-25358339.309692383,-6937605.857849121,-37234123.22998047,180927032.47070312,-36565044.40307617,-28344213.485717773,-28071760.177612305,-33463485.717773438,-29854768.753051758,-25729698.181152344,-25765806.198120117,-18810106.27746582,-27718469.619750977,-44340732.57446289,-28031635.284423828,-27932964.324951172,-28189050.674438477,-22919942.85583496,-33362922.66845703,-33002670.288085938,-33130958.557128906,-27233777.99987793,-27879112.243652344,-21719806.671142578,-33221775.05493164,-33807708.740234375
0.115,-7574823.85635376,-15498371.124267578,-21956233.978271484,-15380582.809448242,-28005407.333374023,-10385294.914245605,-19121049.880981445,-21212089.53857422,-19953582.763671875,-16071052.551269531,-18155284.881591797,-28846239.08996582,-38219749.450683594,-56553833.0078125,823879.0035247803,-24094453.811645508,-25331687.927246094,-25826841.354370117,-17887903.213500977,-22920541.763305664,-29980180.740356445,-42387119.29321289,-57970966.33911133,4653311.252593994,-28297132.49206543,-29054525.37536621,-28354858.3984375,-25300708.770751953,-26954706.1920166,-23207160.94970703,-34878105.16357422,-75101593.01757812,-28486040.115356445,-19963018.4173584,-31127944.946289062,-31077123.641967773,-25826002.12097168,-7404098.987579346,-36332817.07763672,184847061.15722656,-38165008.544921875,-29395715.713500977,-28664651.87072754,-32964641.571044922,-32418815.61279297,-29322929.38232422,-27429353.713989258,-18902891.159057617,-26620412.826538086,-44410430.908203125,-29131961.822509766,-28936628.341674805,-29110097.885131836,-27482295.989990234,-34636100.76904297,-34479839.32495117,-34291122.43652344,-28230928.421020508,-28649393.08166504,-26200973.510742188,-34556762.6953125,-35334075.927734375
0.12,-1229786.3960266113,-10201101.303100586,-16583019.256591797,-10013161.659240723,-23171693.801879883,-3988612.651824951,-14310611.724853516,-16870903.01513672,-15638537.406921387,-12262937.545776367,-14384465.217590332,-25085571.2890625,-33760238.64746094,-54339054.107666016,6378151.416778564,-20507713.317871094,-22214691.162109375,-22780469.89440918,-15766991.61529541,-20827283.85925293,-27806362.15209961,-40422519.68383789,-57062984.466552734,10241953.84979248,-24125032.424926758,-25887121.200561523,-26346618.65234375,-25722249.98474121,-26745433.807373047,-22533823.013305664,-34101116.18041992,-75571731.56738281,-30609086.990356445,-18650175.094604492,-26424993.51501465,-31438230.514526367,-26227403.64074707,-7774372.100830078,-35198654.17480469,185260009.765625,-40342529.296875,-31533145.904541016,-30627559.661865234,-33782909.39331055,-35499095.91674805,-33624065.39916992,-29972702.026367188,-21139253.616333008,-27884679.794311523,-45781215.66772461,-31542684.55505371,-31206579.208374023,-31443195.343017578,-33714839.935302734,-38434734.34448242,-38324707.03125,-37948619.8425293,-30469085.693359375,-30688972.47314453,-32172710.418701172,-38344455.71899414,-39135913.84887695
0.125,-1739448.3089447021,-9753770.82824707,-15639448.165893555,-8791588.78326416,-22459907.53173828,-1853997.1113204956,-12836541.175842285,-15415233.612060547,-14324522.018432617,-12016215.324401855,-13972300.52947998,-23868856.43005371,-32152450.561523438,-54200260.162353516,8214545.249938965,-19689365.38696289,-20318243.0267334,-20732397.079467773,-15730056.762695312,-20150531.768798828,-26821075.439453125,-39835197.44873047,-56865371.70410156,12101817.13104248,-22121654.510498047,-22685640.335083008,-24426748.275756836,-25499025.344848633,-26326150.89416504,-21928636.55090332,-33612529.75463867,-77691833.49609375,-31055614.471435547,-18158205.032348633,-24091285.705566406,-29419399.26147461,-25900785.446166992,-7734662.055969238,-33864566.802978516,181490753.17382812,-41827411.65161133,-31843967.43774414,-31008529.663085938,-33031230.926513672,-34253726.959228516,-33451759.338378906,-30376548.767089844,-22827169.41833496,-30137580.87158203,-47687160.49194336,-32004669.189453125,-31740409.85107422,-32045330.047607422,-35476272.58300781,-41576103.21044922,-41360256.19506836,-41083019.2565918,-30909490.58532715,-31139919.28100586,-33821014.404296875,-41550765.99121094,-42172470.09277344
0.13,-7201978.2066345215,-13798168.182373047,-19289318.084716797,-11425934.791564941,-25382131.576538086,-5018536.09085083,-15057034.492492676,-16810144.424438477,-15771012.306213379,-14068923.950195312,-16130084.991455078,-25494436.264038086,-34059375.76293945,-56088336.94458008,4813205.242156982,-22305734.634399414,-21133338.928222656,-21357671.7376709,-16915515.899658203,-20456031.799316406,-26913475.036621094,-40090179.443359375,-57653537.75024414,8597000.122070312,-23818767.547607422,-23243225.09765625,-24950120.92590332,-24743909.83581543,-25450742.721557617,-21117115.020751953,-32663639.068603516,-79044395.44677734,-30129400.2532959,-19291599.27368164,-23807905.197143555,-27121818.54248047,-25095483.779907227,-7516386.032104492,-31223518.37158203,177634323.1201172,-41254444.12231445,-30794105.529785156,-29987096.786499023,-30722942.352294922,-29812059.40246582,-29517751.693725586,-27959316.25366211,-21239095.68786621,-29242341.995239258,-47596557.6171875,-30845952.9876709,-30835775.37536621,-31024703.979492188,-32523101.806640625,-41294536.59057617,-41041591.64428711,-40839572.90649414,-29868904.11376953,-30257352.828979492,-31075860.97717285,-41481281.28051758,-41891750.33569336
0.135,-10209353.44696045,-17009757.99560547,-22260858.5357666,-13522948.265075684,-27123096.466064453,-9441068.649291992,-17383529.663085938,-17852085.11352539,-16718891.143798828,-14040822.02911377,-16677555.084228516,-26670341.49169922,-35863170.6237793,-57242698.669433594,193109.97426509857,-25438331.604003906,-22846940.994262695,-23068332.67211914,-16445186.614990234,-19731489.181518555,-26377952.575683594,-39389446.25854492,-57782341.00341797,3863557.1002960205,-26794841.766357422,-26722682.95288086,-27193742.752075195,-23798133.850097656,-23954769.134521484,-19450609.20715332,-30684766.76940918,-76488647.4609375,-29976402.282714844,-21613420.486450195,-24074890.13671875,-26507598.876953125,-24157135.009765625,-7263538.837432861,-27789064.407348633,173106201.171875,-38950199.127197266,-30671701.431274414,-29712594.985961914,-28711019.51599121,-26741312.02697754,-26359064.10217285,-24688577.65197754,-17048944.4732666,-23709445.95336914,-44307041.16821289,-30524824.142456055,-30653932.571411133,-30585239.41040039,-29143753.051757812,-37822120.666503906,-37666381.8359375,-37268150.329589844,-29631658.55407715,-30149904.251098633,-28003162.384033203,-38207874.2980957,-38523143.76831055
0.14,-8572669.02923584,-16982887.268066406,-22020606.994628906,-12845402.717590332,-26114257.8125,-10457509.04083252,-16660945.892333984,-16777935.028076172,-15590087.890625,-11457614.89868164,-14935688.018798828,-26146673.20251465,-35641357.421875,-56639881.1340332,-350864.85743522644,-25325248.71826172,-22193300.247192383,-22582813.262939453,-14020318.984985352,-18127210.61706543,-25651178.35998535,-38240814.208984375,-56408817.291259766,3338420.1526641846,-26678068.161010742,-27185056.686401367,-27241336.822509766,-22686508.178710938,-22771839.141845703,-18341890.335083008,-28974863.052368164,-71669563.29345703,-30684427.26135254,-22189582.82470703,-22532724.380493164,-26107833.862304688,-23007394.790649414,-6916977.405548096,-26418157.57751465,164354049.6826172,-36821079.25415039,-31502325.0579834,-30359067.916870117,-27405055.99975586,-26485383.987426758,-26067564.010620117,-22780645.3704834,-13733264.923095703,-17777452.46887207,-40088905.334472656,-31241765.97595215,-31266500.47302246,-31081209.182739258,-27934318.54248047,-33977878.57055664,-33899314.880371094,-33273845.672607422,-30349330.90209961,-30904369.354248047,-26872404.098510742,-34400085.44921875,-34777683.25805664
0.145,-7106019.020080566,-16267095.565795898,-21072078.704833984,-11363183.975219727,-25177106.857299805,-7439935.684204102,-13740062.713623047,-15144992.82836914,-14090686.798095703,-9991225.242614746,-13998132.705688477,-25668823.2421875,-34724784.85107422,-55747470.85571289,3811990.49949646,-21951116.56188965,-19033746.71936035,-19570240.020751953,-12178146.362304688,-17439805.98449707,-26279619.216918945,-38105957.03125,-54354995.72753906,7575089.931488037,-22625743.865966797,-22284957.885742188,-23841413.497924805,-21573917.388916016,-22790513.99230957,-19434455.87158203,-28816890.716552734,-68974403.38134766,-30427568.435668945,-19312704.08630371,-18844053.268432617,-24094333.64868164,-21813461.303710938,-6593339.443206787,-28499971.389770508,155138580.32226562,-35997646.33178711,-31295925.14038086,-30158140.182495117,-26181375.50354004,-26789621.353149414,-26990369.79675293,-22650772.094726562,-13409071.922302246,-16849735.260009766,-38164131.16455078,-31018331.52770996,-30895278.930664062,-30931491.85180664,-27816329.956054688,-32300594.329833984,-32181152.34375,-31664012.908935547,-30154357.91015625,-30701244.354248047,-26597686.767578125,-32685153.96118164,-33187480.926513672
0.15,-9010278.701782227,-16855390.548706055,-21269742.965698242,-11141347.885131836,-25407846.450805664,-3690994.5011138916,-11794837.951660156,-14797922.134399414,-13959482.192993164,-11012182.235717773,-14526247.024536133,-25410276.412963867,-33463340.759277344,-55132381.439208984,8228147.506713867,-19261892.318725586,-17053823.471069336,-17598136.90185547,-12165008.544921875,-17455158.233642578,-26876821.517944336,-37796253.2043457,-52410354.61425781,11915745.735168457,-18989942.55065918,-18172883.987426758,-21355585.0982666,-21173318.86291504,-23180732.72705078,-21024105.072021484,-28944780.349731445,-69500404.35791016,-28971670.150756836,-15982503.890991211,-16558036.804199219,-22280675.888061523,-21408981.323242188,-6591729.640960693,-31206043.243408203,155381408.69140625,-35689075.4699707,-29770572.662353516,-28873270.03479004,-25883707.04650879,-26515790.939331055,-27581874.84741211,-23220439.910888672,-14748125.076293945,-20912786.48376465,-38868999.48120117,-29533010.482788086,-29415725.708007812,-29848039.627075195,-27383077.62145996,-32848175.048828125,-32651954.650878906,-32506553.649902344,-28773414.611816406,-29287315.368652344,-26028984.06982422,-33258434.295654297,-33847400.6652832
0.155,-11195762.634277344,-17310232.162475586,-21035299.30114746,-11381202.697753906,-24416582.107543945,-2202689.6476745605,-11916381.8359375,-15169662.475585938,-14426741.600036621,-11679287.910461426,-13672905.921936035,-23268886.56616211,-30426155.09033203,-53888622.28393555,8979845.04699707,-19818330.764770508,-18661371.2310791,-19120981.216430664,-12500253.677368164,-16293653.48815918,-24578813.552856445,-35368492.126464844,-51034561.15722656,12387489.318847656,-19617889.404296875,-20909740.447998047,-23826026.916503906,-22050138.473510742,-22685493.46923828,-19942865.3717041,-27463356.018066406,-70786537.17041016,-28319160.46142578,-16327966.690063477,-19095687.866210938,-23688776.01623535,-22377311.70654297,-6962677.955627441,-31099092.483520508,166797225.95214844,-35011585.2355957,-29045415.8782959,-28459186.553955078,-27949600.219726562,-27268556.594848633,-28519668.579101562,-23753364.56298828,-15731645.584106445,-25154823.303222656,-40166053.771972656,-28885814.666748047,-28864494.32373047,-29486463.54675293,-27322029.11376953,-34069545.74584961,-33843631.744384766,-33933395.38574219,-28212612.15209961,-28653192.5201416,-25971658.70666504,-34486968.994140625,-35124504.08935547
0.16,-9950478.553771973,-16297182.083129883,-19266908.645629883,-10494177.81829834,-21490791.32080078,-2715979.57611084,-12115692.138671875,-14709872.245788574,-13899158.477783203,-10229385.375976562,-10813713.073730469,-19495532.989501953,-26430030.822753906,-52477165.22216797,6771999.359130859,-21439260.482788086,-21331022.262573242,-21713306.427001953,-12045027.732849121,-14228553.771972656,-20428302.764892578,-32655887.603759766,-51333545.68481445,9851149.559020996,-22672122.955322266,-26811361.31286621,-28686798.095703125,-23673900.604248047,-22008499.145507812,-16722759.246826172,-25326515.197753906,-71622230.52978516,-29600439.071655273,-19652618.408203125,-24552944.18334961,-27421710.968017578,-24052947.998046875,-7345860.004425049,-29093093.872070312,177284606.93359375,-34595539.09301758,-30361598.96850586,-29952098.846435547,-31518655.77697754,-29941848.754882812,-30583251.953125,-24615566.25366211,-16498577.117919922,-26394279.47998047,-41117168.42651367,-30272314.071655273,-30289478.302001953,-30720726.013183594,-28824731.826782227,-35088237.76245117,-34849292.75512695,-34881790.16113281,-29583814.62097168,-29976711.27319336,-27482069.01550293,-35342681.884765625,-36009784.69848633
0.165,-6610617.637634277,-14958896.63696289,-17492052.07824707,-8850487.70904541,-19453817.36755371,-3080878.496170044,-10831446.647644043,-13539925.575256348,-12593152.046203613,-8861478.805541992,-9264956.4743042,-17549856.185913086,-24751670.837402344,-52606803.89404297,4797824.382781982,-21056632.99560547,-21313608.169555664,-21671733.856201172,-11871174.812316895,-13786954.879760742,-18916358.947753906,-33388015.747070312,-53835079.193115234,7666768.0740356445,-23799406.051635742,-27830869.674682617,-30445655.822753906,-24878423.6907959,-22932600.021362305,-15326807.975769043,-25118408.203125,-73125587.4633789,-31423116.68395996,-21507337.57019043,-27937444.68688965,-29665477.752685547,-25213352.20336914,-7378592.967987061,-29115278.244018555,175641174.31640625,-35267051.696777344,-32287715.911865234,-31871049.880981445,-34137332.916259766,-32904766.082763672,-32881366.729736328,-26262525.55847168,-18033021.926879883,-25969915.39001465,-42441360.47363281,-32219764.709472656,-32228450.775146484,-32311565.399169922,-31397809.982299805,-36066928.86352539,-35807514.19067383,-35719097.13745117,-31436786.651611328,-31920640.94543457,-29974920.27282715,-36086257.93457031,-36685791.015625
0.17,-4339276.313781738,-13916797.637939453,-16251403.80859375,-7806971.549987793,-19487689.971923828,-2028657.6747894287,-9321274.757385254,-13047333.717346191,-11955186.84387207,-9490282.05871582,-10535952.5680542,-18692687.98828125,-25846225.73852539,-53415443.420410156,4764745.235443115,-19533653.259277344,-19159770.965576172,-19531135.55908203,-12935247.421264648,-15399254.79888916,-21206834.79309082,-36658199.310302734,-56190948.486328125,7551024.913787842,-22397251.12915039,-23954780.57861328,-28765815.73486328,-25048149.10888672,-25032081.604003906,-17100353.240966797,-26521043.77746582,-74707237.24365234,-31547723.7701416,-19901895.52307129,-27931888.580322266,-29096775.05493164,-25361000.061035156,-7059475.421905518,-32078773.498535156,165057098.38867188,-35870941.162109375,-32456348.419189453,-31986492.156982422,-34773822.78442383,-34262115.478515625,-33891384.12475586,-27908348.083496094,-19432044.982910156,-25865358.352661133,-43537288.665771484,-32403820.037841797,-32446601.86767578,-32362220.764160156,-32972629.54711914,-36376552.58178711,-36143978.118896484,-36080730.43823242,-31507644.653320312,-32194412.231445312,-31504480.361938477,-36341030.12084961,-36706935.88256836
0.175,-3009050.8460998535,-11694849.014282227,-13799730.30090332,-7602537.155151367,-18916185.37902832,61836.79774403572,-9418154.7164917,-13595115.661621094,-12375578.880310059,-10399056.434631348,-11537699.699401855,-19845832.82470703,-26279975.89111328,-51909603.118896484,6316907.4058532715,-19572681.427001953,-18357013.702392578,-18736625.67138672,-14050610.542297363,-16325765.609741211,-23240514.755249023,-37289905.5480957,-55287391.662597656,9035002.708435059,-21148759.841918945,-22375329.971313477,-28033138.275146484,-24381759.643554688,-25692039.489746094,-18836414.337158203,-26440387.725830078,-73590644.83642578,-29227380.752563477,-17117744.44580078,-27511573.791503906,-27869174.95727539,-24754810.333251953,-6641606.330871582,-34514476.77612305,156463851.92871094,-34486568.450927734,-30072940.826416016,-29661132.8125,-34069633.48388672,-33901691.43676758,-33184200.286865234,-28136976.24206543,-19075458.526611328,-25628612.518310547,-42325164.794921875,-30090602.87475586,-30188444.137573242,-30181459.426879883,-32061199.188232422,-34677616.119384766,-34535583.49609375,-34577117.919921875,-29110927.58178711,-29920682.907104492,-30699787.139892578,-34782730.10253906,-34894180.29785156
0.18,-902568.2806968689,-8298371.315002441,-10441539.764404297,-7481345.176696777,-16397388.458251953,2263144.9699401855,-10274949.073791504,-13941597.938537598,-12718755.722045898,-9400365.829467773,-9871232.032775879,-18803701.400756836,-24671934.127807617,-48397827.1484375,8702694.8928833,-20356166.83959961,-19278848.64807129,-19630071.64001465,-13538314.819335938,-15029671.669006348,-22224430.084228516,-33820808.41064453,-52004180.908203125,11259652.137756348,-20568101.88293457,-24946218.490600586,-29558368.682861328,-23236680.98449707,-24052251.8157959,-18268280.029296875,-24191705.70373535,-69483917.23632812,-25687763.214111328,-15489998.817443848,-27929292.678833008,-27366020.20263672,-23614444.732666016,-6331695.079803467,-33869709.01489258,154253173.828125,-31464227.6763916,-26450498.580932617,-26188220.977783203,-32294845.581054688,-32709480.28564453,-31695434.5703125,-26964649.200439453,-17926441.192626953,-24648866.653442383,-39035232.54394531,-26534534.454345703,-26618558.883666992,-26729999.542236328,-29598138.8092041,-31611362.45727539,-31539516.44897461,-31614883.422851562,-25567247.39074707,-26288026.809692383,-28384717.94128418,-31799118.041992188,-31906347.274780273
0.185,1031200.0513076782,-6871124.744415283,-9774421.691894531,-6889627.933502197,-14810180.6640625,3832563.1618499756,-9377374.649047852,-12864027.02331543,-11853703.498840332,-7363651.275634766,-7728170.394897461,-17656236.64855957,-24195314.407348633,-47220729.82788086,10791769.027709961,-18467245.10192871,-18508625.030517578,-18815170.288085938,-11523230.55267334,-13516909.5993042,-20712579.72717285,-31048625.946044922,-50539608.001708984,13054964.065551758,-18679021.83532715,-25329675.674438477,-29787599.563598633,-21985485.076904297,-22615737.915039062,-17712524.4140625,-22984521.865844727,-66055198.669433594,-23292949.676513672,-15018628.120422363,-26908195.49560547,-26622642.517089844,-22223144.53125,-6198193.073272705,-32148696.899414062,155523208.61816406,-29311233.520507812,-24067119.598388672,-23861621.856689453,-29648866.653442383,-31559354.782104492,-31022386.55090332,-26350484.84802246,-18923795.700073242,-24537677.764892578,-37225173.95019531,-24089254.37927246,-24092920.303344727,-24227901.458740234,-28423988.342285156,-30407400.131225586,-30329238.891601562,-30352556.228637695,-23273363.11340332,-23771015.167236328,-27194225.311279297,-30495338.439941406,-30892972.946166992
0.19,502941.6084289551,-9135787.010192871,-13019011.497497559,-5829355.239868164,-16196794.509887695,4085285.6636047363,-6685588.359832764,-10758562.088012695,-10032713.890075684,-6209106.4453125,-7702063.56048584,-18566505.432128906,-26877466.201782227,-50275894.16503906,10623529.434204102,-14274797.439575195,-15014186.85913086,-15317645.072937012,-9458129.8828125,-13781522.750854492,-21772235.870361328,-32561542.510986328,-52389457.70263672,12496724.128723145,-16277906.41784668,-20757711.41052246,-27330427.169799805,-21446231.842041016,-23695737.838745117,-19857603.073120117,-24806861.877441406,-66332000.732421875,-24173170.08972168,-15779378.890991211,-24117914.1998291,-25649377.822875977,-21581394.19555664,-6297661.781311035,-32673480.987548828,159159317.01660156,-29367746.353149414,-25068639.755249023,-24713592.529296875,-28204456.329345703,-31578371.047973633,-32350147.247314453,-27942607.879638672,-22753849.029541016,-26913290.02380371,-39324771.881103516,-24894680.02319336,-24839836.12060547,-24992235.18371582,-30339796.06628418,-33171676.635742188,-33069561.004638672,-33018993.377685547,-24287370.681762695,-24592777.252197266,-28888151.168823242,-33152931.213378906,-33854629.51660156
0.195,-1642829.6566009521,-11802908.897399902,-15786862.37335205,-4592127.799987793,-17600442.88635254,2938313.4841918945,-5220997.333526611,-9212682.723999023,-8544639.587402344,-5566116.3330078125,-8188623.428344727,-19598320.00732422,-29443939.208984375,-53457580.56640625,7390151.9775390625,-12549448.96697998,-12718571.662902832,-13074957.847595215,-8228769.302368164,-14516820.907592773,-23679523.468017578,-35269550.32348633,-54190856.93359375,8847684.860229492,-17206655.502319336,-17751106.26220703,-26059221.267700195,-22263328.552246094,-25954912.185668945,-22804964.065551758,-26898561.477661133,-68854461.66992188,-28104293.823242188,-18730703.353881836,-23217670.440673828,-26427545.54748535,-22542491.912841797,-6693941.593170166,-35133903.50341797,165858184.81445312,-29977416.9921875,-29136655.807495117,-28558399.200439453,-30132223.12927246,-33342456.817626953,-34960636.138916016,-30629863.739013672,-26376705.169677734,-30229591.369628906,-42955020.904541016,-28769189.834594727,-28723464.965820312,-28986812.591552734,-33448711.395263672,-37526168.82324219,-37431182.861328125,-37330917.35839844,-28266391.75415039,-28493606.567382812,-31720071.79260254,-37545555.114746094,-38308956.146240234
0.2,-1661156.8927764893,-10537337.303161621,-13813120.84197998,-3513213.1576538086,-15446223.258972168,2069850.9216308594,-6456093.788146973,-9024132.72857666,-8114956.855773926,-3887552.9766082764,-6357357.978820801,-17884933.471679688,-28069160.46142578,-52414505.00488281,4064975.7385253906,-14945067.405700684,-14454834.938049316,-14860939.979553223,-7594467.1630859375,-13465349.197387695,-22903211.59362793,-34659412.3840332,-52957164.7644043,5143138.885498047,-21492097.854614258,-21239761.352539062,-28407543.182373047,-23591283.798217773,-26350652.69470215,-22778255.462646484,-25795103.073120117,-70190208.4350586,-31746713.638305664,-22528438.568115234,-25590745.92590332,-29090494.15588379,-24128475.189208984,-7312979.698181152,-36403953.552246094,171165161.1328125,-28863430.02319336,-32811199.188232422,-32202541.35131836,-33781597.13745117,-35383899.6887207,-36350074.768066406,-31623748.779296875,-26947450.637817383,-31351758.95690918,-43868144.98901367,-32371425.62866211,-32377071.380615234,-32768451.690673828,-33903724.670410156,-39000839.23339844,-38880889.892578125,-38801311.49291992,-31821205.139160156,-32092144.012451172,-32009540.557861328,-39075016.021728516,-39728645.32470703
0.205,1880872.130393982,-6040478.229522705,-9236902.236938477,-2577866.315841675,-11393436.431884766,3906159.1625213623,-7500850.677490234,-9177016.258239746,-8011713.027954102,-1579623.2223510742,-3297138.452529907,-14554229.736328125,-24291379.928588867,-48792812.34741211,5057694.435119629,-16413793.563842773,-17005519.86694336,-17407497.40600586,-7023136.138916016,-11125347.137451172,-19906154.63256836,-31817647.93395996,-50373291.015625,5851517.677307129,-23302951.81274414,-25587646.484375,-30596096.03881836,-23578985.2142334,-24406330.108642578,-19997344.970703125,-22589105.6060791,-69303993.22509766,-31702636.71875,-23255353.927612305,-26736877.44140625,-30533258.43811035,-24152236.938476562,-7842503.547668457,-35298690.79589844,168377273.5595703,-26306928.634643555,-32650226.593017578,-32316356.658935547,-34963504.791259766,-35421283.72192383,-35050361.63330078,-30002285.00366211,-25293727.87475586,-29562679.290771484,-41297801.97143555,-32273094.177246094,-32325389.862060547,-32753448.486328125,-30893531.799316406,-36382827.75878906,-36161254.8828125,-36179630.279541016,-31637298.583984375,-32056705.474853516,-29005270.00427246,-36359062.19482422,-36958950.04272461
0.21,5683734.41696167,-3239144.3252563477,-7578987.598419189,-1413884.6397399902,-10085813.522338867,8476726.531982422,-5087654.113769531,-8334241.86706543,-7186801.910400391,-703554.8686981201,-2619654.893875122,-13204911.231994629,-22688364.028930664,-47337631.22558594,10575169.563293457,-12400774.002075195,-15783650.398254395,-16165826.797485352,-6464217.662811279,-9942699.432373047,-18368886.947631836,-31168325.424194336,-49646800.99487305,11270117.75970459,-18861370.086669922,-23255256.65283203,-28585224.151611328,-21848833.084106445,-22637260.43701172,-18368070.602416992,-21307209.014892578,-67570793.15185547,-28413703.91845703,-19529575.34790039,-22759849.548339844,-28942178.72619629,-22181283.950805664,-7894894.599914551,-34049964.904785156,159531021.11816406,-24692352.294921875,-29190322.875976562,-29260448.455810547,-32749298.095703125,-33507949.829101562,-32793247.22290039,-27970602.03552246,-24084718.704223633,-26999876.022338867,-38142635.345458984,-28967290.8782959,-29005311.965942383,-29435022.354125977,-28000482.5592041,-32712593.07861328,-32417907.71484375,-32478031.158447266,-28309284.210205078,-28883899.688720703,-26236236.572265625,-32541137.6953125,-33170860.290527344
0.215,5390081.882476807,-5256546.0205078125,-10452139.854431152,-386878.6692619324,-12719484.329223633,12282814.979553223,-884188.5328292847,-7111835.00289917,-6202887.535095215,-2173878.6697387695,-5181319.713592529,-14816398.620605469,-24565742.49267578,-49032623.291015625,15598383.903503418,-6196581.840515137,-12099117.279052734,-12513229.370117188,-6510121.3455200195,-10880730.628967285,-19747583.389282227,-33499004.364013672,-50679759.97924805,16445863.723754883,-12458330.154418945,-17090059.280395508,-25052824.020385742,-20399806.97631836,-22985578.536987305,-19754383.087158203,-23168581.008911133,-66144073.486328125,-25409725.189208984,-15239662.170410156,-17070501.32751465,-26903760.91003418,-20523971.557617188,-7340320.110321045,-34714225.76904297,154647689.81933594,-25230348.587036133,-26133214.950561523,-26460937.5,-30787881.85119629,-31992155.075073242,-32183506.01196289,-27854766.845703125,-23923210.14404297,-25503591.537475586,-36625236.51123047,-26079067.23022461,-25992475.509643555,-26508647.918701172,-28020742.416381836,-30815061.569213867,-30595815.658569336,-30482088.088989258,-25423423.767089844,-25999031.06689453,-26379310.607910156,-30672172.54638672,-31237365.72265625
0.22,214285.09056568146,-10745002.746582031,-14921138.763427734,-1145642.876625061,-16396137.237548828,11841423.988342285,198219.895362854,-7708402.156829834,-6995008.945465088,-4997410.297393799,-8459851.264953613,-17306444.16809082,-27560533.52355957,-51046386.71875,15777667.045593262,-4679208.278656006,-11327692.031860352,-11820058.822631836,-7863523.960113525,-12776236.534118652,-22018093.10913086,-35789291.38183594,-51423400.87890625,16936855.31616211,-10541712.760925293,-15908265.113830566,-25416416.16821289,-20990554.809570312,-24600059.509277344,-21873264.31274414,-25621072.76916504,-65400733.947753906,-24615945.81604004,-14691148.75793457,-15913758.277893066,-27337984.085083008,-21158454.89501953,-6452608.585357666,-36130985.260009766,157334442.13867188,-26443019.86694336,-25471078.872680664,-25820281.982421875,-31553632.736206055,-31784301.7578125,-32707942.962646484,-28951803.20739746,-23273756.02722168,-25163923.263549805,-36364868.1640625,-25475776.67236328,-25200746.536254883,-25846797.943115234,-28510047.912597656,-30138380.05065918,-30077095.03173828,-29673080.444335938,-24781608.58154297,-25175622.940063477,-26898920.0592041,-30180385.58959961,-30505273.818969727
0.225,-6484376.907348633,-16374303.817749023,-18406524.658203125,-4490789.890289307,-18595216.751098633,7994284.629821777,-3150794.744491577,-10636981.964111328,-9965450.286865234,-7592597.484588623,-10292255.401611328,-18974834.442138672,-29842613.220214844,-51869770.05004883,12332217.2164917,-8635136.604309082,-14692327.499389648,-15250422.477722168,-10098484.992980957,-14258304.595947266,-23172670.364379883,-36551094.05517578,-51976554.87060547,13711437.225341797,-12866244.316101074,-20784133.911132812,-29250120.162963867,-22566934.58557129,-25436000.82397461,-22137975.692749023,-26546072.006225586,-65772872.92480469,-24641921.997070312,-17340629.57763672,-19541746.139526367,-28812641.143798828,-22865798.950195312,-5673919.200897217,-35720138.54980469,159190231.3232422,-26245210.647583008,-25665790.557861328,-25934524.536132812,-32781383.514404297,-31153686.5234375,-31516035.079956055,-28759592.056274414,-21623178.482055664,-25751220.703125,-36560035.705566406,-25538755.416870117,-25172672.271728516,-25831369.400024414,-25443553.924560547,-28919815.063476562,-28928071.975708008,-28442905.42602539,-24807676.315307617,-25041189.193725586,-23800258.63647461,-29047187.80517578,-29113317.489624023
0.23,-10517217.636108398,-19779899.59716797,-20663570.404052734,-8174936.294555664,-19258432.388305664,5025871.753692627,-6645243.6447143555,-13205219.268798828,-12522453.308105469,-8778733.253479004,-10655719.757080078,-19787845.611572266,-31520771.026611328,-52833435.05859375,9518027.305603027,-12145800.590515137,-17463428.497314453,-18070329.666137695,-11441159.24835205,-14825798.988342285,-23287942.88635254,-37305419.921875,-54125988.0065918,10858448.028564453,-14049576.759338379,-23972076.416015625,-31011419.29626465,-22710542.678833008,-24822021.484375,-21021369.93408203,-26676162.719726562,-67370506.2866211,-24123722.076416016,-19660757.064819336,-22419416.427612305,-27887283.325195312,-22979101.181030273,-5206542.96875,-33354995.727539062,152264556.88476562,-24802732.467651367,-25138000.48828125,-25350046.157836914,-31473424.911499023,-29005027.770996094,-28123781.204223633,-26710186.004638672,-20532131.19506836,-27382873.53515625,-37513305.6640625,-24796133.041381836,-24535135.26916504,-25054040.908813477,-19943206.787109375,-27489496.2310791,-27458915.71044922,-27219058.990478516,-24103942.87109375,-24399860.382080078,-18329658.50830078,-27490102.767944336,-27469282.150268555
0.235,-10318120.002746582,-20225524.90234375,-21686931.610107422,-8849801.063537598,-19106384.27734375,5487415.790557861,-6267018.3181762695,-12626991.271972656,-11944478.034973145,-8223155.0216674805,-10311195.373535156,-19996385.57434082,-32735202.78930664,-54819488.525390625,9036616.325378418,-11230154.037475586,-16030336.380004883,-16720289.23034668,-10799674.987792969,-14657826.42364502,-23261619.567871094,-38993400.57373047,-57645462.03613281,10190995.216369629,-11910494.804382324,-20991962.432861328,-28498661.041259766,-21103658.67614746,-23848815.91796875,-20667337.41760254,-27513526.916503906,-69162834.16748047,-24071401.596069336,-20126892.08984375,-21170400.619506836,-24473783.493041992,-21242673.873901367,-4918122.7684021,-31899213.790893555,140628768.92089844,-24317142.486572266,-24875347.137451172,-25007320.404052734,-28401655.197143555,-26847488.403320312,-25549079.89501953,-24984838.485717773,-21297807.693481445,-29422683.715820312,-39245014.19067383,-24469291.68701172,-24395923.614501953,-24754905.700683594,-17553266.525268555,-27735317.23022461,-27704576.49230957,-27735006.33239746,-23852529.525756836,-24359525.680541992,-16086561.20300293,-27583723.068237305,-27654523.849487305
0.24,-7598425.388336182,-18475255.966186523,-21062746.047973633,-6356575.012207031,-18653936.3861084,7794442.176818848,-3322086.5726470947,-9806076.049804688,-9055906.295776367,-6991924.76272583,-10003909.11102295,-19850580.2154541,-33169029.235839844,-56487514.49584961,9655192.375183105,-8366743.087768555,-12771518.70727539,-13570580.48248291,-9594696.044921875,-14567006.11114502,-23644617.080688477,-40386276.24511719,-59853710.17456055,10744674.682617188,-9244063.377380371,-16281711.57836914,-25423940.658569336,-19827224.731445312,-23807956.69555664,-21898712.158203125,-28948183.059692383,-69638412.47558594,-25217857.360839844,-19569101.333618164,-17931669.235229492,-21668653.48815918,-19994543.075561523,-4666629.791259766,-33502872.467041016,134834243.77441406,-25738780.975341797,-25815685.272216797,-25765794.75402832,-26061388.01574707,-26081813.81225586,-25842620.849609375,-25351547.241210938,-23077032.0892334,-30357318.878173828,-40359779.357910156,-25579305.64880371,-25598800.659179688,-25870443.34411621,-20482692.71850586,-29979425.43029785,-30052375.79345703,-30059387.20703125,-24982589.721679688,-25599081.03942871,-19178554.53491211,-29860727.310180664,-30067754.7454834
0.245,-4914283.752441406,-16228776.931762695,-19401420.59326172,-3900896.5492248535,-18674728.393554688,9578236.57989502,-1571536.7794036865,-8173966.407775879,-7242618.083953857,-6911045.074462891,-10713010.787963867,-20248012.54272461,-33089950.561523438,-56194309.23461914,11028078.079223633,-7263330.459594727,-11943959.23614502,-12779048.919677734,-10141617.774963379,-15549321.174621582,-24738004.684448242,-40392887.115478516,-58821094.51293945,12282405.853271484,-7985675.811767578,-15354458.808898926,-25131803.512573242,-20304006.576538086,-24874383.9263916,-23707271.575927734,-29743070.602416992,-68110832.21435547,-25502071.380615234,-18381782.53173828,-16054111.48071289,-21250940.322875977,-20694149.017333984,-4597315.788269043,-36614608.76464844,139456558.22753906,-26965536.11755371,-26078140.258789062,-25845680.236816406,-24743751.525878906,-25830287.93334961,-27407238.006591797,-26976331.71081543,-24267395.01953125,-29640531.539916992,-39639698.02856445,-26047752.380371094,-26085447.311401367,-26294563.29345703,-24608749.389648438,-32247684.478759766,-32404857.635498047,-32203155.517578125,-25441719.05517578,-25972423.553466797,-23344837.188720703,-32313541.412353516,-32582103.729248047
0.25,-2996590.6143188477,-14641504.287719727,-17975103.3782959,-3551687.717437744,-19562320.709228516,11141714.096069336,-1553558.588027954,-9110960.960388184,-8006816.864013672,-8488677.978515625,-12748857.498168945,-21734880.447387695,-32917572.021484375,-53834972.3815918,14259742.736816406,-7290894.508361816,-13654728.889465332,-14398452.758789062,-12356743.812561035,-17404975.89111328,-26263275.146484375,-39482059.478759766,-55302124.0234375,15730175.018310547,-6607469.081878662,-17302059.173583984,-26249078.75061035,-21625249.8626709,-26209003.448486328,-24784132.00378418,-29331022.262573242,-65082267.76123047,-22945482.25402832,-16535543.441772461,-16145507.8125,-22234016.41845703,-22180212.020874023,-4940654.754638672,-37897769.927978516,149786590.57617188,-25679983.139038086,-23636150.360107422,-23399427.41394043,-23498218.536376953,-25220884.323120117,-28301183.700561523,-28208389.282226562,-24793905.25817871,-28575639.724731445,-37946025.84838867,-23595571.517944336,-23746440.887451172,-23873762.130737305,-25830528.259277344,-32896236.419677734,-33004768.37158203,-32757713.317871094,-23070337.295532227,-23457019.805908203,-24466615.676879883,-33118602.752685547,-33322124.481201172
0.255,-986415.0881767273,-13531174.659729004,-16910123.825073242,-3761497.735977173,-20348928.451538086,13876281.73828125,-605448.1863975525,-10416651.725769043,-9312316.89453125,-10171620.36895752,-14794301.986694336,-23264081.954956055,-32340591.430664062,-50788291.931152344,18661849.975585938,-5628232.955932617,-14467910.766601562,-15090532.302856445,-13710085.86883545,-18490394.592285156,-27063768.38684082,-38460269.927978516,-51666713.71459961,20168443.67980957,-3929126.024246216,-17739284.51538086,-26018117.904663086,-22241796.493530273,-26903144.83642578,-24687042.236328125,-28389169.692993164,-62041545.86791992,-19244493.48449707,-15098608.97064209,-16772310.256958008,-23279775.619506836,-22722085.95275879,-5565019.130706787,-36482139.587402344,157283355.71289062,-23031955.71899414,-20020294.189453125,-19918516.159057617,-22716388.702392578,-25323450.088500977,-29375669.479370117,-28908990.85998535,-25758266.44897461,-28437612.533569336,-37190170.28808594,-19755018.23425293,-20122768.40209961,-20212436.67602539,-25541004.180908203,-32413162.231445312,-32406932.830810547,-32343708.038330078,-19396471.02355957,-19722808.837890625,-24040309.90600586,-32686527.252197266,-32702838.897705078
0.26,1360167.8609848022,-12410013.198852539,-15566997.528076172,-2280731.439590454,-19912643.432617188,16894313.81225586,2394361.972808838,-9555244.445800781,-8635040.283203125,-10286314.010620117,-15331205.368041992,-23534362.79296875,-31455215.454101562,-49203418.73168945,21084186.553955078,-2330590.9633636475,-12466980.934143066,-13089026.45111084,-12669781.684875488,-17775953.29284668,-26463861.4654541,-37772983.55102539,-50212249.755859375,22454841.61376953,-1584135.1747512817,-15276891.708374023,-24469129.56237793,-21880765.914916992,-26700521.46911621,-23988443.37463379,-28177742.00439453,-61100589.752197266,-17621561.05041504,-15027703.285217285,-16513414.38293457,-23914045.333862305,-22188114.166259766,-5989210.12878418,-34791690.826416016,155738296.50878906,-22507606.506347656,-18410753.25012207,-18324489.59350586,-22872964.85900879,-26701702.117919922,-31784175.872802734,-29683216.094970703,-27265125.274658203,-28821456.909179688,-37879077.91137695,-17947645.18737793,-18413389.205932617,-18574632.64465332,-26942834.854125977,-32016216.278076172,-31960416.793823242,-32037197.11303711,-17650638.580322266,-18008514.404296875,-25364803.314208984,-32294578.552246094,-32098087.310791016
0.265,3047322.988510132,-11509024.620056152,-14257935.523986816,364717.8113460541,-18708406.448364258,17678274.154663086,5142272.472381592,-6850958.347320557,-6143085.479736328,-8895928.382873535,-14633496.284484863,-22920557.022094727,-31565864.56298828,-50488761.90185547,19760257.720947266,-485326.6775608063,-9443240.16571045,-10196547.508239746,-10538390.159606934,-16307189.94140625,-25472520.82824707,-37991165.16113281,-51780967.712402344,21062063.217163086,-1390249.3715286255,-12397578.239440918,-23392549.514770508,-21159757.614135742,-25937717.43774414,-23616527.557373047,-29331291.19873047,-63307487.48779297,-18113351.821899414,-15433297.157287598,-15056395.530700684,-23726978.302001953,-21455408.096313477,-5965957.6416015625,-34903015.13671875,146525939.94140625,-25054828.643798828,-18940677.642822266,-18656179.428100586,-22682563.78173828,-27435255.05065918,-33728652.95410156,-29992481.231689453,-27889249.801635742,-28774972.915649414,-38767440.79589844,-18481681.82373047,-18804759.979248047,-19098155.975341797,-28956882.47680664,-31596172.332763672,-31566383.361816406,-31579586.029052734,-18011524.200439453,-18459604.263305664,-27372203.826904297,-31888307.571411133,-31627416.610717773
0.27,3597498.1784820557,-10892836.570739746,-13538260.459899902,2063148.021697998,-17706350.326538086,15775154.113769531,5248461.723327637,-4534696.578979492,-3902619.8387145996,-6955667.495727539,-13799573.89831543,-22339641.571044922,-32871700.286865234,-53065895.080566406,16816537.857055664,-1987397.9091644287,-8201460.838317871,-9070287.704467773,-9161526.679992676,-15523506.164550781,-25212396.6217041,-39043769.83642578,-54419555.6640625,18269321.44165039,-2775559.186935425,-11783131.59942627,-23392597.198486328,-20534830.09338379,-25089658.737182617,-23736850.73852539,-30834506.98852539,-66416603.088378906,-18085004.806518555,-15297334.671020508,-13861278.533935547,-22792903.900146484,-21008972.16796875,-5825823.3070373535,-35853355.407714844,139612335.20507812,-27486841.201782227,-19020074.84436035,-18581642.150878906,-21467655.181884766,-26374744.415283203,-33070213.317871094,-29086347.579956055,-26933179.85534668,-28758600.23498535,-38834705.3527832,-18680868.14880371,-18826671.600341797,-19215101.24206543,-28157775.87890625,-30335092.544555664,-30338258.743286133,-30254774.09362793,-17959774.017333984,-18541103.36303711,-26586437.225341797,-30641429.901123047,-30525756.8359375
0.275,4009413.719177246,-9551132.202148438,-12246491.432189941,2504806.0417175293,-16248384.475708008,13990686.416625977,3603283.405303955,-3659078.1211853027,-2945358.7532043457,-4625329.01763916,-12425883.293151855,-20972316.74194336,-32709899.90234375,-52858749.38964844,15968755.722045898,-4949564.456939697,-9107284.545898438,-9948404.312133789,-8329365.7302856445,-14950977.325439453,-24716062.545776367,-39031948.08959961,-54168014.52636719,17627969.74182129,-3593575.2391815186,-13394435.88256836,-23632843.017578125,-20277847.290039062,-24410293.579101562,-23225833.892822266,-30467197.41821289,-65939506.53076172,-16508800.506591797,-15187772.750854492,-14862692.832946777,-22483486.17553711,-20898159.02709961,-5981103.420257568,-35488109.58862305,143718582.1533203,-26480590.8203125,-17534692.764282227,-17240503.311157227,-21222528.4576416,-26011230.46875,-31510519.02770996,-28001693.725585938,-25924888.610839844,-29824079.513549805,-38233287.8112793,-17240381.240844727,-17432165.145874023,-17846853.256225586,-25006147.384643555,-28460123.06213379,-28501459.1217041,-28478052.139282227,-16473199.844360352,-17158687.591552734,-23417566.299438477,-28776910.78186035,-28819097.5189209
0.28,5468949.794769287,-6542669.296264648,-8477666.854858398,3620507.24029541,-12810076.713562012,15473802.56652832,3438910.0074768066,-3010887.384414673,-2187487.1253967285,-1447625.994682312,-9105407.71484375,-17214662.551879883,-28646196.365356445,-47663848.876953125,19062891.006469727,-5439599.990844727,-9728427.88696289,-10429373.741149902,-6592922.210693359,-12952199.935913086,-22005992.889404297,-35755706.787109375,-48818958.2824707,20691213.607788086,-1848032.9513549805,-14471533.77532959,-23174560.546875,-20475900.650024414,-23688796.997070312,-20804801.94091797,-26944644.927978516,-59586051.94091797,-14462353.706359863,-14941044.807434082,-17196245.193481445,-23630119.32373047,-21028884.887695312,-6230470.657348633,-33487545.013427734,153762191.77246094,-22048038.482666016,-15482168.197631836,-15493930.81665039,-23151727.6763916,-28616443.634033203,-32274154.663085938,-28274623.87084961,-26435834.884643555,-30970748.901367188,-36795608.52050781,-15132515.907287598,-15510137.557983398,-15901329.99420166,-23227714.53857422,-26730678.55834961,-26856899.26147461,-26961954.11682129,-14562602.043151855,-15215123.176574707,-21583021.16394043,-27064800.262451172,-27037364.959716797
0.285,7885773.181915283,-2806014.060974121,-2993374.3476867676,6568568.229675293,-8054083.824157715,20384380.340576172,6502596.378326416,-1173533.6780548096,-349165.97604751587,2037175.4169464111,-4471538.066864014,-12030492.782592773,-22761022.567749023,-40353504.1809082,25158967.971801758,-1563016.0570144653,-7842144.966125488,-8423125.267028809,-3912720.203399658,-9590188.980102539,-17466808.319091797,-29982723.236083984,-40821491.24145508,26514410.0189209,3097480.058670044,-12414967.53692627,-21626129.150390625,-20486734.39025879,-22364095.68786621,-16970928.192138672,-21632055.282592773,-50422382.35473633,-11910234.451293945,-12179125.785827637,-17147281.646728516,-24437263.48876953,-20822469.71130371,-5959908.485412598,-31180118.560791016,155570922.8515625,-16234746.932983398,-12874569.8928833,-13022926.330566406,-24328332.901000977,-31412265.77758789,-34312122.3449707,-28864551.544189453,-27140474.319458008,-29296791.076660156,-33240901.947021484,-12526299.476623535,-12905333.518981934,-13229755.401611328,-23141735.076904297,-24534563.064575195,-24740657.806396484,-24854434.967041016,-12117801.666259766,-12620306.015014648,-21431848.526000977,-24852495.193481445,-24618785.858154297
0.29,9977140.426635742,-778228.2829284668,287809.96799468994,9532827.377319336,-5423576.354980469,25635004.0435791,10770058.631896973,1001616.7163848877,1721380.114555359,3792648.0770111084,-1947878.360748291,-9362062.454223633,-20369029.998779297,-36123172.760009766,31260862.350463867,4040562.629699707,-4594910.621643066,-5160642.147064209,-2230580.0914764404,-7349649.429321289,-14489480.018615723,-25707040.786743164,-35215644.83642578,32450042.724609375,9059736.251831055,-8411890.029907227,-19551929.473876953,-19410001.754760742,-20385305.404663086,-14268514.633178711,-17696004.86755371,-44502742.767333984,-7919961.452484131,-6661827.087402344,-13500571.250915527,-22709049.224853516,-19579088.21105957,-5063733.5777282715,-29510303.497314453,145658615.1123047,-10881819.725036621,-8869924.545288086,-8939096.450805664,-21732378.005981445,-29841556.549072266,-33094585.418701172,-27063999.17602539,-25274312.97302246,-23935962.677001953,-27545724.868774414,-8676443.099975586,-8779683.113098145,-9003881.454467773,-20734893.798828125,-20689043.045043945,-20839870.45288086,-20873916.625976562,-8159480.094909668,-8559224.128723145,-18974485.397338867,-20881620.407104492,-20676790.237426758
0.295,9876554.489135742,-2505810.022354126,-2095703.6018371582,9064862.251281738,-8052169.7998046875,27365280.151367188,12098236.083984375,644807.1002960205,1281658.64944458,1625623.345375061,-4620323.181152344,-12400876.998901367,-24475271.224975586,-37657665.25268555,33530151.3671875,6202584.743499756,-3769183.397293091,-4411574.363708496,-3471842.7658081055,-8657835.006713867,-16161460.876464844,-26595094.680786133,-35188934.326171875,34911350.25024414,11508327.48413086,-6869740.962982178,-18559492.111206055,-17686502.45666504,-19038991.928100586,-15078038.215637207,-17688165.66467285,-45373065.94848633,-4274326.801300049,-3533344.507217407,-10398065.567016602,-19612409.591674805,-17844684.600830078,-4251934.52835083,-28711811.065673828,136858184.81445312,-8087745.666503906,-5240585.803985596,-5246162.414550781,-17710268.020629883,-24716005.325317383,-27702690.12451172,-22976879.119873047,-21044359.20715332,-18238426.208496094,-22972799.30114746,-5239258.289337158,-5065003.871917725,-5210889.3394470215,-14728975.296020508,-16362743.377685547,-16295740.127563477,-16345569.610595703,-4473430.633544922,-4906059.265136719,-12940214.157104492,-16338829.040527344,-16519041.061401367
0.3,6021730.899810791,-8195823.669433594,-9620278.358459473,3710384.6073150635,-15408143.043518066,24027565.002441406,8498939.514160156,-3790585.2794647217,-3131743.4310913086,-4557472.229003906,-11782617.568969727,-20022527.69470215,-32859718.322753906,-43817047.119140625,30168912.887573242,2697745.3231811523,-7088790.8935546875,-7844969.272613525,-7361800.193786621,-13145486.831665039,-21853235.244750977,-32515640.258789062,-40068389.892578125,31889427.185058594,8308641.43371582,-9629919.052124023,-19636240.005493164,-17098035.81237793,-19958860.397338867,-18947174.072265625,-21728485.107421875,-51102073.669433594,-4462095.260620117,-7044572.353363037,-11430598.258972168,-18370803.833007812,-17354017.25769043,-4230838.775634766,-29063352.584838867,138643447.87597656,-10007107.734680176,-5386127.471923828,-5390268.325805664,-16637117.385864258,-21499526.977539062,-23104066.848754883,-20410009.384155273,-18136791.229248047,-16153488.159179688,-23114307.403564453,-5431185.245513916,-5216747.283935547,-5378677.845001221,-9920815.467834473,-14727611.541748047,-14432382.583618164,-14597464.561462402,-4599244.594573975,-5097252.84576416,-8148545.265197754,-14549342.155456543,-15083139.419555664
0.305,-1041700.005531311,-15769521.713256836,-18027597.427368164,-3858264.207839966,-23217473.98376465,17748640.060424805,2641048.4313964844,-9868563.652038574,-9146545.41015625,-11597060.203552246,-19048055.64880371,-27296913.146972656,-40320934.2956543,-51219120.025634766,23863555.908203125,-2864423.7518310547,-11489349.365234375,-12339353.561401367,-11253739.356994629,-17609134.674072266,-27378589.630126953,-39387088.775634766,-46373424.5300293,25651708.602905273,3343786.7164611816,-12887537.002563477,-21394750.595092773,-18378402.709960938,-22696239.471435547,-22367013.931274414,-27179534.912109375,-56323905.94482422,-7762470.245361328,-12801158.905029297,-13519097.328186035,-19443460.46447754,-18752630.23376465,-4887567.99697876,-30074968.338012695,142926254.27246094,-15326469.421386719,-8559457.778930664,-8380365.371704102,-17566699.981689453,-22396270.751953125,-23549207.68737793,-21760398.864746094,-18520145.416259766,-16983968.73474121,-26616928.100585938,-8491088.8671875,-8347922.325134277,-8633354.187011719,-10511564.254760742,-16353942.87109375,-15995977.401733398,-16140810.012817383,-7859046.459197998,-8341612.815856934,-8820514.678955078,-16212779.998779297,-16673566.818237305
0.31,-7652283.191680908,-21512708.66394043,-22635631.561279297,-8825665.473937988,-26807865.142822266,12667510.032653809,-766892.13514328,-13119856.834411621,-12394211.769104004,-14948308.944702148,-21908634.185791016,-29491460.8001709,-42698783.87451172,-55747146.60644531,19663877.487182617,-5178786.754608154,-12790262.222290039,-13656560.897827148,-12272693.634033203,-18753103.256225586,-28524431.228637695,-42268661.49902344,-49949497.22290039,21165222.16796875,2213423.728942871,-12602756.50024414,-21609752.655029297,-19983190.536499023,-24411508.560180664,-21902687.072753906,-30195297.241210938,-56969337.463378906,-8612961.769104004,-12473809.242248535,-11424226.760864258,-20137882.232666016,-20439399.71923828,-5573394.775390625,-29862125.396728516,139137039.1845703,-18397192.001342773,-9274099.349975586,-8667572.021484375,-15792610.168457031,-23863864.89868164,-27121244.430541992,-24512908.935546875,-19441886.90185547,-16348842.62084961,-27843050.003051758,-9095336.9140625,-8881999.015808105,-9320281.982421875,-13859688.758850098,-17510055.541992188,-17259479.522705078,-17102714.53857422,-8675419.807434082,-9107215.881347656,-12241142.272949219,-17525882.720947266,-17668329.2388916
0.315,-9408239.364624023,-22260152.81677246,-21601617.81311035,-8481384.27734375,-24842094.42138672,11766119.956970215,224790.5731201172,-11734298.706054688,-11049316.40625,-12738294.60144043,-19354749.67956543,-25850788.116455078,-39379585.26611328,-54441761.0168457,19980012.893676758,-3270627.737045288,-10890624.046325684,-11681959.15222168,-9951088.905334473,-16093942.642211914,-24658224.10583496,-39241653.44238281,-48324119.567871094,21152700.424194336,5099885.4637146,-10466137.886047363,-20312267.303466797,-20115329.74243164,-23044261.932373047,-17749389.6484375,-28525423.049926758,-53457710.26611328,-4109252.9296875,-5677563.667297363,-6322775.840759277,-19127098.083496094,-20564971.923828125,-5889167.308807373,-27235160.82763672,132946380.61523438,-15203351.974487305,-4694373.13079834,-3775192.0223236084,-11177050.590515137,-22960296.630859375,-29197711.944580078,-24865583.419799805,-17778591.15600586,-12402601.24206543,-23899232.864379883,-4538195.610046387,-4150372.02835083,-4640192.50869751,-14670178.413391113,-15145196.914672852,-15006639.48059082,-14455697.059631348,-4115464.210510254,-4542869.091033936,-12967647.552490234,-15228249.549865723,-15314947.128295898
0.32,-5394321.918487549,-18100461.959838867,-16835050.582885742,-4231352.806091309,-20036590.576171875,15060361.862182617,3716606.855392456,-8062157.63092041,-7369705.677032471,-7764200.210571289,-14394099.235534668,-19932771.682739258,-33519252.77709961,-48448051.45263672,23280654.907226562,-253503.2033920288,-8918626.78527832,-9636721.61102295,-6658988.952636719,-12261293.411254883,-19192535.400390625,-33119915.008544922,-42764163.970947266,24310308.4564209,7649332.523345947,-10481783.866882324,-19480245.59020996,-19021312.713623047,-20076114.654541016,-13695388.793945312,-23538875.579833984,-49132743.83544922,1588214.8742675781,-495673.0604171753,-4128821.849822998,-18194416.046142578,-19342613.220214844,-5856402.397155762,-23957302.09350586,136259735.10742188,-8620738.983154297,1021258.7118148804,1826304.9125671387,-8870594.024658203,-21662488.93737793,-28762336.73095703,-22994117.736816406,-15161074.6383667,-8208745.002746582,-18233901.977539062,1065767.6458358765,1452558.3982467651,1092959.7616195679,-12821524.620056152,-11398203.84979248,-11235400.199890137,-10518477.439880371,1615400.791168213,1195488.2144927979,-10869602.20336914,-11363148.68927002,-11720798.49243164
0.325,778506.875038147,-12523962.97454834,-12004443.168640137,445194.8404312134,-16156692.504882812,20178371.42944336,7217401.98135376,-5247297.286987305,-4489281.177520752,-4617194.652557373,-11159791.946411133,-16228572.845458984,-29580055.236816406,-42724281.311035156,27331901.55029297,1937459.4688415527,-8071870.803833008,-8845904.350280762,-5141189.098358154,-10319511.413574219,-16274679.183959961,-28813358.306884766,-37406242.37060547,28271097.18322754,8351963.996887207,-11655762.672424316,-19674133.30078125,-18153875.35095215,-18707811.35559082,-13069704.055786133,-18945940.017700195,-45768482.20825195,3346938.8484954834,-1237822.8902816772,-5902396.202087402,-18576799.392700195,-18299518.585205078,-5555912.017822266,-22889982.223510742,144894699.0966797,-4339431.7626953125,2739638.566970825,3226980.447769165,-10670830.726623535,-22537712.09716797,-28216556.549072266,-21991352.081298828,-15388886.451721191,-6731323.719024658,-15312468.528747559,2725489.1395568848,2842114.6869659424,2720146.656036377,-12405963.897705078,-10193671.226501465,-9916086.196899414,-9330929.75616455,3297322.7500915527,2963326.4541625977,-10279296.875,-9993922.233581543,-10466666.221618652
0.33,4329851.150512695,-9474575.996398926,-9673294.067382812,2780237.1978759766,-14830220.222473145,23675844.192504883,9572128.295898438,-4384796.619415283,-3600633.144378662,-5355480.194091797,-11582030.296325684,-16476528.16772461,-29564729.690551758,-40935287.47558594,30737932.205200195,3875501.3942718506,-6941740.036010742,-7886225.700378418,-6107401.8478393555,-11088806.15234375,-17063129.425048828,-28632127.76184082,-35344226.8371582,31456426.6204834,9858576.774597168,-9868267.059326172,-19530332.565307617,-18058206.55822754,-19876209.259033203,-15426233.291625977,-17240650.177001953,-42654857.63549805,1953561.0675811768,-3105429.6493530273,-6669919.967651367,-18893114.08996582,-18138801.57470703,-5110037.803649902,-24299453.735351562,143630889.89257812,-3416395.1873779297,1212171.4353561401,1637489.4380569458,-12096776.962280273,-24185487.747192383,-28702047.34802246,-22866065.979003906,-18153778.076171875,-6578933.7158203125,-14741136.55090332,1272190.5708312988,1089515.209197998,1115056.3955307007,-14369601.249694824,-11159517.288208008,-10861274.719238281,-10458688.735961914,1732805.9673309326,1482979.5360565186,-12358740.80657959,-10950931.549072266,-11093400.001525879
0.335,3088671.922683716,-10484693.52722168,-10317184.448242188,1524211.8835449219,-15625007.629394531,22801935.19592285,9665802.955627441,-5508156.776428223,-4791574.954986572,-8756524.085998535,-14701435.089111328,-19305400.848388672,-31953105.926513672,-42097217.55981445,31353918.075561523,4911421.775817871,-5813012.12310791,-6859412.670135498,-8476318.359375,-13251457.214355469,-19631557.46459961,-31071495.056152344,-36360034.94262695,31821535.110473633,12443425.178527832,-6110115.528106689,-18766643.524169922,-18182041.16821289,-21625720.977783203,-18014043.8079834,-18165031.43310547,-40025154.11376953,1373878.836631775,-1757868.1707382202,-4557428.83682251,-18036493.3013916,-18358524.322509766,-4890122.890472412,-25956251.14440918,131487823.48632812,-2816348.5527038574,454628.43775749207,1100014.090538025,-10321725.845336914,-23968765.258789062,-28730054.85534668,-23495969.772338867,-19306022.64404297,-5047741.413116455,-13754043.579101562,667447.566986084,397805.6013584137,366671.20456695557,-14873526.573181152,-10648827.55279541,-10518477.439880371,-10113132.47680664,1050016.0455703735,748973.9060401917,-13129953.384399414,-10596989.631652832,-10314785.957336426
0.34,-1420508.9807510376,-14319093.704223633,-13175127.029418945,-2952236.6523742676,-17961492.53845215,17832677.841186523,6274949.073791504,-8875445.365905762,-8233502.388000488,-12762901.306152344,-18397354.125976562,-22699525.833129883,-34645168.30444336,-43836833.95385742,27207162.857055664,2475211.8587493896,-7412873.268127441,-8360741.61529541,-11102135.65826416,-15427779.197692871,-22055629.73022461,-34112468.71948242,-38946884.15527344,27598186.492919922,11835082.054138184,-6327637.195587158,-18951810.836791992,-18111667.63305664,-22278350.830078125,-19730585.0982666,-20442649.841308594,-40772975.92163086,1873126.50680542,-991808.4144592285,-4269471.168518066,-17286008.834838867,-18395502.0904541,-5209652.900695801,-26697700.50048828,124250083.92333984,-2101788.7592315674,922483.9210510254,1656155.8246612549,-9052384.376525879,-22431148.529052734,-27137931.82373047,-22415151.596069336,-17384037.017822266,-3127866.744995117,-13173588.752746582,1234261.7511749268,1050701.9758224487,869382.5006484985,-11659398.078918457,-8192414.283752441,-8281827.926635742,-7740346.431732178,1663089.0369415283,1225968.7185287476,-10002183.91418457,-8262090.682983398,-7942531.585693359
0.345,-5411590.099334717,-18138496.39892578,-16598812.103271484,-8011840.8203125,-21088245.391845703,12343182.563781738,660727.9181480408,-13419692.039489746,-12737284.660339355,-15904430.389404297,-20889945.98388672,-25437337.87536621,-37246982.57446289,-46037322.998046875,20129556.65588379,-3361217.0219421387,-11948463.439941406,-12679478.645324707,-13254497.528076172,-17129783.630371094,-24057855.6060791,-37350559.23461914,-42386508.94165039,20592073.440551758,5965170.860290527,-12013659.477233887,-20473764.419555664,-17835842.13256836,-22323816.299438477,-21825832.36694336,-23199720.38269043,-46291481.018066406,140562.2810125351,-5865804.195404053,-8825497.6272583,-17819082.260131836,-18090082.1685791,-5763424.873352051,-27558788.299560547,129178497.31445312,-4382520.67565918,-581596.7321395874,-94364.74740505219,-11920638.084411621,-21848087.310791016,-24949529.64782715,-20906324.38659668,-15775057.792663574,-4008771.4195251465,-16324777.603149414,-307387.5606060028,-400839.2095565796,-640879.2734146118,-8055244.445800781,-7683418.273925781,-7826533.794403076,-7239766.597747803,213056.0427904129,-248341.29214286804,-6261281.967163086,-7669530.391693115,-7678740.978240967
0.35,-5645626.544952393,-19038183.212280273,-17923408.50830078,-10043994.903564453,-22862001.419067383,9306591.033935547,-3393943.0713653564,-16108957.290649414,-15275775.909423828,-17010902.404785156,-21084726.333618164,-26456081.39038086,-39414146.423339844,-48511466.97998047,14828812.599182129,-8444845.199584961,-15353915.214538574,-15910181.999206543,-14186608.31451416,-18033855.438232422,-25506475.4486084,-40032123.56567383,-45527511.59667969,15330777.168273926,-894842.0882225037,-17237800.59814453,-21490919.11315918,-17303642.27294922,-22729185.104370117,-24806526.18408203,-25217964.17236328,-52674003.60107422,-4885794.639587402,-13610114.097595215,-13905828.475952148,-18519992.82836914,-17471612.93029785,-5861324.787139893,-29141635.89477539,134192169.18945312,-10230485.916137695,-5303057.1937561035,-5100504.398345947,-15962977.409362793,-22212177.276611328,-23804424.285888672,-20633808.135986328,-17115236.282348633,-7661921.977996826,-22736017.22717285,-5143184.185028076,-5174509.048461914,-5366951.942443848,-8371945.381164551,-11202126.502990723,-11214186.668395996,-10757338.523864746,-4562948.703765869,-4885530.948638916,-6529655.456542969,-10961993.217468262,-11299488.067626953
0.355,-2517996.5496063232,-16319576.263427734,-15482587.814331055,-8233930.587768555,-21371175.76599121,7549182.415008545,-4035550.594329834,-15325288.772583008,-14367841.720581055,-15826264.381408691,-19116540.908813477,-25120376.586914062,-39536823.27270508,-48525615.69213867,12831295.013427734,-9810060.501098633,-14849648.475646973,-15301402.09197998,-13698019.981384277,-17805467.60559082,-25477832.794189453,-40154205.322265625,-46222351.07421875,13308009.147644043,-3851023.4355926514,-17419515.60974121,-21143848.419189453,-16782835.006713867,-23213254.928588867,-26949308.395385742,-25021261.21520996,-54909095.764160156,-10200779.914855957,-17483009.338378906,-14542176.246643066,-18182823.181152344,-16998916.625976562,-5365364.551544189,-30343925.47607422,129091766.35742188,-15507976.531982422,-10541394.233703613,-10358002.662658691,-16305419.921875,-21817295.07446289,-24124647.14050293,-21351966.857910156,-19212020.874023438,-10553195.95336914,-27607074.737548828,-10434572.219848633,-10365056.991577148,-10516456.604003906,-11804424.285888672,-15477731.704711914,-15381800.651550293,-15096414.566040039,-9794882.774353027,-10002661.70501709,-10180099.487304688,-15088942.527770996,-15577063.56048584
0.36,-135843.61970424652,-13117955.207824707,-11755018.23425293,-6073614.120483398,-18440883.63647461,4491460.32333374,-3616024.971008301,-13590868.949890137,-12648904.800415039,-14221484.184265137,-17048587.799072266,-23109497.0703125,-37684337.6159668,-45425514.221191406,11101611.137390137,-9229177.474975586,-13050401.68762207,-13420463.562011719,-13013487.815856934,-17102819.442749023,-24211706.161499023,-38049144.74487305,-44717079.162597656,11594264.030456543,-3453972.816467285,-15421368.598937988,-21233755.111694336,-17183195.114135742,-23321083.068847656,-27052547.454833984,-23337083.81652832,-54116256.71386719,-12547879.219055176,-16250915.52734375,-12615086.555480957,-17824905.395507812,-17563449.85961914,-4963875.770568848,-30657148.361206055,122527725.21972656,-17193384.170532227,-13065619.468688965,-12784508.70513916,-13650732.99407959,-20697326.66015625,-25329294.204711914,-22081428.52783203,-18996822.357177734,-10910463.333129883,-28450006.48498535,-12912775.993347168,-12737487.79296875,-12871224.403381348,-13754055.976867676,-16665157.318115234,-16624942.779541016,-16417461.395263672,-12191028.594970703,-12471634.864807129,-12376329.42199707,-16342002.868652344,-16858713.150024414
0.365,-1880958.6763381958,-14073575.973510742,-12204194.068908691,-7096158.504486084,-18822278.97644043,1886734.127998352,-4355698.108673096,-14216198.921203613,-13397837.63885498,-14722891.807556152,-17586585.998535156,-24039894.104003906,-37933910.36987305,-45270565.032958984,8538534.164428711,-8958405.494689941,-13457818.031311035,-13842226.9821167,-13609056.47277832,-17467632.293701172,-24284152.98461914,-38405361.17553711,-45592815.39916992,9061819.076538086,-2531268.358230591,-15428167.343139648,-22969568.252563477,-18863195.419311523,-23823192.596435547,-26854471.20666504,-23774795.532226562,-56241661.071777344,-11285596.84753418,-13813796.043395996,-12788459.777832031,-18680204.391479492,-19278818.130493164,-5257993.698120117,-31536870.9564209,126171669.00634766,-17352285.385131836,-11956848.14453125,-11773621.559143066,-12095852.851867676,-20545116.424560547,-26820596.69494629,-22980127.334594727,-17743803.024291992,-10955162.048339844,-28240861.892700195,-11775797.843933105,-11603111.267089844,-11661341.667175293,-12321162.223815918,-15725255.012512207,-15788411.140441895,-15587119.102478027,-11013366.69921875,-11477495.193481445,-10939056.396484375,-15607333.183288574,-16018680.572509766
0.37,-6136610.507965088,-20058479.30908203,-19017793.655395508,-10050043.106079102,-24193382.263183594,4973153.114318848,-4092514.5149230957,-16173397.064208984,-15454260.82611084,-17097953.79638672,-20949666.97692871,-29246568.67980957,-43984161.376953125,-54682270.05004883,9294597.625732422,-7155387.878417969,-14589950.561523438,-15205642.700195312,-14935626.029968262,-19310932.159423828,-27651874.542236328,-44951171.875,-52820568.0847168,9693281.173706055,-628834.3071937561,-15908193.588256836,-24427694.32067871,-20543090.8203125,-25558122.634887695,-28879100.799560547,-28821617.126464844,-63560470.58105469,-7903778.076171875,-11867765.426635742,-14707137.107849121,-19767330.169677734,-20756752.014160156,-5947863.1019592285,-34090270.99609375,133729965.20996094,-19230924.606323242,-8551828.384399414,-8616071.701049805,-12350967.407226562,-21901138.305664062,-28466947.555541992,-24776823.043823242,-19166589.736938477,-13138727.188110352,-30444278.717041016,-8449743.270874023,-8386264.801025391,-8354293.8232421875,-10984107.01751709,-16431619.644165039,-16472702.026367188,-16300636.291503906,-7727117.538452148,-8298544.883728027,-9441016.19720459,-16474225.997924805,-16621074.676513672
0.375,-8677720.069885254,-26800611.49597168,-27923931.121826172,-10773386.95526123,-30433185.577392578,14716169.357299805,344173.1631755829,-15500472.068786621,-14778252.601623535,-18346847.534179688,-24178377.151489258,-35416034.69848633,-53383861.54174805,-70759910.5834961,16132593.154907227,-1339036.3454818726,-12510130.882263184,-13462459.564208984,-14795310.020446777,-21000032.424926758,-32530292.510986328,-54560577.392578125,-63960964.20288086,16258474.349975586,3921989.4409179688,-13339721.6796875,-23409360.885620117,-20584285.736083984,-27606668.47229004,-32849430.084228516,-36159297.943115234,-71692054.74853516,-5044484.615325928,-9130227.088928223,-14568977.355957031,-19632270.81298828,-20586334.228515625,-6265827.178955078,-36998218.53637695,130268829.34570312,-22658397.674560547,-5671732.425689697,-5831923.961639404,-12265810.012817383,-23724782.943725586,-30358537.673950195,-27106960.29663086,-23609407.424926758,-16847896.575927734,-34245494.8425293,-5657982.349395752,-5688523.769378662,-5712614.059448242,-13839594.841003418,-19705121.994018555,-19643569.946289062,-19549034.118652344,-4988082.408905029,-5545810.222625732,-12256958.961486816,-19757814.407348633,-19702434.539794922
0.38,-8858072.280883789,-30279802.322387695,-33544750.213623047,-8523959.159851074,-33170848.846435547,24556076.049804688,6970564.842224121,-11769407.272338867,-11004689.21661377,-17172054.290771484,-24916261.672973633,-38591159.82055664,-59898647.30834961,-83099540.71044922,24257902.145385742,5754592.418670654,-7763437.747955322,-8838470.458984375,-12666847.229003906,-21082981.10961914,-35497009.27734375,-60557624.81689453,-72543365.47851562,24228189.46838379,8883856.773376465,-9285424.23248291,-21042352.6763916,-19170909.881591797,-28207696.91467285,-36167835.2355957,-40977691.650390625,-76304695.12939453,-5030888.080596924,-6594129.0855407715,-12141637.802124023,-18986532.21130371,-19222496.032714844,-6018541.33605957,-38227516.174316406,116972129.82177734,-25574817.657470703,-5784857.273101807,-5869659.900665283,-12052857.398986816,-25115608.21533203,-31894723.892211914,-28497676.849365234,-27112138.748168945,-19844673.15673828,-36700286.865234375,-5722672.462463379,-5783422.946929932,-5990956.783294678,-19286457.061767578,-22462478.637695312,-22388702.392578125,-22375881.19506836,-5045597.553253174,-5585220.813751221,-17815221.786499023,-22423866.271972656,-22497863.76953125
0.385,-10165850.639343262,-31492649.07836914,-35837253.57055664,-7187050.342559814,-33542190.551757812,27381813.049316406,9986636.1618042,-9425149.917602539,-8693979.263305664,-16177646.63696289,-24522859.573364258,-39092216.49169922,-61230918.884277344,-86068443.29833984,26451923.370361328,8406282.424926758,-5340368.747711182,-6205683.708190918,-11000892.639160156,-20392591.47644043,-35883541.107177734,-60926311.49291992,-75263031.00585938,26547496.795654297,10009166.717529297,-8309943.199157715,-20016965.866088867,-17934741.973876953,-27083728.790283203,-37305145.263671875,-41148159.02709961,-77776908.87451172,-6868338.584899902,-7227086.067199707,-10672191.619873047,-19164518.356323242,-18235525.131225586,-5764621.734619141,-37371372.22290039,110719001.77001953,-26905206.68029785,-7678505.420684814,-7839391.231536865,-13431338.3102417,-25320398.330688477,-31154060.36376953,-27626161.575317383,-25997383.11767578,-20456180.572509766,-36507900.23803711,-7476202.487945557,-7576390.266418457,-7843071.937561035,-20326709.747314453,-21284191.131591797,-21281913.75732422,-21313035.96496582,-6754248.142242432,-7352390.289306641,-18932071.685791016,-21168060.302734375,-21565109.252929688
0.39,-14094063.758850098,-33568191.52832031,-38058620.45288086,-9439147.94921875,-35124729.15649414,23205310.821533203,7176049.709320068,-11505163.192749023,-10901622.772216797,-17830957.412719727,-25505168.914794922,-39742893.21899414,-60465007.78198242,-83470489.50195312,22262050.62866211,5317656.04019165,-7708800.315856934,-8312047.004699707,-11950876.235961914,-20526863.09814453,-35628166.19873047,-59250442.50488281,-73756568.9086914,22585756.301879883,7080619.335174561,-10898511.88659668,-20543340.6829834,-17578672.409057617,-25560710.906982422,-36905849.45678711,-38322528.83911133,-77226188.65966797,-6282808.780670166,-10336898.803710938,-10992968.559265137,-19342094.42138672,-18029893.87512207,-5975750.44631958,-35084079.74243164,119025154.11376953,-25906957.626342773,-6819623.4703063965,-7328229.4273376465,-14797726.63116455,-23142974.853515625,-26677747.72644043,-24398839.950561523,-20668287.27722168,-17804473.876953125,-33847946.16699219,-6564274.311065674,-6737114.906311035,-6841247.081756592,-12717340.469360352,-15885770.797729492,-15857549.667358398,-15875617.980957031,-5813678.741455078,-6474182.12890625,-11314409.255981445,-15756362.915039062,-16217067.71850586
0.395,-17206205.368041992,-36123355.865478516,-40236495.97167969,-12694097.518920898,-37131637.57324219,17617897.033691406,2651992.3210144043,-15121873.85559082,-14642809.867858887,-20184879.302978516,-27011224.7467041,-40428291.32080078,-59918010.71166992,-80664047.24121094,17510604.858398438,1129446.5065002441,-11479188.919067383,-12092193.603515625,-14061170.57800293,-21025362.014770508,-35328201.29394531,-58158214.5690918,-70596702.5756836,17905563.354492188,4087328.4339904785,-13173465.728759766,-20467342.376708984,-17208095.55053711,-24562536.239624023,-35863693.23730469,-34999019.622802734,-73582344.05517578,-1558472.2757339478,-11599447.250366211,-10659840.58380127,-17883342.742919922,-17582115.173339844,-6388695.240020752,-31688890.45715332,129071914.67285156,-21951301.57470703,-1691984.1766357422,-2466575.860977173,-12742297.172546387,-18800045.013427734,-20485952.377319336,-20353160.858154297,-14952699.661254883,-12553309.440612793,-29382068.634033203,-1497713.8042449951,-1682740.330696106,-1674648.2849121094,-1710539.5793914795,-9600791.931152344,-9418536.186218262,-9378484.725952148,-747546.7324256897,-1343754.529953003,-332506.29901885986,-9473901.748657227,-9600003.242492676
0.4,-16501983.642578125,-36161521.911621094,-39326374.05395508,-12984519.004821777,-35419403.076171875,14707255.363464355,1157063.7226104736,-15644412.04071045,-15198160.171508789,-19492412.567138672,-25865598.678588867,-38336124.420166016,-58284366.607666016,-78457611.08398438,16033620.834350586,86764.77521657944,-12285207.748413086,-13131215.09552002,-14184587.478637695,-20094203.94897461,-33589355.46875,-56639434.814453125,-67407669.06738281,16381969.451904297,3587908.7448120117,-12901331.901550293,-18863004.684448242,-16233810.424804688,-23848323.822021484,-34373287.200927734,-32886394.500732422,-67829154.96826172,2527215.7192230225,-9620197.296142578,-8834971.42791748,-15623579.025268555,-16475002.28881836,-6414920.806884766,-27970544.815063477,126984672.54638672,-17236936.569213867,2456018.9247131348,1853732.4666976929,-8247926.712036133,-15438578.605651855,-17387577.056884766,-17981513.97705078,-12789160.72845459,-8172010.42175293,-25422891.61682129,2643750.4291534424,2548091.411590576,2373061.8953704834,2430277.109146118,-7119279.861450195,-6873064.5179748535,-6789482.593536377,3340108.633041382,2955773.5919952393,3743358.850479126,-6942717.0753479,-6733661.17477417
0.405,-14296710.014343262,-33767482.75756836,-35532470.703125,-10749722.480773926,-30040426.25427246,14309039.115905762,2537640.09475708,-13184220.314025879,-12691027.641296387,-16096994.400024414,-22068258.28552246,-33751903.53393555,-55168914.794921875,-76565170.28808594,16447444.915771484,1471536.9939804077,-10224024.772644043,-11215696.334838867,-12083117.485046387,-17946905.1361084,-30685554.50439453,-54402610.778808594,-66081825.256347656,16875993.728637695,4317176.342010498,-11646183.013916016,-17184904.098510742,-15498853.68347168,-23253530.502319336,-33017951.96533203,-33243129.73022461,-64908859.25292969,685404.6583175659,-7740781.307220459,-7599137.783050537,-15086119.651794434,-15741268.157958984,-5964446.544647217,-25953996.658325195,117583106.9946289,-16316926.956176758,265160.2029800415,118646.45779132843,-6117115.9744262695,-15957583.4274292,-19537101.74560547,-18563161.849975586,-14926534.652709961,-8228831.2911987305,-25091976.165771484,574473.6790657043,569674.2534637451,115691.27440452576,-3450615.406036377,-10177377.700805664,-10099825.859069824,-10025122.64251709,1117765.4266357422,959736.704826355,-2102411.7469787598,-9905886.65008545,-9757343.292236328
0.41,-14676551.818847656,-32709144.592285156,-33423740.38696289,-10141243.934631348,-26820362.091064453,14512247.085571289,3221986.770629883,-12082901.954650879,-11528420.448303223,-14568422.317504883,-19994222.64099121,-31459051.13220215,-53816741.943359375,-76732421.875,16282054.901123047,2109688.7588500977,-8848628.044128418,-9756783.485412598,-10987145.42388916,-17263704.299926758,-29665750.50354004,-53898517.60864258,-67440986.63330078,16948146.82006836,4238831.043243408,-11307683.944702148,-16943346.02355957,-15943148.612976074,-23371967.315673828,-32938354.4921875,-35895435.33325195,-67023880.00488281,-4749383.926391602,-8234206.199645996,-8068970.680236816,-16746494.29321289,-16287630.081176758,-5567960.262298584,-26968067.169189453,116162879.94384766,-20122966.766357422,-5475480.556488037,-5329649.925231934,-7695743.083953857,-18879762.649536133,-23353803.634643555,-20607494.354248047,-18134078.979492188,-11342626.571655273,-28006416.32080078,-5087114.334106445,-5065192.222595215,-5524627.208709717,-11416651.725769043,-15041152.954101562,-15182631.492614746,-15083059.310913086,-4727588.653564453,-4819662.094116211,-9911621.09375,-14701090.812683105,-14910717.010498047
0.415,-17105031.967163086,-34420654.296875,-35002746.58203125,-12833932.876586914,-29248987.197875977,14285572.052001953,1621839.8809432983,-14354765.892028809,-13769113.540649414,-17172187.80517578,-22305692.672729492,-34070861.81640625,-56123832.70263672,-78816184.9975586,15582447.052001953,1049647.2120285034,-10047010.42175293,-10796724.319458008,-12804895.401000977,-19256486.892700195,-31922266.006469727,-55827457.427978516,-68569953.91845703,16395027.160644531,3285032.7491760254,-11760056.495666504,-17813659.66796875,-17026458.740234375,-24315849.30419922,-34035907.74536133,-38016662.59765625,-68819770.81298828,-6663380.6228637695,-8927628.517150879,-8841384.887695312,-18430448.532104492,-17431892.39501953,-5636631.965637207,-29520025.2532959,125870925.90332031,-23383434.295654297,-7316844.463348389,-7185649.394989014,-9054355.62133789,-20228075.02746582,-24100837.70751953,-21462339.401245117,-18410560.607910156,-12015639.305114746,-29400712.966918945,-7051180.839538574,-6973042.4880981445,-7197920.322418213,-12950683.59375,-16083627.700805664,-16230123.519897461,-15950372.695922852,-6708489.894866943,-6945092.678070068,-11334254.264831543,-15750589.370727539,-16220527.648925781
0.42,-17310995.10192871,-35396484.375,-36347152.70996094,-15390598.29711914,-33113185.88256836,14173425.674438477,59290.97905755043,-16722793.579101562,-16163562.774658203,-20254959.106445312,-25561494.827270508,-37516098.02246094,-58667819.97680664,-79131866.45507812,15765176.773071289,250510.15615463257,-11860980.033874512,-12566732.406616211,-14978126.525878906,-21313304.901123047,-34340362.548828125,-56976470.947265625,-66003921.50878906,16486391.067504883,2697295.4273223877,-12167653.08380127,-18374807.357788086,-17386945.724487305,-24934110.641479492,-34505306.243896484,-36817008.97216797,-64922050.47607422,-3501451.4923095703,-7510522.365570068,-8996027.946472168,-18531599.044799805,-17775377.27355957,-5895685.195922852,-30929864.88342285,133407745.36132812,-21582677.841186523,-3922116.51802063,-3862132.787704468,-7600265.5029296875,-19126840.591430664,-22094573.974609375,-20578048.706054688,-15590744.018554688,-8250301.361083984,-26402238.845825195,-3864061.5940093994,-3633170.1278686523,-3775909.423828125,-9718131.065368652,-12605552.673339844,-12564833.641052246,-12031580.924987793,-3301843.8816070557,-3764097.9290008545,-8150323.867797852,-12332127.571105957,-12758597.373962402
0.425,-13518208.503723145,-32490535.736083984,-33677864.07470703,-13766476.63116455,-32327892.303466797,15967043.87664795,1522921.2045669556,-15168514.251708984,-14718180.656433105,-19054260.25390625,-24670007.705688477,-36307838.439941406,-57196884.15527344,-76058952.33154297,17735107.421875,1669508.934020996,-11336883.544921875,-12129835.12878418,-13866457.93914795,-20256324.768066406,-33186664.581298828,-55006183.62426758,-61425659.1796875,18330919.26574707,3571284.532546997,-12144062.995910645,-17680858.612060547,-16566888.809204102,-24076116.56188965,-33000125.885009766,-33429130.55419922,-58791553.49731445,-827542.3049926758,-5407977.58102417,-9356216.430664062,-17653766.632080078,-16919731.14013672,-5788149.356842041,-30500173.568725586,127793365.47851562,-17388292.31262207,-1213425.9939193726,-1106558.7997436523,-5712916.374206543,-18267517.08984375,-21335975.646972656,-19700725.555419922,-13261494.636535645,-4528415.679931641,-22250917.434692383,-1205086.4696502686,-882235.7058525085,-1239745.9745407104,-9110564.231872559,-9302687.644958496,-9126826.286315918,-8546692.848205566,-419114.8579120636,-996245.9802627563,-7689238.548278809,-9077775.001525879,-9279062.271118164
0.43,-8370581.62689209,-27537509.91821289,-28777601.24206543,-8709114.074707031,-27035448.07434082,20515783.309936523,5651459.693908691,-10467389.106750488,-10168883.323669434,-14159108.16192627,-19967117.309570312,-30926816.940307617,-52368278.50341797,-72194686.88964844,21466859.817504883,4775715.8279418945,-8385773.658752441,-9304444.313049316,-9988820.07598877,-16677099.227905273,-29004240.036010742,-51573528.28979492,-58927227.02026367,22210134.506225586,6179571.151733398,-11383558.27331543,-15988802.909851074,-15371682.167053223,-22028757.095336914,-30122863.76953125,-31078605.65185547,-56735111.236572266,-1651432.2757720947,-4764671.802520752,-9900665.283203125,-16823244.094848633,-15686764.71710205,-5307389.736175537,-29338720.321655273,115922019.9584961,-15640288.352966309,-2141577.0053863525,-2010535.478591919,-5728463.172912598,-18835468.292236328,-22935665.130615234,-19639186.85913086,-13335700.035095215,-4496006.488800049,-20773172.37854004,-2003328.800201416,-1828724.1458892822,-2391536.235809326,-11923026.084899902,-8771987.915039062,-8618014.335632324,-8300706.86340332,-1239535.0933074951,-1762205.1239013672,-10646320.343017578,-8542695.045471191,-8586036.682128906
0.435,-4826570.987701416,-23995014.190673828,-24909498.21472168,-4867537.021636963,-21962421.417236328,24672615.05126953,8637358.665466309,-7278460.0257873535,-7040921.688079834,-10500634.19342041,-16330892.562866211,-26122297.286987305,-47139232.63549805,-67254928.58886719,25306472.778320312,6857277.870178223,-6005824.565887451,-7004209.518432617,-7439487.457275391,-13821467.399597168,-24877735.137939453,-47641136.169433594,-56032192.23022461,26489866.256713867,9284991.264343262,-10075180.053710938,-14560477.256774902,-14691758.155822754,-19837163.9251709,-26796638.48876953,-28965394.973754883,-55621849.060058594,-1603431.1056137085,-4540735.721588135,-9003257.751464844,-16156127.9296875,-14935116.7678833,-5004748.821258545,-27446805.953979492,113694877.62451172,-14533987.045288086,-2030575.0370025635,-2040973.18649292,-5814168.930053711,-18784324.645996094,-23773481.369018555,-18770608.90197754,-13000857.35321045,-4465908.050537109,-19357696.533203125,-1812003.254890442,-1882592.0820236206,-2381070.137023926,-11645953.178405762,-7215901.851654053,-7110444.068908691,-7074861.526489258,-1201222.7773666382,-1624112.2484207153,-10462752.342224121,-6946578.9794921875,-7055175.304412842
0.44,-3378106.3556671143,-21713266.372680664,-20891399.383544922,-5213344.573974609,-18859064.10217285,22462907.791137695,7041700.839996338,-8446572.303771973,-8080386.161804199,-10719654.083251953,-15890109.062194824,-23375286.102294922,-40909366.607666016,-54923740.38696289,25803941.72668457,5429634.571075439,-6809230.327606201,-7773912.42980957,-8276226.997375488,-12841206.550598145,-21321914.672851562,-39875221.252441406,-44422409.05761719,27442520.141601562,10276598.930358887,-9730542.182922363,-14703430.17578125,-14668544.76928711,-17788913.72680664,-22578720.092773438,-22127708.435058594,-45744461.05957031,2865775.1083374023,-2885148.286819458,-6720887.660980225,-15997008.323669434,-14826420.783996582,-5134133.815765381,-23532226.5625,125989997.86376953,-7974794.387817383,2665540.6951904297,2491835.355758667,-4182922.36328125,-17417150.497436523,-22225397.10998535,-15999164.581298828,-9245207.786560059,1047220.4685211182,-12670234.680175781,2766023.874282837,2691042.66166687,2373800.039291382,-6249801.158905029,-928459.4655036926,-794704.3180465698,-705858.3498001099,3406733.0360412598,2996685.743331909,-5041405.200958252,-652816.9512748718,-993394.4344520569
0.445,-3688106.7752838135,-18512828.826904297,-14009738.92211914,-8125913.619995117,-15289834.022521973,11632958.41217041,1353331.9234848022,-12089198.112487793,-11498540.878295898,-12402628.898620605,-15547760.009765625,-19643638.610839844,-31249906.539916992,-32972408.294677734,20407552.71911621,577593.207359314,-10075073.2421875,-10867310.523986816,-10075623.512268066,-11705670.356750488,-16343772.888183594,-26379661.560058594,-22913230.895996094,22238485.33630371,7562340.259552002,-11781664.848327637,-16494791.030883789,-14984088.897705078,-15583892.822265625,-17108558.654785156,-9398000.717163086,-26986230.850219727,7137429.714202881,-1421059.6084594727,-6032068.729400635,-17330175.399780273,-15116616.249084473,-5225230.2169799805,-18153348.922729492,141915405.2734375,3624122.381210327,7000062.942504883,6859025.955200195,-3566478.2524108887,-17650255.20324707,-21069267.27294922,-13362030.029296875,-4366243.362426758,9726527.214050293,-2239547.9679107666,6927553.653717041,7113265.037536621,6844556.80847168,-2697222.948074341,6188205.242156982,6348992.347717285,6777075.290679932,7767026.424407959,7318551.063537598,-1306390.1662826538,6377730.369567871,5890029.9072265625
0.45,-5994035.243988037,-15211223.602294922,-6681047.9164123535,-10510668.754577637,-10592702.865600586,-2769365.072250366,-5084440.7081604,-14826918.601989746,-14123614.311218262,-12460965.156555176,-12725403.785705566,-13894035.339355469,-20623800.27770996,-11819808.006286621,10529880.52368164,-5527309.894561768,-13082364.082336426,-13648580.551147461,-10015768.051147461,-9182036.399841309,-10388003.3493042,-13196907.997131348,-3519544.1246032715,12258177.757263184,2388325.4528045654,-15501301.765441895,-18699638.36669922,-15407546.043395996,-13702330.589294434,-12380605.697631836,2099925.756454468,-13285840.98815918,4542119.979858398,-3745241.88041687,-8946208.000183105,-19907211.303710938,-15595178.604125977,-4772977.352142334,-14727042.198181152,148994079.58984375,11174204.82635498,4182791.7098999023,4234275.341033936,-7178560.733795166,-21042249.67956543,-22620613.09814453,-13626607.894897461,-3647740.8409118652,13028420.448303223,3282005.548477173,4134551.525115967,4453645.706176758,4162143.2304382324,-6159712.791442871,6597611.427307129,6687485.694885254,7351194.381713867,4960018.634796143,4552039.623260498,-4587370.872497559,6643541.8128967285,6295774.459838867
0.455,-9681082.725524902,-15039666.175842285,-4647862.911224365,-11876543.998718262,-8120913.505554199,-13475089.073181152,-10043174.743652344,-16033309.936523438,-15381799.697875977,-11450860.977172852,-9788206.100463867,-10092185.974121094,-15774947.166442871,-4852658.748626709,604883.61120224,-11098942.756652832,-14668618.202209473,-15099326.133728027,-8906515.121459961,-7192891.1209106445,-7357176.303863525,-9114374.160766602,1195774.793624878,2135218.381881714,-2684591.770172119,-18763326.64489746,-20203020.095825195,-15801087.379455566,-13307865.142822266,-11402828.216552734,4106212.1391296387,-16111288.070678711,-3405863.046646118,-10005794.525146484,-13347133.63647461,-21538909.912109375,-16057746.887207031,-4020290.8515930176,-15817933.082580566,145774765.01464844,7903411.388397217,-3978517.532348633,-3781929.4929504395,-12545813.56048584,-23802701.950073242,-24378646.850585938,-16225822.448730469,-8144459.7244262695,7334509.372711182,-1254782.5574874878,-3765332.4604034424,-3699150.800704956,-3891817.331314087,-11270299.911499023,-421441.6444301605,-454580.0983905792,101671.39023542404,-3314951.4198303223,-3606735.944747925,-9770338.05847168,-452439.15915489197,-490337.1036052704
0.46,-12592882.15637207,-18358516.693115234,-8632718.086242676,-13660511.016845703,-9917193.412780762,-18173324.584960938,-13713518.142700195,-17240423.20251465,-16622018.814086914,-11608522.415161133,-10099767.684936523,-11344866.752624512,-19008365.631103516,-11998602.867126465,-5764711.380004883,-15690437.316894531,-15858815.19317627,-16279800.415039062,-9046429.634094238,-7664938.449859619,-9255426.406860352,-14577827.453613281,-6975695.1332092285,-4292032.241821289,-6393880.844116211,-20520076.751708984,-20927583.694458008,-15919020.652770996,-14501068.115234375,-14315488.815307617,-2949775.6958007812,-29798639.29748535,-8893372.535705566,-15929224.967956543,-15773229.598999023,-20729017.25769043,-16199144.36340332,-3647783.2794189453,-19661420.822143555,138624374.38964844,-2085973.5012054443,-9404449.462890625,-9176037.788391113,-14139845.848083496,-21619937.896728516,-22796323.776245117,-17914014.81628418,-13200912.475585938,-1497157.6929092407,-11094901.084899902,-8911329.26940918,-9200779.914855957,-9253453.254699707,-10168805.122375488,-7606468.677520752,-7722472.667694092,-7454617.500305176,-8795911.78894043,-9059824.94354248,-8978411.674499512,-7574456.214904785,-7443595.409393311
0.465,-13241420.74584961,-21497373.580932617,-12728923.797607422,-15670290.94696045,-12812144.27947998,-19437208.17565918,-16141956.329345703,-18463603.973388672,-17713474.27368164,-12525609.016418457,-12266879.081726074,-14489502.906799316,-24284250.259399414,-20290048.599243164,-7705328.464508057,-18707130.432128906,-17025903.701782227,-17450618.743896484,-9881403.923034668,-9062738.418579102,-12653496.742248535,-20985551.834106445,-15438187.599182129,-6082711.696624756,-8740421.295166016,-21037618.63708496,-21044013.97705078,-15565421.104431152,-15704498.291015625,-17545808.792114258,-10767265.319824219,-38991416.931152344,-8621272.087097168,-17802885.055541992,-15840795.516967773,-18915716.17126465,-15828312.873840332,-3866302.490234375,-21983287.811279297,132462554.93164062,-9193984.031677246,-8934853.553771973,-8672969.818115234,-11356142.9977417,-16622354.507446289,-19207685.470581055,-17241357.803344727,-14487585.067749023,-5818032.741546631,-17698707.580566406,-8351593.017578125,-8667104.721069336,-8800827.026367188,-4924789.905548096,-9384066.581726074,-9546985.626220703,-9417628.288269043,-8123330.116271973,-8518468.856811523,-3941913.12789917,-9241465.56854248,-9171412.467956543
0.47,-12010794.639587402,-21254404.067993164,-11937765.121459961,-15406268.119812012,-12243826.866149902,-19165756.225585938,-15672286.033630371,-17509195.32775879,-16611377.716064453,-11499869.346618652,-11787176.132202148,-13859918.594360352,-24316556.930541992,-20172653.198242188,-6015444.278717041,-18705896.377563477,-16507154.46472168,-16865640.64025879,-8705613.136291504,-8259620.666503906,-12666744.232177734,-21402072.90649414,-16363851.547241211,-4181388.8549804688,-9380150.79498291,-20192060.470581055,-20161775.588989258,-14771760.940551758,-15301494.598388672,-17541246.41418457,-12724375.72479248,-36728157.04345703,-6836931.7054748535,-16206405.639648438,-15601605.415344238,-18462772.369384766,-14999986.64855957,-4215669.631958008,-20579017.639160156,128484298.70605469,-9021474.838256836,-7108651.638031006,-6750669.479370117,-9201224.327087402,-15072257.041931152,-18034454.345703125,-15940829.277038574,-12429791.450500488,-4046894.073486328,-17636373.51989746,-6596323.490142822,-6653425.693511963,-7094564.437866211,-4428268.4326171875,-7646443.843841553,-7853517.532348633,-7551831.245422363,-6010080.814361572,-6521497.2496032715,-3326913.1183624268,-7498552.7992248535,-7492208.957672119
0.475,-9381072.998046875,-17832216.262817383,-7344955.4443359375,-11335468.292236328,-7866917.133331299,-16345600.128173828,-11224137.306213379,-13336873.054504395,-12551045.417785645,-7814545.631408691,-7510631.561279297,-8737378.120422363,-18742084.503173828,-14193100.929260254,-1829697.2513198853,-15070565.223693848,-13008221.626281738,-13307620.04852295,-5122557.640075684,-4860623.836517334,-8784593.58215332,-17236604.690551758,-12331538.200378418,111371.32346630096,-7517346.8589782715,-17273733.139038086,-17876182.556152344,-13495563.507080078,-13194721.221923828,-14240999.221801758,-9243472.0993042,-29059164.04724121,-7174861.907958984,-13747889.518737793,-15268321.990966797,-19029134.75036621,-13664505.004882812,-4189356.3270568848,-16788225.173950195,126453552.24609375,-4515417.575836182,-7556810.8558654785,-7126013.75579834,-10446529.388427734,-18414531.707763672,-19912744.522094727,-15412629.127502441,-9811505.317687988,806128.0250549316,-13185760.498046875,-7100023.7464904785,-7041673.183441162,-7714831.829071045,-10508196.830749512,-6284899.711608887,-6473840.713500977,-5815486.431121826,-6440521.717071533,-6870780.467987061,-9151430.130004883,-6229511.260986328,-6148260.116577148
0.48,-4915759.563446045,-13106226.921081543,-2701724.052429199,-5142734.527587891,-3088961.601257324,-9980040.550231934,-4503624.439239502,-8061904.9072265625,-7638187.408447266,-4031139.850616455,-3017547.130584717,-3663396.8353271484,-12716823.57788086,-8968247.413635254,3997486.114501953,-9110977.172851562,-7801906.108856201,-8173001.289367676,-1823902.7261734009,-1346963.5248184204,-4427410.125732422,-13055788.040161133,-7912422.657012939,5979367.256164551,-2896731.6150665283,-12500498.77166748,-14489185.333251953,-11340062.141418457,-10258709.907531738,-10054143.905639648,-4102174.2820739746,-23674833.297729492,-6921108.722686768,-10787935.256958008,-12286135.67352295,-17787151.336669922,-11419444.08416748,-3685052.6332855225,-12877260.208129883,124069915.77148438,295450.50859451294,-7313733.100891113,-6909927.3681640625,-11298648.834228516,-20983354.568481445,-20594087.600708008,-14230364.799499512,-7784633.636474609,6459229.946136475,-7319409.370422363,-6832836.627960205,-6961416.721343994,-7584316.253662109,-14833494.186401367,-4749223.232269287,-4796336.650848389,-3906574.487686157,-6464735.507965088,-6726924.419403076,-13384955.406188965,-4715599.536895752,-4605965.614318848
0.485,538252.9497146606,-8818058.967590332,274586.82656288147,-81122.11525440216,-561187.3269081116,-1821384.1915130615,1485189.437866211,-4546612.739562988,-4383653.163909912,-2466295.9575653076,-1383065.5813217163,-2018875.8373260498,-9720903.396606445,-5914937.0193481445,10956356.048583984,-2822480.2017211914,-3320646.7628479004,-3864726.0665893555,-566510.4389190674,612686.9320869446,-1961823.582649231,-9771207.809448242,-3197896.4805603027,13072602.272033691,3803058.862686157,-7444504.737854004,-10809120.178222656,-8308614.730834961,-7190274.238586426,-6671815.395355225,534716.6061401367,-20888856.887817383,-2209450.9601593018,-5688215.255737305,-5528841.018676758,-13644041.061401367,-8309727.668762207,-2928678.7509918213,-9822299.003601074,118161766.0522461,4524051.189422607,-2439440.7272338867,-2119113.6837005615,-7321151.256561279,-18154668.8079834,-17545022.96447754,-10864175.796508789,-6075877.1896362305,11925502.77709961,-1605564.832687378,-1957741.2605285645,-2282425.880432129,-2680721.2829589844,-11116274.8336792,-731716.6924476624,-608650.6247520447,160308.03322792053,-1801490.1876449585,-2083894.0143585205,-9731894.493103027,-578930.139541626,-668430.3879737854
0.49,4093607.4256896973,-6508013.725280762,1863980.1740646362,2148563.3850097656,-20117.582753300667,4415234.565734863,5053855.895996094,-3245974.7791290283,-2978403.091430664,-2226597.785949707,-1352903.3660888672,-2336010.456085205,-8668881.4163208,-2878297.0905303955,17862834.930419922,2073489.4275665283,-723633.4681510925,-1356754.7798156738,24001.019075512886,1810243.2489395142,-643641.9486999512,-5972844.123840332,2611676.6929626465,20177087.783813477,10530273.4375,-3916287.1837615967,-7894495.487213135,-5785179.138183594,-4652472.972869873,-4253029.346466064,4150966.6442871094,-17289525.985717773,4751555.919647217,865744.5311546326,1450114.9654388428,-9569820.404052734,-5780860.900878906,-2312694.787979126,-7907430.648803711,110978385.92529297,8507972.717285156,4628309.24987793,4890528.678894043,-737191.3194656372,-13036221.504211426,-14106327.056884766,-7154198.169708252,-5131661.891937256,15243522.644042969,2406976.2229919434,5028634.071350098,4728421.688079834,4532706.260681152,-3969199.1806030273,3914562.940597534,4062746.047973633,4490838.050842285,5306113.719940186,4790873.5275268555,-2590054.0351867676,4155449.390411377,3823691.3681030273
