time,Fp1,Fpz,Fp2,AF3,AF4,F7,F5,F3,F1,Fz,F2,F4,F6,F8,FT7,FC5,FC3,FC1,FCz,FC2,FC4,FC6,FT8,T7,C5,C3,C1,Cz,C2,C4,C6,T8,TP7,CP5,CP3,CP1,CPz,CP2,CP4,CP6,TP8,P7,P5,P3,P1,Pz,P2,P4,P6,P8,PO7,PO5,PO3,POz,PO4,PO6,PO8,CB1,O1,Oz,O2,CB2
0.0,-1029989.2425537109,-1148306.4889907837,-789460.4206085205,-525092.6613807678,-920690.0000572205,-1157229.9003601074,-590920.2098846436,-526531.3386917114,-480795.59206962585,-225133.31472873688,-616284.4896316528,-959891.0808563232,-1524410.9630584717,-1267439.365386963,-904721.3196754456,-732219.6364402771,-520283.2818031311,-556272.1490859985,-562353.6109924316,-795877.1586418152,-952965.9748077393,-1235484.7192764282,-2767030.954360962,-879118.9789772034,-962040.7819747925,-932001.4715194702,-623205.2445411682,-756607.4728965759,-860474.1096496582,-1242781.5198898315,-1274925.1127243042,-2608483.5529327393,-1241895.4372406006,-564777.1954536438,-618901.3719558716,167035.9969139099,-924132.1682929993,-780041.9330596924,-1630502.700805664,-1547074.317932129,-1221823.4539031982,-1231725.573539734,-1223558.783531189,-629245.9964752197,-994147.002696991,-1644139.1706466675,-1509457.1113586426,-1444560.6470108032,-1649868.2498931885,-1781848.3114242554,-1755653.8581848145,-1727732.1815490723,-1757885.9329223633,-1438326.0011672974,-2817417.621612549,-1731957.3163986206,-1897243.0229187012,-1731390.357017517,-1759965.181350708,-1623069.0479278564,-2248935.6994628906,-1923449.2778778076
0.005,-4380139.350891113,-6645315.647125244,-6968582.1533203125,-4217917.919158936,-6320498.943328857,-17876916.885375977,-7259724.140167236,-4974078.65524292,-3586360.9313964844,-1813282.1321487427,-3652706.3846588135,-5798882.484436035,-8051067.352294922,1781807.0650100708,-11314624.786376953,-11224641.799926758,-5818908.69140625,-5477460.3843688965,-1797500.729560852,2148871.1833953857,-3103645.3247070312,-3070947.6470947266,-9668949.127197266,-10286813.735961914,-10274868.01147461,-17867540.35949707,-9592452.049255371,18095.526844263077,-1838751.196861267,-4629963.8748168945,-6333625.316619873,-13817921.63848877,-13479526.51977539,-10886687.278747559,-12252947.807312012,-4285395.14541626,849075.9134292603,-588739.9315834045,-2537155.866622925,-6221233.84475708,-7931289.6728515625,-13756607.055664062,-13833533.28704834,-12187365.531921387,-7189889.907836914,-8365748.405456543,683154.2253494263,-2287778.615951538,-7652084.3505859375,-4641891.956329346,-16857948.303222656,-15797832.489013672,-16170518.87512207,-12249951.362609863,-5640308.856964111,-5101033.2107543945,-7572732.925415039,-15613492.965698242,-16316171.646118164,-10924089.431762695,-11120555.877685547,-6340400.695800781
0.01,-5562650.203704834,-8604603.76739502,-9139873.504638672,-5179495.811462402,-7386351.108551025,-26143419.26574707,-9878007.888793945,-6654361.248016357,-4769994.258880615,-2077925.682067871,-4398385.047912598,-8234886.169433594,-11239854.81262207,1667109.9662780762,-18033477.783203125,-17144416.80908203,-7921036.720275879,-7354781.627655029,-2669260.025024414,3259853.6014556885,-3824426.8894195557,-4723142.623901367,-13536905.288696289,-16608634.948730469,-16751550.674438477,-26257108.688354492,-14946543.69354248,-199195.90651988983,-2800622.4632263184,-7001011.371612549,-9609171.867370605,-20327316.284179688,-22036481.857299805,-17285619.735717773,-19232915.8782959,-8408432.006835938,545771.4796066284,-1535362.8396987915,-4453457.832336426,-8692969.32220459,-10927999.496459961,-22333139.419555664,-22326076.50756836,-19237413.40637207,-11950570.106506348,-11639101.028442383,162295.26698589325,-3626415.729522705,-9927223.205566406,-6415409.564971924,-26114006.04248047,-24688955.307006836,-25238855.361938477,-19193181.99157715,-9229820.251464844,-8116718.292236328,-11001380.920410156,-24546344.757080078,-25415981.29272461,-18328510.284423828,-16834096.908569336,-12627732.276916504
0.015,-5188954.830169678,-7749391.555786133,-7094121.45614624,-4348090.171813965,-4808494.567871094,-25736366.271972656,-9195133.209228516,-6266551.494598389,-4642950.534820557,-1324290.2755737305,-3306482.5534820557,-8611038.208007812,-11347401.61895752,-768867.4926757812,-19628162.384033203,-17907697.677612305,-7440770.149230957,-6935328.960418701,-3459588.5276794434,1840554.5949935913,-3884287.3573303223,-6404930.591583252,-14728128.433227539,-18351804.733276367,-19163696.2890625,-26082370.75805664,-16746589.660644531,-1417257.0705413818,-4545775.890350342,-8814908.981323242,-11106546.401977539,-22319864.27307129,-25635730.743408203,-19207258.224487305,-21032876.96838379,-10799635.887145996,-2281134.1285705566,-4190496.9215393066,-8063024.520874023,-9575204.849243164,-10474374.771118164,-25664289.474487305,-25550771.713256836,-21186803.817749023,-14906019.21081543,-13343374.252319336,-4310057.640075684,-6395294.666290283,-10681309.700012207,-7949316.501617432,-29212329.864501953,-28035581.588745117,-28614049.911499023,-23104885.10131836,-15128211.02142334,-12516646.385192871,-13519138.33618164,-28057207.107543945,-28733314.514160156,-23302530.28869629,-20301345.825195312,-18346345.901489258
0.02,-3745201.1108398438,-5722117.4240112305,-3007318.4967041016,-3559500.6942749023,-1475452.3038864136,-21742095.947265625,-7981585.502624512,-5507307.052612305,-4201106.071472168,-214683.23469161987,-1693155.7655334473,-7756151.19934082,-9332533.836364746,-681896.9249725342,-16132610.321044922,-15384045.600891113,-6454995.632171631,-6176715.850830078,-3919726.3717651367,-347242.0871257782,-3744090.0802612305,-6538368.701934814,-13258300.78125,-15064303.398132324,-17556776.04675293,-23387378.692626953,-17003444.67163086,-2657307.1479797363,-6566557.40737915,-9681909.561157227,-10414614.6774292,-21214914.321899414,-23573259.353637695,-17754318.237304688,-19359016.41845703,-10638096.809387207,-5340940.952301025,-6895129.203796387,-11202654.838562012,-9059445.38116455,-7982869.1482543945,-23267929.077148438,-23260236.740112305,-19547964.096069336,-15717030.52520752,-16061517.715454102,-9799658.77532959,-9155069.351196289,-12625399.589538574,-8425724.029541016,-27753828.048706055,-26816549.30114746,-27470161.43798828,-25547264.099121094,-21324825.286865234,-17220455.169677734,-15091814.994812012,-26875564.575195312,-27513088.22631836,-24535949.70703125,-21943862.915039062,-17141996.383666992
0.025,515140.8314704895,-1445539.2360687256,1544440.1502609253,-1819651.9613265991,2188215.732574463,-16908800.12512207,-6197466.3734436035,-3634909.152984619,-2367568.7313079834,1670224.905014038,787168.6816215515,-4746336.936950684,-4178503.99017334,5281105.041503906,-8358179.092407227,-10710002.899169922,-4695949.077606201,-4456284.523010254,-2802735.0902557373,-309868.63374710083,-1625687.7183914185,-2228189.706802368,-6714295.864105225,-7317451.477050781,-12861780.166625977,-21942178.72619629,-16253978.729248047,-2991712.3317718506,-6248142.242431641,-7346233.367919922,-5880904.674530029,-15801389.694213867,-15201079.368591309,-13399203.300476074,-15074713.706970215,-9521869.659423828,-5497141.8380737305,-6402106.285095215,-9629696.8460083,-4857644.557952881,-2840440.511703491,-14723771.095275879,-14959819.793701172,-15120643.615722656,-13847735.404968262,-17495292.66357422,-10738907.814025879,-7855582.714080811,-12526427.268981934,-4014238.3575439453,-20969255.447387695,-19853855.13305664,-20768770.217895508,-24341476.440429688,-21523849.487304688,-16151187.896728516,-11149165.153503418,-19829002.380371094,-20715951.919555664,-19698583.602905273,-18167924.880981445,-5739009.857177734
0.03,7543551.445007324,5267963.886260986,5237777.7099609375,2433805.9425354004,6597068.786621094,-11093537.330627441,-2326642.5132751465,577594.2206382751,1828636.2886428833,4541167.736053467,4472417.831420898,204416.1707162857,3141596.3172912598,13630236.625671387,613325.8938789368,-4759929.180145264,-916627.8839111328,-432053.804397583,88787.89097070694,2300827.980041504,2891014.814376831,5436367.034912109,3503013.3724212646,1685854.7925949097,-7456822.872161865,-20840312.957763672,-14075017.929077148,-2450353.8608551025,-2662112.7128601074,-1849396.5864181519,1192739.725112915,-6937086.10534668,-4005244.255065918,-7690431.594848633,-9590914.726257324,-9793185.234069824,-2664280.1761627197,-2111180.305480957,-3214871.406555176,2719919.443130493,4254850.8644104,-3549712.896347046,-3875496.8643188477,-9447315.216064453,-10617646.217346191,-14824623.107910156,-5906108.379364014,-1709583.044052124,-6727885.723114014,5457652.0919799805,-10156587.600708008,-8656429.290771484,-9884731.29272461,-18170106.887817383,-13703558.921813965,-6848187.446594238,-475352.6449203491,-8652732.849121094,-9716736.793518066,-10415634.155273438,-8160660.743713379,9378405.570983887
0.035,13145124.435424805,10458969.116210938,6109483.71887207,7534628.391265869,9760248.184204102,-5544615.745544434,2505793.571472168,5463461.875915527,6520980.358123779,7181629.657745361,7507391.929626465,3468019.0086364746,7126312.732696533,17115774.154663086,5999771.1181640625,329356.96840286255,3734898.567199707,4361472.129821777,2823182.3444366455,4237802.505493164,6089283.9431762695,10074513.43536377,9444791.793823242,7061384.677886963,-4143187.5228881836,-18739412.307739258,-11372981.071472168,-1582811.8324279785,840847.9690551758,2155849.6952056885,5092643.737792969,-1479988.4557724,2083303.2131195068,-4270071.983337402,-6289756.298065186,-11324904.441833496,179950.95252990723,1952004.075050354,1845170.9747314453,7869400.978088379,8427456.855773926,2431390.5239105225,2270100.5935668945,-6058604.717254639,-9149651.527404785,-10893637.657165527,-828902.9598236084,3671417.9515838623,548818.5286521912,12649568.557739258,-2773773.670196533,-1132657.1702957153,-2429494.857788086,-12099196.434020996,-5327711.582183838,2849776.268005371,8649021.14868164,-1307794.451713562,-2221352.5772094727,-4046525.9552001953,478547.8711128235,16425537.109375
0.04,14446064.949035645,11092513.084411621,3731751.9187927246,10484609.603881836,9753477.096557617,-2863867.0444488525,5452088.356018066,8204881.66809082,9118515.014648438,8602507.591247559,8042423.248291016,2323538.303375244,4319102.2872924805,13980073.928833008,5825777.053833008,2755245.4471588135,6729259.967803955,7110871.315002441,3799960.3748321533,3139751.91116333,4855307.579040527,7811389.923095703,6320306.301116943,6880373.001098633,-3343153.953552246,-16490642.547607422,-9649879.455566406,-403362.3933792114,770844.9363708496,1016389.6083831787,2579452.7530670166,-4849257.469177246,-1047106.146812439,-4945896.625518799,-6983101.367950439,-11841894.149780273,1470813.6320114136,1770157.6948165894,715681.1356544495,6565077.304840088,6192270.755767822,-841628.4918785095,-747475.5048751831,-6783420.562744141,-10456047.058105469,-10291507.720947266,-327019.72126960754,3030241.2509918213,1880815.3867721558,11155453.6819458,-5192522.048950195,-3781473.398208618,-4809808.731079102,-12413722.038269043,-4483770.370483398,3579326.1528015137,7707572.937011719,-4055259.7045898438,-4704341.888427734,-6068286.418914795,-16299.048438668251,11358355.522155762
0.045,13994124.412536621,9882429.122924805,634803.4143447876,10976754.188537598,8236057.281494141,-3324436.664581299,5819978.713989258,8513625.144958496,9567781.448364258,9412457.466125488,7110470.294952393,-562554.2998313904,-577487.2303009033,10367909.43145752,3103541.374206543,2914274.215698242,7392260.0746154785,7494100.093841553,3830929.756164551,998577.7735710144,2113707.5424194336,3282095.9091186523,285973.81711006165,4148501.396179199,-3050403.594970703,-15489199.6383667,-9030007.362365723,1280715.1079177856,-1417353.1532287598,-2245944.9768066406,-1605666.2797927856,-12360970.497131348,-8061683.654785156,-6980429.649353027,-9052839.279174805,-10607835.76965332,2522434.4730377197,-1391518.473625183,-3145049.571990967,3219502.4490356445,1682627.558708191,-8088557.243347168,-7775468.826293945,-8936153.411865234,-11975808.143615723,-12156478.881835938,-2228792.428970337,-1121055.1261901855,-2229521.0361480713,4818975.925445557,-13797646.522521973,-12741238.594055176,-13431154.251098633,-17865684.509277344,-9435658.45489502,-2919365.644454956,78707.52364397049,-12843379.020690918,-13455745.697021484,-12979398.727416992,-6767965.316772461,2271320.8198547363
0.05,14051953.315734863,9884188.652038574,-1270691.156387329,10154509.544372559,7415338.99307251,-5233971.59576416,4668794.631958008,7531240.463256836,8827787.399291992,9767402.648925781,6473219.394683838,-1122864.1271591187,-1064128.041267395,11115014.07623291,1326422.929763794,1591353.2972335815,6358314.990997314,6647850.99029541,3967154.9797058105,794303.297996521,2827280.282974243,2963457.1075439453,-741024.2557525635,2289233.684539795,-2618979.6924591064,-16291868.209838867,-9217145.919799805,2423748.9700317383,-1889775.5146026611,-2339737.6537323,-1204182.6248168945,-15171671.867370605,-11343914.031982422,-7457208.156585693,-9532435.417175293,-9702493.667602539,3466201.5438079834,-3130515.0985717773,-3453681.468963623,4073459.1484069824,1588195.4431533813,-11690305.709838867,-11174839.973449707,-9493062.973022461,-12068789.4821167,-12782827.377319336,-2421159.029006958,-2653056.6215515137,-4644227.027893066,2164598.9418029785,-19783891.677856445,-18954635.620117188,-19557821.27380371,-21968709.94567871,-13214422.225952148,-7376709.938049316,-4219532.9666137695,-18739681.243896484,-19554613.11340332,-17445945.739746094,-11034005.165100098,-2038532.9723358154
0.055,11273658.752441406,8235675.811767578,-3744986.2957000732,7325499.057769775,5809257.030487061,-8182861.328125,1822685.4801177979,4763724.803924561,6082565.784454346,7932953.357696533,5196557.521820068,-504519.522190094,1053845.5247879028,12424620.628356934,87890.1332616806,-1748673.0813980103,3265456.9149017334,4034987.449645996,2985881.805419922,1601332.7836990356,5913236.618041992,5254357.814788818,383482.78403282166,972840.7263755798,-4022113.32321167,-18890869.140625,-10958136.558532715,1055355.6680679321,-801193.4161186218,-30680.74770271778,1919430.4943084717,-13169372.55859375,-10693303.108215332,-7737052.440643311,-9649065.017700195,-10625749.588012695,1694361.5674972534,-2340788.8412475586,-872677.9818534851,7039885.997772217,5264293.193817139,-11283305.168151855,-10618336.67755127,-9642482.75756836,-13011284.828186035,-12757083.892822266,-2211236.7153167725,-1276125.6694793701,-3247534.75189209,4061251.640319824,-20727352.142333984,-19964797.973632812,-20733646.392822266,-22545478.82080078,-14874769.21081543,-6983903.884887695,-3331368.6847686768,-19550962.448120117,-20536157.608032227,-18220226.287841797,-11135710.716247559,-2792021.9898223877
0.06,3092571.73538208,1664832.353591919,-8662224.769592285,1943295.7172393799,1442273.497581482,-12574942.588806152,-3018486.976623535,-264968.603849411,899181.7831993103,3428672.7905273438,1672252.7742385864,-2994145.8702087402,-1422445.8932876587,8214749.336242676,-2428210.735321045,-6630205.154418945,-1798588.0374908447,-904726.9821166992,-406124.2640018463,340504.79531288147,5415233.135223389,3244953.155517578,-4715106.48727417,-1439688.4441375732,-7798527.717590332,-22288270.950317383,-14130970.001220703,-2900848.388671875,-1916279.911994934,-860207.6172828674,574085.8912467957,-14410512.924194336,-10992375.373840332,-10052728.652954102,-11694759.368896484,-11673055.648803711,-3095331.1920166016,-2202812.433242798,-1437758.445739746,5209857.940673828,5861638.54598999,-11580694.198608398,-10954405.784606934,-11650167.465209961,-16535604.476928711,-15126090.049743652,-4992866.516113281,-2011538.7439727783,-3292614.9368286133,4173449.993133545,-20917274.475097656,-20136764.526367188,-21051374.435424805,-22862197.875976562,-18295280.45654297,-7255487.442016602,-4031900.405883789,-19723974.227905273,-20669240.951538086,-19394853.591918945,-12399625.778198242,-5776312.351226807
0.065,-4523309.707641602,-5121686.4585876465,-13415809.631347656,-2554033.2794189453,-2849604.606628418,-16602569.580078125,-7068773.26965332,-4542780.39932251,-3367758.274078369,-135305.9858083725,-2175092.6971435547,-8330148.696899414,-9164171.21887207,527370.7509040833,-5170268.0587768555,-9782291.412353516,-5682931.423187256,-5158623.695373535,-4156700.1342773438,-2750669.9562072754,-211552.56032943726,-3892670.3929901123,-15141901.016235352,-3926018.476486206,-10749394.416809082,-24148921.966552734,-15870561.599731445,-6273386.9552612305,-6000285.625457764,-6042278.76663208,-6335788.726806641,-22009860.99243164,-13245815.27709961,-12345830.917358398,-13845451.354980469,-10734910.96496582,-6280333.518981934,-4753332.138061523,-6437223.434448242,-1355036.973953247,1061102.5094985962,-13626646.041870117,-13213582.992553711,-13725875.854492188,-19341587.06665039,-18401287.078857422,-8568778.991699219,-6115642.070770264,-7280337.810516357,393178.0755519867,-22133756.637573242,-21290964.126586914,-22153339.385986328,-24152873.992919922,-22461219.787597656,-10599321.365356445,-8563263.893127441,-20960781.09741211,-21736076.35498047,-21624488.830566406,-15876644.134521484,-10241031.646728516
0.07,-3389080.762863159,-4315992.832183838,-13810540.199279785,-1409802.9136657715,-2343295.3357696533,-17195461.27319336,-6264668.941497803,-3744661.0927581787,-2283089.8761749268,1356470.227241516,-2455302.2384643555,-11180042.266845703,-14427667.617797852,-2543657.3028564453,-5397715.091705322,-8456624.984741211,-4535602.09274292,-4325060.844421387,-4734556.674957275,-4172426.223754883,-5261195.182800293,-8997041.702270508,-20935235.97717285,-4005352.9739379883,-9986733.436584473,-22837638.85498047,-13642917.63305664,-5859480.381011963,-8922628.402709961,-10187079.429626465,-11729341.506958008,-29351072.311401367,-13901824.951171875,-10924743.65234375,-12532721.519470215,-9397359.848022461,-4243272.304534912,-7723186.016082764,-10267434.120178223,-5192898.273468018,-3491976.499557495,-14065392.49420166,-13826872.825622559,-12387141.227722168,-17310949.325561523,-18029771.80480957,-7611954.212188721,-8876995.086669922,-10444771.766662598,-2215463.638305664,-21546020.5078125,-20621940.61279297,-21323703.76586914,-23628644.943237305,-22113849.639892578,-12305952.072143555,-10997277.25982666,-20370283.126831055,-21012191.772460938,-20976730.346679688,-16368654.251098633,-10638554.573059082
0.075,4435412.883758545,2860017.2996520996,-10599728.58428955,4758065.223693848,2161290.407180786,-14146944.999694824,-790286.8986129761,1877735.1379394531,3565233.7074279785,6693820.476531982,918440.8187866211,-9015513.42010498,-12388265.609741211,1432601.9287109375,-2589425.0869750977,-4190620.4223632812,1030818.2239532471,1292447.0901489258,-2224747.4193573,-2759995.698928833,-5034434.3185424805,-7492840.29006958,-18072229.385375977,-1302124.1426467896,-6898919.582366943,-19624137.87841797,-9551803.588867188,-2611497.640609741,-7765107.154846191,-9485380.172729492,-10841371.536254883,-30417289.73388672,-11756765.365600586,-6680333.137512207,-8525293.350219727,-11430685.043334961,56468.46443414688,-8029065.132141113,-9327511.78741455,-3154644.727706909,-2990977.0488739014,-11806246.757507324,-11607203.483581543,-8424517.631530762,-12315449.714660645,-14371961.59362793,-2871819.019317627,-7638359.069824219,-9405469.89440918,-958117.7234649658,-18840988.159179688,-17865657.806396484,-18472326.278686523,-20744314.193725586,-18113504.40979004,-10131662.368774414,-8541635.513305664,-17742631.912231445,-18331960.678100586,-17072692.87109375,-12762034.41619873,-7173586.368560791
0.08,8850090.026855469,7349416.255950928,-8430880.546569824,10044976.234436035,5293683.5289001465,-10290445.327758789,4548072.814941406,7267065.048217773,8760787.963867188,10605602.264404297,3878227.710723877,-5564269.065856934,-7584632.396697998,6102112.770080566,1678658.127784729,-520825.20723342896,6197035.312652588,6456674.575805664,-422149.6880054474,-1355820.4174041748,-2123748.540878296,-3551675.0812530518,-13608914.375305176,2749648.5710144043,-4355146.408081055,-17056753.158569336,-8275027.275085449,-589855.4921150208,-5076911.926269531,-7049149.990081787,-7518545.150756836,-27873491.287231445,-9315505.027770996,-3820358.991622925,-5824083.32824707,-17186252.59399414,1437120.9144592285,-5986604.2137146,-7073699.951171875,-753266.8113708496,43536.89029812813,-9313104.629516602,-9189723.014831543,-5755489.826202393,-9908001.899719238,-12759048.461914062,-985452.8307914734,-6098412.990570068,-8282227.516174316,-155559.13746356964,-17843343.73474121,-16844829.559326172,-17480735.778808594,-19149379.73022461,-17874702.45361328,-9245638.847351074,-6888617.038726807,-16954627.990722656,-17490861.892700195,-15323389.053344727,-11253283.500671387,-6213762.7601623535
0.085,6394608.974456787,6029502.868652344,-8254461.288452148,10639127.731323242,5439534.1873168945,-7972681.522369385,6068059.44442749,8656762.12310791,9686484.336853027,10836655.616760254,4264634.132385254,-4586353.302001953,-6061282.634735107,6213367.938995361,5849879.741668701,1330572.7243423462,7606399.059295654,7470757.484436035,-1353579.8788070679,-1836027.0261764526,-1376862.0491027832,-2827858.2096099854,-13829171.180725098,6797406.6734313965,-2603398.084640503,-15941561.698913574,-10826333.999633789,-1591016.411781311,-4649544.715881348,-7307851.791381836,-7241049.766540527,-27234323.501586914,-7854180.335998535,-3521301.9847869873,-5504961.967468262,-22413166.046142578,-107906.30429983139,-4260357.37991333,-7698044.776916504,-2553962.469100952,922181.8447113037,-7830533.981323242,-7926347.732543945,-5411015.98739624,-11242364.883422852,-15297745.704650879,-4388354.778289795,-7875638.484954834,-11419425.010681152,-3181066.2746429443,-19634002.685546875,-18558582.305908203,-19318014.14489746,-20473703.384399414,-23322193.145751953,-13216918.9453125,-10135725.975036621,-18905189.514160156,-19336244.583129883,-18651777.267456055,-15081124.305725098,-9969131.469726562
0.09,4822360.515594482,6196288.585662842,-5502094.268798828,8799742.698669434,6925583.839416504,-7661957.740783691,4798448.085784912,7209913.25378418,8093535.423278809,10623839.378356934,4802674.770355225,-4246972.08404541,-6435996.532440186,4980392.932891846,7983792.781829834,2032251.1196136475,6395179.271697998,5969310.283660889,-2452758.550643921,-1851954.8177719116,-2127493.6199188232,-3968784.0938568115,-15411888.122558594,8938167.572021484,-1023760.0803375244,-15749248.504638672,-13352459.907531738,-3049082.2792053223,-5724126.33895874,-8914753.913879395,-8832267.761230469,-28371328.353881836,-6603324.413299561,-3483185.5297088623,-5305027.008056641,-23704431.533813477,-497613.9962673187,-3990946.7697143555,-9401538.848876953,-4947409.152984619,-132410.58588027954,-6648705.959320068,-6877933.502197266,-5235699.17678833,-12435678.482055664,-18312509.536743164,-7592737.674713135,-10478767.395019531,-15448442.459106445,-6306084.632873535,-20557718.27697754,-19325431.82373047,-20267942.428588867,-21578910.82763672,-26784482.955932617,-17090705.87158203,-13325079.917907715,-19724021.911621094,-20073816.299438477,-22861747.74169922,-18714731.216430664,-13340103.149414062
0.095,11049193.382263184,13935733.795166016,2824376.8215179443,8649678.230285645,12821631.43157959,-8993930.81665039,3833500.1468658447,6155529.499053955,7561999.320983887,13305930.137634277,8486397.743225098,-643654.4060707092,-3269044.876098633,8369227.409362793,5978328.227996826,1591999.5307922363,5419891.357421875,5512073.993682861,-532371.8190193176,1245938.0626678467,178494.58754062653,-1679256.6776275635,-12213232.040405273,6992993.8316345215,-1089548.7070083618,-16705316.543579102,-12535176.277160645,-2263053.6556243896,-4505627.155303955,-7200128.555297852,-7311886.787414551,-27429275.512695312,-6363992.214202881,-2976003.646850586,-4617484.569549561,-22610555.64880371,1973297.9536056519,-3751935.0051879883,-7579707.145690918,-2406635.522842407,252073.34756851196,-6579912.185668945,-6595479.965209961,-4739226.818084717,-11635497.093200684,-18495677.947998047,-5413283.348083496,-9310707.092285156,-14339613.914489746,-4729076.385498047,-18974708.557128906,-17636966.705322266,-18747625.35095215,-20318897.247314453,-22726671.21887207,-15028221.130371094,-10641248.70300293,-17846456.52770996,-18246019.36340332,-23552782.05871582,-16718420.028686523,-12695432.662963867
0.1,21252250.67138672,24784523.010253906,12835968.971252441,10790212.631225586,19792909.622192383,-10643780.708312988,4392896.65222168,6720277.786254883,8900164.604187012,17337583.541870117,13480329.513549805,5391581.5353393555,3610149.145126343,15693331.718444824,1373965.0249481201,312543.45178604126,5745364.665985107,6896368.503570557,3341186.761856079,5477704.5249938965,5967957.973480225,4374614.715576172,-5027981.281280518,2442065.2389526367,-3511963.129043579,-18840961.456298828,-9466937.065124512,-511313.8556480408,-266835.42132377625,-1798060.655593872,-2086534.2617034912,-23953748.70300293,-8390291.213989258,-3346146.34513855,-4928389.549255371,-22549591.064453125,5565294.7425842285,-1964035.7494354248,-1992337.8229141235,3878413.677215576,2705672.5025177,-8758001.327514648,-8360408.782958984,-5318068.981170654,-11164001.46484375,-16251050.94909668,394663.5127067566,-4502490.043640137,-8862102.508544922,41286.47223114967,-17933086.395263672,-16672311.782836914,-17809480.667114258,-18961713.790893555,-16216295.24230957,-9471065.521240234,-4874466.896057129,-16634634.017944336,-17180381.774902344,-22470146.17919922,-12041316.986083984,-10942106.246948242
0.105,26443464.279174805,29746877.670288086,17670013.427734375,12348570.823669434,22064636.23046875,-10531704.902648926,5224314.6896362305,7586451.053619385,9935770.034790039,18380098.342895508,14824195.861816406,8372701.644897461,7952764.987945557,20045692.443847656,-221386.96908950806,80652.72867679596,6316214.084625244,7944260.597229004,4793295.383453369,6089913.368225098,9595944.40460205,8366834.64050293,-267764.53852653503,864235.8183860779,-4929660.797119141,-20118873.596191406,-7435026.6456604,-882354.7959327698,3135687.5896453857,2197900.5336761475,2120613.3365631104,-21528841.018676758,-10119693.756103516,-3861024.1413116455,-5548041.343688965,-23692998.8861084,8877461.433410645,900600.016117096,2809268.4745788574,8051292.419433594,4811836.242675781,-10527171.13494873,-9915460.586547852,-6054127.6931762695,-11853529.930114746,-12405530.92956543,5102749.347686768,-28830.628842115402,-5087314.605712891,3335144.7582244873,-18856302.26135254,-17756475.4486084,-18742565.155029297,-19089725.494384766,-14559199.333190918,-6537163.257598877,-2404038.190841675,-17659563.064575195,-18284162.521362305,-22859975.814819336,-10257004.737854004,-11202566.146850586
0.11,23254812.240600586,25939374.923706055,14589269.638061523,10669836.99798584,17841724.395751953,-8831028.938293457,4382870.674133301,6747270.584106445,8342000.0076293945,14720873.832702637,10325573.921203613,4859238.147735596,5071125.030517578,16883737.564086914,3449194.1928863525,1273901.2241363525,5466495.990753174,6403165.817260742,1455260.2767944336,1741296.0529327393,6552165.508270264,5913463.115692139,-2074736.5951538086,4523936.2716674805,-2307236.433029175,-18655055.99975586,-8076010.704040527,-3347387.3138427734,2270595.3121185303,884669.4827079773,1710596.5614318848,-22588615.41748047,-7916702.747344971,-2227277.994155884,-4059357.166290283,-23735202.78930664,11499550.819396973,2781185.3885650635,3269388.6756896973,7531158.924102783,5194412.2314453125,-8316572.189331055,-7800287.246704102,-4460593.700408936,-10936504.364013672,-6987347.12600708,7253009.31930542,2061851.5014648438,-5200082.778930664,4339554.309844971,-18573667.526245117,-17465272.903442383,-18278661.727905273,-17951240.53955078,-16332475.662231445,-6207465.171813965,-3217676.1627197266,-17523509.979248047,-18087657.928466797,-23012346.267700195,-10586775.779724121,-11661783.218383789
0.115,16017963.409423828,17885858.5357666,6851691.246032715,6227838.516235352,10595992.088317871,-8912457.466125488,1358742.8331375122,3661267.9958343506,4263144.969940186,9166544.914245605,3402526.85546875,-1990006.685256958,-2228500.8430480957,9083251.953125,6698419.570922852,678721.2491035461,2650710.105895996,2457231.283187866,-3944910.2878570557,-3552246.332168579,-263427.2873401642,-378634.15479660034,-8706626.892089844,7794151.782989502,1191584.3486785889,-16185253.143310547,-10593284.606933594,-4796949.863433838,-1508634.090423584,-3599461.078643799,-1832296.371459961,-25937471.389770508,-4029308.319091797,363762.7959251404,-1475802.4215698242,-22608852.38647461,12028431.89239502,2139290.8096313477,400605.55934906006,4901301.860809326,4572952.2705078125,-4455240.249633789,-4077466.4878845215,-1734001.636505127,-7870766.162872314,-2499844.0742492676,7864921.569824219,2868602.752685547,-5668891.429901123,5216888.904571533,-15660483.360290527,-14310632.705688477,-15112813.949584961,-13728916.16821289,-15296262.741088867,-4076216.220855713,-2803676.128387451,-14513620.376586914,-15005952.835083008,-19810337.06665039,-8780390.739440918,-10387355.80444336
0.12,11227149.963378906,11815147.399902344,457676.7683029175,2741869.4496154785,5998781.681060791,-12134857.177734375,-1589862.9426956177,609768.3906555176,941175.0435829163,6303490.63873291,118479.73614931107,-5391067.981719971,-6799443.244934082,3338223.695755005,3946794.9867248535,-3501361.608505249,-200771.21257781982,-803104.6390533447,-6175724.506378174,-5069300.174713135,-3722285.032272339,-4181585.7887268066,-14618051.528930664,5104578.495025635,200751.70695781708,-16021362.3046875,-13012730.598449707,-3809003.5915374756,-3916019.2012786865,-6115151.882171631,-4657523.632049561,-28832500.457763672,-4284470.081329346,13275.55626630783,-1674496.054649353,-22973157.88269043,9761635.780334473,-639289.4387245178,-2260474.681854248,3272835.9699249268,3380452.1560668945,-4703760.623931885,-4325896.739959717,-1936814.785003662,-6933682.918548584,-2937280.8933258057,6964601.516723633,3111801.6242980957,-4439315.7958984375,5640096.187591553,-13921310.424804688,-12356088.638305664,-13280415.534973145,-10256744.384765625,-11436625.480651855,-721722.7220535278,-1195167.064666748,-12511775.016784668,-13053113.93737793,-15608079.91027832,-5560119.152069092,-9949187.278747559
0.125,12507225.036621094,11697408.676147461,76933.42864513397,4023055.5534362793,7971965.312957764,-13969993.591308594,-977156.5794944763,1164101.243019104,2056245.3269958496,8539822.578430176,3592722.6543426514,-1985431.3135147095,-4917593.479156494,3372416.0194396973,-688775.6586074829,-6855534.553527832,193909.10863876343,144189.11933898926,-2928565.263748169,-2456882.4768066406,-866494.2383766174,-2658553.6003112793,-14701273.918151855,432250.9169578552,-4043978.691101074,-17848524.09362793,-13391464.233398438,-2580756.187438965,-2885924.1008758545,-4750525.951385498,-4960052.013397217,-29287555.694580078,-8145251.274108887,-2977246.9997406006,-4519817.82913208,-25679508.209228516,7598805.904388428,-3801721.5728759766,-2593097.686767578,3049959.182739258,1110085.129737854,-8448023.796081543,-8076730.728149414,-4881139.278411865,-10510580.062866211,-7573557.376861572,4285629.2724609375,1804067.2540664673,-4557715.41595459,3109714.5080566406,-15574313.163757324,-14092967.987060547,-15082785.606384277,-11890465.73638916,-11052764.892578125,-1931454.8969268799,-3046880.9604644775,-14107624.053955078,-14743288.040161133,-15625546.4553833,-5705992.221832275,-12648941.993713379
0.13,18218883.514404297,17381675.720214844,5769075.870513916,9248078.346252441,15098039.627075195,-10160180.09185791,3327919.0063476562,5526571.273803711,6987501.621246338,13829565.048217773,10728552.81829834,4520171.642303467,75850.4569530487,7020997.047424316,831616.1632537842,-4403599.262237549,4171815.872192383,4839207.172393799,2581503.6296844482,512054.7413825989,4029856.2049865723,891876.6379356384,-9142641.067504883,1695015.31124115,-5306641.101837158,-18314664.840698242,-11368576.049804688,-3215955.0189971924,-572538.3162498474,-2503896.474838257,-4181855.2017211914,-27221815.10925293,-8551548.00415039,-3568034.6488952637,-5122892.8565979,-27912302.017211914,8882248.878479004,-6042425.155639648,-1717761.3973617554,2709645.2713012695,-2069001.1978149414,-8731430.053710938,-8522447.58605957,-5487309.93270874,-14382411.95678711,-10732153.89251709,1047033.6675643921,-1499093.770980835,-9061621.66595459,-2328493.83354187,-16518581.39038086,-15359169.006347656,-16287851.333618164,-16815246.58203125,-17112194.061279297,-9409089.088439941,-9505994.79675293,-15355891.227722168,-15971673.965454102,-19981409.072875977,-10267356.872558594,-15572229.385375977
0.135,22246263.50402832,23637376.78527832,12244475.364685059,12592327.117919922,20607076.64489746,-4751556.873321533,6461061.000823975,8793377.876281738,10154665.94696045,16973178.86352539,14740136.14654541,7300406.455993652,2017031.6696166992,9179617.881774902,6983922.004699707,690166.4137840271,7251784.801483154,8047286.033630371,4899919.509887695,425811.2609386444,5153380.393981934,1395018.219947815,-4615932.464599609,7513475.41809082,-2763377.904891968,-16869348.526000977,-9106268.882751465,-4375987.529754639,-228962.83864974976,-3056263.6852264404,-4830835.342407227,-25064420.700073242,-3678608.6559295654,-284007.7579021454,-1979671.9551086426,-27264152.52685547,11882794.380187988,-7435702.323913574,-2425587.4156951904,856586.3966941833,-4885030.746459961,-3882084.369659424,-3851872.682571411,-2194763.660430908,-14103594.779968262,-9995532.035827637,-1634832.501411438,-5360260.009765625,-15901928.901672363,-7539019.1078186035,-13286262.512207031,-12373020.17211914,-13255547.523498535,-20150787.353515625,-25291938.78173828,-17334138.870239258,-15966690.063476562,-12483284.950256348,-12999365.80657959,-23743413.9251709,-15203725.814819336,-15113956.451416016
0.14,19864883.422851562,24005159.378051758,13499197.006225586,9876175.880432129,18847040.1763916,-5588254.451751709,4207626.819610596,6621104.717254639,7483091.831207275,14505065.91796875,11979976.654052734,4054154.396057129,-801268.458366394,7386614.3226623535,7789187.431335449,533190.0119781494,5271637.916564941,5700187.206268311,2254037.857055664,-2401830.1963806152,2081305.5038452148,-2009040.5941009521,-7372910.022735596,8201364.517211914,-2853028.5358428955,-16849050.521850586,-9269135.475158691,-3405348.777770996,-2231916.1891937256,-6238592.624664307,-7461501.121520996,-26172637.939453125,-1113587.3794555664,1493810.1768493652,-326705.0087451935,-25255300.521850586,11830713.272094727,-8550090.789794922,-5682453.632354736,-2213578.224182129,-6226306.438446045,-1402344.7036743164,-1389533.4005355835,-383721.85826301575,-12360503.196716309,-9612061.500549316,-4235378.742218018,-7785251.617431641,-20177215.576171875,-10203230.857849121,-9930630.683898926,-9006117.820739746,-9977418.899536133,-21217451.095581055,-29787206.649780273,-19855812.072753906,-18480258.94165039,-9165933.609008789,-9698575.019836426,-24405578.61328125,-17383359.909057617,-12984757.423400879
0.145,14083705.90209961,18521274.56665039,9738285.064697266,4394844.532012939,12420095.443725586,-12169105.529785156,-835527.1220207214,1521695.7330703735,2205446.95854187,8841372.4899292,6083056.449890137,-383228.21259498596,-3793599.3671417236,4385491.847991943,305624.0379810333,-5480797.76763916,428023.3085155487,600149.1546630859,-1671054.2440414429,-4956361.293792725,-500705.7189941406,-5156966.209411621,-14584520.33996582,872615.2777671814,-8748434.066772461,-19718318.939208984,-11645771.980285645,-373029.4704437256,-3987134.6950531006,-8448876.38092041,-9654849.0524292,-30857137.68005371,-5919461.250305176,-2099725.4848480225,-3938957.2143554688,-24908210.75439453,8428242.683410645,-9272884.368896484,-8880282.402038574,-4061281.681060791,-5644108.295440674,-6112884.521484375,-6082865.7150268555,-3973687.6487731934,-14385923.385620117,-12710676.193237305,-6384974.002838135,-7549969.673156738,-19400419.235229492,-10165896.41571045,-11616458.892822266,-10529005.05065918,-11635891.914367676,-22388322.830200195,-28569679.260253906,-17263795.852661133,-17449615.478515625,-10597923.278808594,-11310371.398925781,-23918523.78845215,-16979852.6763916,-12547906.875610352
0.15,12669671.058654785,14663704.872131348,7513132.095336914,2837745.6665039062,9593825.340270996,-15447450.637817383,-2370365.619659424,-162941.69425964355,845840.3944969177,6089953.899383545,3862278.2230377197,-115679.16721105576,-2172842.025756836,4628817.558288574,-6218570.232391357,-9219902.992248535,-1328819.3941116333,-1021190.881729126,-2375899.55329895,-5149919.033050537,749137.5803947449,-4072316.6465759277,-16984376.907348633,-5461015.701293945,-14704680.442810059,-22393920.8984375,-13415553.092956543,2225090.265274048,-3364836.6928100586,-7156828.4034729,-8657994.270324707,-35152812.95776367,-11718741.416931152,-6776758.193969727,-8553838.729858398,-26447315.216064453,6610406.398773193,-8985508.918762207,-8644960.403442383,-2322523.593902588,-3140791.893005371,-11623534.202575684,-11792190.551757812,-8662495.613098145,-18458934.783935547,-15172021.865844727,-5289411.0679626465,-4481117.248535156,-14948605.53741455,-7527111.530303955,-15031764.030456543,-13810778.617858887,-14952458.381652832,-22546493.530273438,-22721323.013305664,-12828007.698059082,-14333317.756652832,-13813369.750976562,-14676733.016967773,-23123208.99963379,-14052268.028259277,-12239603.996276855
0.155,17615840.911865234,17720932.006835938,11214406.967163086,6042157.173156738,13645098.686218262,-11492286.682128906,644565.7014846802,2718274.5933532715,4100109.100341797,9028818.130493164,7299553.871154785,4460015.296936035,2710552.930831909,8501492.500305176,-4572608.947753906,-6259527.206420898,1243311.882019043,1801087.8562927246,259152.352809906,-3709528.684616089,3946909.9044799805,195874.46749210358,-11385471.34399414,-3754983.901977539,-14996892.929077148,-22457534.790039062,-13276609.420776367,3138448.715209961,-1055633.306503296,-3805345.296859741,-5182363.033294678,-35602836.60888672,-10415686.60736084,-6689672.946929932,-8406261.444091797,-27716684.341430664,9021649.360656738,-7486487.865447998,-5190626.621246338,1859397.053718567,120459.72794294357,-10124604.225158691,-10635466.575622559,-8527147.29309082,-17748813.62915039,-11901479.721069336,361796.46849632263,161799.99709129333,-9923084.259033203,-2899146.08001709,-12902793.884277344,-11635755.53894043,-12724571.228027344,-18060297.0123291,-14794719.696044922,-7898803.7109375,-9532032.012939453,-11713517.189025879,-12554636.001586914,-19978670.120239258,-7916167.736053467,-8693983.07800293
0.16,21962196.350097656,23462730.407714844,16750915.52734375,8044944.763183594,18510765.075683594,-7938866.138458252,2525566.339492798,4543932.4378967285,6012604.713439941,13831846.237182617,11587354.66003418,7504629.135131836,5184877.395629883,11542182.922363281,-539656.0430526733,-2680552.0057678223,2977137.565612793,3572046.995162964,2749968.7671661377,-2574259.7579956055,5257896.900177002,3041164.1597747803,-5233349.323272705,275799.9300956726,-12806273.460388184,-22231540.67993164,-13145766.258239746,3366388.3209228516,826936.7218017578,-1671826.8394470215,-3118712.4252319336,-33977943.420410156,-5315137.3863220215,-3722951.4122009277,-5450952.529907227,-27912439.346313477,12436522.483825684,-5289453.983306885,-2087409.0194702148,4358450.412750244,1505785.2268218994,-5109107.01751709,-5725801.944732666,-5456598.75869751,-11420140.266418457,-5386854.648590088,6840744.972229004,3869294.4049835205,-7028406.620025635,620494.00806427,-6420713.424682617,-5183812.618255615,-6234673.500061035,-10449840.545654297,-8567978.858947754,-2922374.486923218,-4887287.139892578,-5317049.026489258,-6075608.253479004,-15000874.519348145,-924715.518951416,-4517204.761505127
0.165,19218566.89453125,23829355.239868164,16387176.513671875,4610014.43862915,16878679.275512695,-12720239.639282227,-938426.0177612305,1086846.7092514038,2532217.9794311523,14703405.380249023,11272458.07647705,5125391.960144043,2337923.288345337,9651439.666748047,-3410924.6730804443,-5706581.592559814,-185622.99013137817,285682.5590133667,2752857.9235076904,-2561271.4290618896,3793816.328048706,1607449.6507644653,-6355126.857757568,-2624399.9004364014,-14963137.62664795,-24872703.552246094,-14940552.711486816,3384285.2115631104,1244567.0366287231,-2103893.280029297,-5014295.1011657715,-34960636.138916016,-6523697.376251221,-4563171.38671875,-6386255.741119385,-28476629.25720215,13064761.1618042,-3427998.0659484863,-1796318.6502456665,2723821.6400146484,-1176206.9463729858,-6512504.577636719,-6812195.777893066,-6261524.200439453,-7260733.127593994,-2722612.142562866,8890227.317810059,4582104.682922363,-7712820.529937744,-869063.3773803711,-5195909.50012207,-4074374.198913574,-5068530.559539795,-7081009.864807129,-7336947.441101074,-357221.93121910095,-4217940.807342529,-4023081.3026428223,-4818349.361419678,-13434969.902038574,1349479.1984558105,-6435641.288757324
0.17,11832726.47857666,17576578.14025879,8836778.64074707,-1428739.4285202026,9583339.69116211,-22263027.19116211,-6915462.970733643,-4860027.313232422,-3314056.158065796,10545211.791992188,6460903.644561768,-392735.68987846375,-2993024.3492126465,3954084.1579437256,-11649521.827697754,-13121601.104736328,-5810607.91015625,-5360476.493835449,1122867.1073913574,-3145741.4627075195,1664570.3315734863,-2585882.1868896484,-12755599.975585938,-11037051.2008667,-21482402.801513672,-29140075.68359375,-17616722.106933594,2008080.7209014893,579284.8467826843,-3846234.3215942383,-9040598.86932373,-39469165.80200195,-15673771.858215332,-10358794.212341309,-12282330.513000488,-30283908.84399414,11386115.074157715,-3177971.601486206,-3325339.7941589355,-1165590.8823013306,-6905723.571777344,-15699530.601501465,-15540915.489196777,-12171347.618103027,-10822786.331176758,-5768461.227416992,6033991.813659668,2494055.5095672607,-11453602.79083252,-7038804.531097412,-13315861.701965332,-12351785.659790039,-13137094.497680664,-11655368.80493164,-10775317.192077637,-2514378.547668457,-8518836.975097656,-11952075.004577637,-12871850.01373291,-18284908.294677734,-3511827.7072906494,-15066370.010375977
0.175,7177663.326263428,11274331.092834473,1502474.7848510742,-4716521.739959717,4143306.7321777344,-26660226.821899414,-9988647.4609375,-7887760.162353516,-6237065.79208374,5735691.547393799,2072438.2400512695,-3841723.680496216,-6040962.219238281,-220863.65520954132,-15909389.49584961,-17227001.190185547,-8879530.906677246,-8258910.179138184,-190967.24689006805,-3574316.5016174316,656540.1554107666,-5765573.978424072,-16467964.172363281,-15582327.842712402,-26171697.61657715,-31357051.849365234,-18882509.231567383,-662419.6767807007,-485611.7069721222,-5190922.737121582,-11361743.927001953,-42951023.10180664,-23532882.690429688,-15206769.943237305,-17120931.62536621,-32221981.048583984,9729917.526245117,-5097449.30267334,-4630755.424499512,-3818486.9289398193,-11542885.780334473,-23436981.201171875,-23089036.94152832,-17188449.85961914,-17376659.393310547,-9441667.556762695,2592073.440551758,-296918.00475120544,-15606119.155883789,-12400848.388671875,-22681861.877441406,-21774181.365966797,-22236295.700073242,-18637577.056884766,-15148079.872131348,-7425121.307373047,-13227485.656738281,-21182399.74975586,-22132169.723510742,-24852182.388305664,-10874514.57977295,-22446525.57373047
0.18,8399625.778198242,10796295.166015625,2090901.3748168945,-3664242.744445801,5600026.607513428,-22773048.400878906,-8722992.897033691,-6560029.983520508,-5005639.553070068,4923908.710479736,2196473.5984802246,-2631910.562515259,-4852820.39642334,1155891.4184570312,-13060173.034667969,-15570431.70928955,-7869296.550750732,-7029097.557067871,-318007.82680511475,-3390469.789505005,834304.3923377991,-5491549.015045166,-14328625.679016113,-12819773.67401123,-25731367.111206055,-30648187.6373291,-18391769.409179688,-1487365.8418655396,-1363017.0822143555,-5461212.158203125,-10505350.112915039,-41203998.56567383,-23033035.278320312,-14840420.722961426,-16606706.619262695,-33085208.892822266,8413110.733032227,-7792543.888092041,-5249103.546142578,-3857159.376144409,-11468268.394470215,-22859636.306762695,-22653457.641601562,-16878519.05822754,-18701677.322387695,-9485355.377197266,1839110.4936599731,-1699798.345565796,-17007164.001464844,-12157205.581665039,-23717866.897583008,-22696474.075317383,-22976053.23791504,-20355621.337890625,-17278905.868530273,-10052268.028259277,-13204858.779907227,-22236574.172973633,-23053468.704223633,-26229854.583740234,-14041907.31048584,-21870298.385620117
0.185,12879748.344421387,15517956.733703613,10080218.315124512,-137466.71378612518,11617947.578430176,-16087844.848632812,-5295435.428619385,-3092509.2697143555,-1736915.2307510376,8386219.024658203,6279103.755950928,1512800.693511963,-1032005.0716400146,6804116.249084473,-8968181.610107422,-12087243.08013916,-4578599.452972412,-3640946.14982605,631305.7541847229,-2457917.2134399414,1788835.883140564,-2351375.3414154053,-10324769.020080566,-8470149.993896484,-22663591.384887695,-28884307.861328125,-17447376.251220703,1991171.7176437378,-1369462.8477096558,-4637334.823608398,-8126558.303833008,-35711414.3371582,-17448434.829711914,-11560985.565185547,-13138166.427612305,-33003646.850585938,6784669.399261475,-8503052.711486816,-5451588.153839111,-2016057.2528839111,-6954198.360443115,-17326253.89099121,-17315811.157226562,-13486187.934875488,-14283698.081970215,-7270204.067230225,2966037.2734069824,-745369.7323799133,-14401125.90789795,-7442595.481872559,-17379167.556762695,-16232025.146484375,-16633104.32434082,-16289415.35949707,-16794528.96118164,-7816814.422607422,-8887519.836425781,-16062206.268310547,-16691810.607910156,-21980260.848999023,-11515813.827514648,-15747576.713562012
0.19,16790798.18725586,20365449.905395508,17487701.416015625,3709321.2604522705,15875886.917114258,-12129119.873046875,-1779115.3192520142,393698.6029148102,1693159.4610214233,12251275.062561035,10053350.448608398,4619703.769683838,2084978.3420562744,11260242.462158203,-8458557.12890625,-10083352.088928223,-900328.516960144,-70156.45503997803,1960240.6024932861,-1514594.9125289917,3013457.2982788086,610189.5570755005,-9147745.132446289,-7697610.855102539,-20127668.380737305,-27145116.806030273,-16757923.126220703,6956100.4638671875,-436319.0531730652,-3186643.8388824463,-6552625.65612793,-31864036.560058594,-13862527.847290039,-9566790.580749512,-11019361.49597168,-32375305.17578125,5569801.330566406,-6059166.431427002,-4952957.630157471,400875.8068084717,-2026201.2481689453,-13815353.393554688,-13839666.366577148,-11281463.623046875,-10890332.221984863,-6190889.358520508,3746235.132217407,2091183.1855773926,-9714812.278747559,-3523881.196975708,-12191944.122314453,-11118676.18560791,-11798020.362854004,-11983283.996582031,-14787896.156311035,-3260569.0956115723,-5262942.314147949,-11145251.274108887,-11654001.235961914,-17675346.37451172,-7474509.239196777,-11377379.417419434
0.195,17654165.267944336,20920284.271240234,17446693.420410156,5875475.883483887,14512701.988220215,-11840297.69897461,351445.2576637268,2460296.392440796,3861129.5223236084,12645031.929016113,9793371.200561523,3847101.4499664307,1813831.9253921509,10271581.649780273,-9878705.024719238,-9478116.035461426,1541684.1506958008,2091029.167175293,2503675.699234009,-1932485.580444336,3405358.31451416,582364.6187782288,-11187577.247619629,-9218294.143676758,-18847471.237182617,-25492212.295532227,-16144031.524658203,7594263.553619385,426599.7111797333,-2189815.9980773926,-6714598.655700684,-32668037.41455078,-13963116.645812988,-9463945.388793945,-10862291.33605957,-31032554.626464844,5899100.303649902,-2500258.207321167,-3794438.362121582,1909763.6938095093,-765323.281288147,-13928641.319274902,-13899481.773376465,-10968529.70123291,-12422807.693481445,-6725522.994995117,3721495.1515197754,4922150.135040283,-6559729.099273682,-3642450.3326416016,-12457587.242126465,-11629169.464111328,-12482048.988342285,-10856173.515319824,-12167316.436767578,-637379.4674873352,-5395769.119262695,-11713988.304138184,-12196101.188659668,-16852876.663208008,-5928693.2945251465,-12025989.532470703
0.2,14134443.283081055,16230070.114135742,10731943.130493164,4220626.354217529,9045918.464660645,-14599411.010742188,-838875.7705688477,1289273.6196517944,2777921.438217163,9266014.099121094,5809140.205383301,-167009.42814350128,-1811779.499053955,5082938.194274902,-10763521.194458008,-10272772.789001465,576114.5949363708,859417.1404838562,1553271.6512680054,-4013502.597808838,2159629.8217773438,-2169827.938079834,-13914204.597473145,-10393032.07397461,-19328432.083129883,-25310054.779052734,-15973306.655883789,2325035.572052002,256074.9053955078,-2578065.3953552246,-8181040.7638549805,-36086685.18066406,-14654492.378234863,-9555727.005004883,-10924869.537353516,-29569082.260131836,7271693.229675293,-695591.5093421936,-3254454.3743133545,1237062.0965957642,-3649921.417236328,-14611441.612243652,-14600562.09564209,-10942119.598388672,-15463833.808898926,-7066931.72454834,3686272.621154785,5501657.009124756,-7010786.533355713,-6283913.135528564,-14650136.947631836,-14006937.026977539,-14857839.584350586,-11225753.784179688,-9907539.367675781,-1295080.6617736816,-7417282.1044921875,-14133382.797241211,-14663617.134094238,-17648204.803466797,-6761439.800262451,-15186776.161193848
0.205,7273247.241973877,8949837.684631348,3619747.8771209717,-1098233.938217163,4056327.8198242188,-19718444.82421875,-5680016.994476318,-3404957.7713012695,-1903141.0217285156,5081350.326538086,1769492.8646087646,-3968961.238861084,-5967691.421508789,716074.3474960327,-12247239.112854004,-13314797.401428223,-4250991.344451904,-3965015.172958374,-145021.06606960297,-6227327.346801758,229748.4129667282,-4662997.722625732,-15238009.452819824,-11909502.029418945,-22307165.145874023,-28132364.27307129,-17016122.817993164,-3922535.6578826904,-648486.852645874,-3994076.96723938,-9961356.163024902,-38471343.994140625,-13913570.404052734,-9380984.30633545,-10751691.818237305,-29846250.534057617,8266009.330749512,-1078443.2888031006,-4339924.8123168945,-1088330.1496505737,-7492312.431335449,-13902362.823486328,-13953016.28112793,-10818263.053894043,-15650849.342346191,-6489585.876464844,3812306.1656951904,3405851.6025543213,-9593383.7890625,-8067190.170288086,-14247694.969177246,-13615610.122680664,-14389860.153198242,-10669463.157653809,-8963224.411010742,-3040793.4188842773,-7867963.790893555,-13826208.114624023,-14439740.180969238,-17314615.24963379,-7380053.520202637,-17405513.763427734
0.21,1393211.007118225,3445185.1844787598,667249.7391700745,-5982865.810394287,2488319.3969726562,-24043884.27734375,-10492073.059082031,-8086207.389831543,-6594125.270843506,2959276.4377593994,505710.6018066406,-4943690.776824951,-8036538.124084473,-135247.49875068665,-15018436.431884766,-16827062.606811523,-9250020.980834961,-8683071.13647461,-1337350.3684997559,-7230432.510375977,-640565.4549598694,-5018983.840942383,-15075072.288513184,-14453394.889831543,-25701070.78552246,-32003879.54711914,-18697814.94140625,-5798765.182495117,-1489396.572113037,-5233253.002166748,-11208678.245544434,-38832088.470458984,-12282098.770141602,-9354479.789733887,-10789506.912231445,-32456012.725830078,8310080.528259277,-2093565.7024383545,-6228585.243225098,-2752615.451812744,-9015666.961669922,-12331078.52935791,-12326330.184936523,-10959453.582763672,-14054800.987243652,-6029075.622558594,3444164.514541626,747834.5036506653,-10950980.186462402,-7798663.139343262,-11282815.933227539,-10593157.768249512,-11277648.92578125,-9493786.811828613,-9237260.818481445,-3297391.176223755,-6062908.64944458,-10863241.195678711,-11517891.883850098,-16196098.327636719,-6506196.49887085,-17649581.909179688
0.215,864325.5233764648,2641308.069229126,1307508.111000061,-5773070.335388184,3536586.9998931885,-22862125.396728516,-10288180.351257324,-7966543.674468994,-6558753.967285156,3407424.9267578125,1470719.2182540894,-3833949.327468872,-8317182.540893555,197425.67837238312,-15740818.02368164,-16457323.07434082,-9317410.469055176,-8543498.992919922,-1880558.729171753,-7659478.664398193,-199500.27763843536,-4626906.394958496,-14924771.308898926,-15125131.607055664,-24983249.66430664,-32305854.79736328,-18826158.52355957,-3458599.328994751,-2221659.6603393555,-5662931.9190979,-11683629.989624023,-38543739.318847656,-10309124.946594238,-8631217.002868652,-10154954.91027832,-34700626.373291016,7795887.470245361,-3023380.756378174,-7301456.928253174,-2423713.445663452,-7997124.195098877,-10395399.09362793,-10209522.247314453,-10288576.126098633,-14558988.571166992,-6431628.227233887,2152208.5666656494,-151929.0655851364,-9612154.960632324,-7007343.769073486,-8267558.0978393555,-7544037.818908691,-8124408.721923828,-8967319.48852539,-9835102.081298828,-1931061.9831085205,-4212941.646575928,-7803390.026092529,-8402503.967285156,-15789063.453674316,-5365034.580230713,-16647033.69140625
0.22,6113044.738769531,6440581.321716309,3363459.1102600098,219052.7319908142,5521879.67300415,-15284238.815307617,-3955527.5440216064,-1921167.492866516,-762628.0188560486,5947464.466094971,3272871.0174560547,-2439693.6893463135,-8230955.123901367,-953102.1118164062,-11122234.344482422,-10348191.261291504,-3200598.71673584,-2562797.5463867188,-1857842.8030014038,-8283421.516418457,776584.1484069824,-5040000.438690186,-15514204.978942871,-10785426.139831543,-18471933.364868164,-27113368.98803711,-15578854.56085205,-501176.4168739319,-2706632.137298584,-5150759.220123291,-11271361.351013184,-37849590.30151367,-7462670.32623291,-5694204.807281494,-7240364.074707031,-33286560.05859375,7837440.490722656,-4186470.5085754395,-6721430.30166626,-1019988.7752532959,-6357708.930969238,-7537275.791168213,-7251396.656036377,-7130146.503448486,-17381662.368774414,-6630660.533905029,690986.9909286499,914114.773273468,-7183101.654052734,-7118636.131286621,-6006421.5660095215,-5203563.213348389,-5730600.833892822,-8587892.532348633,-10159642.219543457,-598698.1987953186,-3967445.6119537354,-5450098.991394043,-5953265.190124512,-15506115.913391113,-5353511.810302734,-15206813.81225586
0.225,14169383.04901123,12862932.205200195,6681016.92199707,8727394.104003906,8995225.90637207,-5835086.345672607,4872527.599334717,6669247.627258301,7545087.814331055,10818642.616271973,6641504.764556885,-327129.21500205994,-7169485.092163086,-1706347.107887268,-2869579.792022705,-1608078.2413482666,5472905.63583374,5893213.272094727,75961.31414175034,-7700158.596038818,2642382.6217651367,-4704359.05456543,-14754560.470581055,-2749741.792678833,-9820075.035095215,-19616050.720214844,-9481328.010559082,1614953.2794952393,-1593943.3574676514,-3163442.1348571777,-9277973.175048828,-35063766.47949219,-3375354.766845703,-651846.3492393494,-2129776.2393951416,-28941253.662109375,10132433.891296387,-4712944.507598877,-4314177.513122559,581259.0718269348,-5163331.508636475,-3402305.841445923,-3237357.8548431396,-1793467.5216674805,-18784742.35534668,-4587993.621826172,1088652.25315094,2858954.1912078857,-5575608.253479004,-7407806.873321533,-3511470.317840576,-2529370.5463409424,-3151248.4550476074,-6651629.447937012,-9394240.379333496,78972.2427725792,-4135563.373565674,-2848740.816116333,-3305609.703063965,-13517568.588256836,-5441805.839538574,-13469941.139221191
0.23,21757909.774780273,19253471.37451172,11041124.34387207,15896823.88305664,14523346.900939941,774506.3304901123,11707139.015197754,13511300.086975098,14343805.313110352,17269958.49609375,12137594.223022461,3558432.5790405273,-3907073.736190796,1282886.1474990845,4482486.248016357,5372345.924377441,12072299.95727539,12658228.874206543,4823697.566986084,-4476645.946502686,6102841.854095459,-1584674.8352050781,-9978600.50201416,4771082.401275635,-3753558.1588745117,-14451033.592224121,-3452695.608139038,3980338.0966186523,1868596.1961746216,394871.7713356018,-5344775.676727295,-29835464.477539062,1436226.24874115,4536585.330963135,3136309.1468811035,-26169565.200805664,14958159.446716309,-2910706.2816619873,-300334.30457115173,3090429.7828674316,-3945026.636123657,1443075.7761001587,1413543.8203811646,3393995.2850341797,-16774877.548217773,295034.1999530792,5186719.89440918,5411128.044128418,-4410061.836242676,-6213706.016540527,-329540.52090644836,816428.8401603699,-4375.847056508064,-2448419.8093414307,-5578594.68460083,1658678.1740188599,-2263702.392578125,353710.6513977051,-78282.14764595032,-9517985.343933105,-2789129.9724578857,-10723221.778869629
0.235,25917623.51989746,21851318.359375,12686104.774475098,18966104.50744629,18290729.522705078,3825221.300125122,14122448.921203613,16061475.75378418,17121742.248535156,21165082.931518555,15975512.504577637,6652246.952056885,-824984.3120574951,5908671.855926514,8616306.30493164,8630205.154418945,14119964.599609375,15183044.43359375,9286383.628845215,-1068596.601486206,9036588.668823242,1948487.401008606,-3367299.795150757,9230495.45288086,-1642678.6184310913,-13560064.315795898,-1009476.900100708,6077913.761138916,5193481.4453125,3361254.4536590576,-1518279.3140411377,-25414779.663085938,5708492.279052734,7779939.1746521,6380992.412567139,-27642511.36779785,18919458.389282227,222447.54433631897,3495057.3444366455,6262313.8427734375,-2773812.0555877686,5680816.650390625,5629523.277282715,6315784.931182861,-14148336.410522461,5579785.346984863,11832675.93383789,8564929.008483887,-2591074.4667053223,-3685851.573944092,2669795.036315918,3835080.146789551,2873752.8324127197,2808154.1061401367,1810439.7058486938,5287765.979766846,1779522.180557251,3254218.578338623,2919695.6157684326,-5164674.282073975,3339340.925216675,-6488468.647003174
0.24,24207113.26599121,17409378.051757812,7620578.765869141,16668056.48803711,14675970.077514648,4691466.331481934,11924278.259277344,13844113.34991455,15125955.581665039,18106973.64807129,12820652.961730957,4349618.434906006,-2687393.9037323,5477218.6279296875,9751708.984375,8173664.093017578,11633728.02734375,12894910.81237793,8349264.144897461,-1978861.4511489868,7464961.051940918,926815.7482147217,-1941256.9999694824,10427565.574645996,-2475487.70904541,-16076482.772827148,-3575357.675552368,5277721.405029297,4578262.3291015625,2619632.0056915283,-1446891.3078308105,-25617656.707763672,7432196.140289307,7986791.610717773,6511670.5894470215,-30713291.16821289,17559141.159057617,582102.5967597961,3901849.0314483643,7164510.250091553,-3006937.5038146973,7307801.246643066,7417930.126190186,6268267.631530762,-14945075.988769531,7225131.034851074,16173440.933227539,10613635.063171387,-1277769.3271636963,-2169365.406036377,4013927.459716797,5100269.317626953,4121263.5040283203,6418142.318725586,8185670.852661133,8725461.00616455,4710871.696472168,4491240.978240967,4271993.160247803,-2590620.517730713,9004000.663757324,-2518802.8812408447
0.245,17394363.403320312,7475538.730621338,-1700976.2525558472,10507283.210754395,4525688.648223877,3374988.079071045,6842985.153198242,8523283.958435059,9830015.182495117,9747269.630432129,3714783.9069366455,-3140173.4352111816,-10016053.199768066,-2396757.125854492,7709384.441375732,4393545.627593994,6620428.085327148,7547315.1206970215,1834572.3152160645,-7289720.058441162,1157240.629196167,-5163218.021392822,-9412946.701049805,8140529.632568359,-5765094.28024292,-20167253.494262695,-8934546.47064209,1306008.8157653809,43324.52267408371,-1913491.2490844727,-6058754.444122314,-30139049.530029297,4554804.32510376,5062279.224395752,3505264.7590637207,-30979583.740234375,11360770.225524902,-3852039.8139953613,-185499.9214410782,3625468.969345093,-5326968.669891357,4344404.697418213,4584680.557250977,3424325.2277374268,-19759965.896606445,3396246.910095215,13809229.850769043,9122724.533081055,-3035043.716430664,-3671537.160873413,2097143.8884735107,3124939.441680908,2164591.7892456055,5512276.649475098,6532305.2406311035,7752399.921417236,3003030.0617218018,2575051.0692596436,2293414.831161499,-3507121.3245391846,8586970.329284668,-2551924.94392395
0.25,10218621.253967285,-1408109.9033355713,-7669175.148010254,4502095.699310303,-3766514.0628814697,-1178882.5988769531,1810956.9549560547,3282317.1615600586,4545681.476593018,3325612.3065948486,-3363101.005554199,-9556169.509887695,-17301397.3236084,-11929206.848144531,1821662.425994873,-1651493.3109283447,2008801.9371032715,2548557.2814941406,-4006830.2154541016,-11620243.072509766,-4738763.809204102,-11064701.080322266,-20645650.86364746,1992171.6451644897,-11349720.001220703,-23914693.83239746,-13061723.709106445,-2136840.581893921,-3979270.2198028564,-6502637.3863220215,-11564946.174621582,-34867382.04956055,-3097688.913345337,-132798.62701892853,-1697372.555732727,-27989624.0234375,6166877.746582031,-9364274.978637695,-5709031.581878662,-2041548.252105713,-8528491.973876953,-3341136.693954468,-3114006.519317627,-1552056.4317703247,-25806148.529052734,-3465281.2480926514,5936312.198638916,4309294.2237854,-8059227.94342041,-7818800.926208496,-4094156.7420959473,-3095240.592956543,-4060128.2119750977,-604091.465473175,-4238237.8578186035,1136850.2378463745,-3236272.8118896484,-3521645.0691223145,-4082440.3762817383,-8587053.298950195,829014.7185325623,-8457663.536071777
0.255,6619461.536407471,-4318032.264709473,-6840161.8003845215,1562310.3380203247,-4238729.953765869,-8210688.591003418,-1167265.772819519,373565.137386322,1691074.013710022,3105398.416519165,-3219640.4933929443,-10280009.269714355,-19652566.90979004,-16290998.458862305,-6111945.629119873,-7649970.054626465,-500560.998916626,84166.5267944336,-4225263.595581055,-11160497.665405273,-5802908.420562744,-12622006.4163208,-27148887.634277344,-6021042.346954346,-17361356.735229492,-25774400.71105957,-13960151.672363281,-2051089.0483856201,-4327941.417694092,-7840724.468231201,-13469069.480895996,-36476474.76196289,-12309479.713439941,-5505781.650543213,-6974991.798400879,-25328056.33544922,6183968.067169189,-10699011.80267334,-8464961.051940918,-5279665.470123291,-10805402.755737305,-12578060.150146484,-12383819.580078125,-6870482.921600342,-30168472.290039062,-8615153.312683105,-1041126.7280578613,-161835.56616306305,-12926330.56640625,-12247830.390930176,-12783992.767333984,-11826620.101928711,-12761204.719543457,-8359615.325927734,-15839658.737182617,-6682938.575744629,-9875467.300415039,-12088235.855102539,-12898469.924926758,-15690336.227416992,-8765774.726867676,-16732398.986816406
0.26,5430804.72946167,-3221869.468688965,-4027611.255645752,745476.7227172852,-857292.8309440613,-14373753.547668457,-2543577.6710510254,-725723.6838340759,646293.7593460083,5365463.733673096,19011.620432138443,-8051563.262939453,-18443359.375,-15485138.893127441,-11575490.951538086,-11224141.120910645,-1634151.9355773926,-825496.4351654053,-1463370.442390442,-8637244.22454834,-3858550.0717163086,-11545493.125915527,-26582181.930541992,-11408637.046813965,-20696249.00817871,-25593578.338623047,-13090166.091918945,-70507.13151693344,-2963822.12638855,-6610651.016235352,-11662343.978881836,-35099441.52832031,-17975875.854492188,-8354762.077331543,-9687986.373901367,-25375061.03515625,9300349.235534668,-8055796.6232299805,-7580706.1195373535,-4706324.577331543,-11308451.652526855,-18300052.642822266,-18041713.71459961,-9777440.071105957,-31574213.0279541,-8895922.660827637,-1805320.6205368042,-796046.3166236877,-13971528.053283691,-14316523.551940918,-18675245.28503418,-17740152.35900879,-18558048.248291016,-11621982.57446289,-18472801.208496094,-9208138.465881348,-12271149.635314941,-17844623.565673828,-18640398.025512695,-19583940.505981445,-12597679.138183594,-20802293.77746582
0.265,3782559.633255005,-2913532.9723358154,-4789079.189300537,169981.449842453,-966684.6394538879,-15900563.24005127,-3186507.225036621,-1165895.938873291,77627.88981199265,4903833.866119385,-174051.61261558533,-7898504.734039307,-17854209.899902344,-14247429.847717285,-11190731.048583984,-11124671.936035156,-2265259.9811553955,-1615416.2883758545,-1028499.7224807739,-8541598.320007324,-3525897.264480591,-11290104.866027832,-23311664.581298828,-10868106.842041016,-19600652.69470215,-24441553.115844727,-12371414.184570312,517120.3017234802,-3139796.495437622,-5400657.653808594,-9526107.788085938,-32583488.46435547,-16978498.458862305,-7030917.644500732,-8307663.917541504,-26389553.07006836,11511981.010437012,-6995175.361633301,-5274863.243103027,-2849258.8996887207,-10217900.276184082,-17322988.510131836,-16992977.142333984,-8395417.213439941,-29996299.743652344,-4680802.822113037,2982929.7065734863,2207485.1989746094,-11068511.962890625,-12585121.154785156,-17016933.44116211,-16052688.598632812,-16720085.144042969,-7520514.011383057,-11381456.37512207,-4458993.434906006,-9135420.799255371,-16080764.770507812,-16683450.698852539,-16305789.947509766,-8286769.866943359,-17868793.487548828
0.27,3015172.4815368652,-3624229.4311523438,-7553300.857543945,1190611.8392944336,-4240885.257720947,-11526609.420776367,-1729556.0836791992,281280.2195549011,1286143.8989639282,3436286.211013794,-2602605.3428649902,-9222083.09173584,-18320728.302001953,-14629258.155822754,-5844119.071960449,-7200857.162475586,-866845.4885482788,-689027.3690223694,-2264029.9797058105,-10128848.0758667,-5079702.377319336,-11471277.236938477,-21014219.284057617,-5348836.898803711,-14964038.848876953,-22873050.689697266,-11239439.010620117,-97828.00078392029,-4001367.0921325684,-4657898.426055908,-8830650.329589844,-30202360.153198242,-10971708.297729492,-2378975.1529693604,-3743510.7231140137,-25595607.75756836,12832838.05847168,-11226210.594177246,-3158149.003982544,-1983885.2882385254,-8558523.178100586,-11209463.119506836,-10936970.710754395,-3622268.4383392334,-26522134.78088379,897893.0711746216,8387648.582458496,5701286.315917969,-7509832.859039307,-8067405.700683594,-9364937.782287598,-8395793.914794922,-8966935.157775879,-348895.1623439789,-3300896.644592285,2577670.097351074,-3545318.365097046,-8474771.499633789,-8962612.15209961,-8552128.791809082,-1109995.4843521118,-12428435.325622559
0.275,6808239.936828613,-1681492.9246902466,-6967154.979705811,6396224.021911621,-3853572.130203247,-3701265.573501587,3609738.826751709,5514194.488525391,6424403.667449951,6692770.481109619,-648058.9509010315,-7296523.094177246,-16740711.212158203,-14228952.407836914,764261.1265182495,-494928.2705783844,4436283.111572266,4475248.336791992,144902.73594856262,-9020000.457763672,-4410885.810852051,-9418237.686157227,-18883678.436279297,1347157.8359603882,-9181240.08178711,-20262948.989868164,-8197738.6474609375,1085447.4306106567,-2146811.008453369,-2765030.3840637207,-7970348.358154297,-28386644.36340332,-4855225.086212158,2725037.097930908,1192414.1645431519,-23057991.02783203,15474869.728088379,-18226083.755493164,-983422.3389625549,-1665914.4163131714,-7837566.85256958,-4887207.508087158,-4764955.520629883,1404331.2072753906,-23493753.43322754,4173374.1760253906,10567817.687988281,7189618.110656738,-6448700.904846191,-4045201.7784118652,-3034792.423248291,-2128713.1309509277,-2717555.9997558594,2416097.402572632,-2368324.041366577,4924975.395202637,-145406.99124336243,-2373498.9166259766,-2893117.4278259277,-3995225.9063720703,1507240.891456604,-11205123.901367188
0.28,13677268.028259277,3061004.877090454,-2601352.9300689697,13611998.558044434,2063909.5306396484,2857482.1949005127,10537308.692932129,12370678.901672363,13376264.572143555,14259567.260742188,6420748.710632324,-1566053.032875061,-12116552.352905273,-10919042.587280273,5670840.740203857,5985969.066619873,11332245.826721191,11772846.221923828,6801200.866699219,-4577310.562133789,184850.43942928314,-5221999.168395996,-15505912.780761719,6205883.502960205,-4495162.9638671875,-16607784.271240234,-4411037.921905518,4868351.459503174,2403232.3360443115,550259.7093582153,-5351956.367492676,-26925249.099731445,-2198420.286178589,5576258.182525635,3920185.8043670654,-20832759.857177734,18388198.852539062,-23079469.680786133,1220585.7038497925,-640026.3905525208,-8280040.740966797,-2059350.2521514893,-2049265.8615112305,3982767.5819396973,-23028867.721557617,3425343.7519073486,9428720.474243164,6847301.483154297,-7829699.516296387,-3083712.8162384033,-3229882.9555511475,-2333247.184753418,-3081389.4271850586,-1589305.9968948364,-7881928.443908691,1040555.7155609131,-767930.3288459778,-2784104.824066162,-3340699.1958618164,-6613139.629364014,-2107476.7112731934,-14991408.348083496
0.285,16625825.881958008,5586366.176605225,795233.964920044,16238948.822021484,6849414.348602295,4920735.3591918945,13360302.925109863,15129117.012023926,16168138.50402832,18405433.654785156,11111742.973327637,2703130.006790161,-7314262.866973877,-5807942.3904418945,8159980.773925781,8529801.368713379,14137438.774108887,14881240.844726562,11231472.01538086,-1254715.919494629,5124642.848968506,-1664767.2653198242,-12300861.358642578,8622055.053710938,-1985057.9500198364,-13690196.03729248,-3227141.1418914795,8553450.584411621,5446513.1759643555,3237346.410751343,-2013824.224472046,-24715831.756591797,-2351181.2686920166,5678087.7113342285,4004734.992980957,-19493820.190429688,18097978.591918945,-24313631.057739258,2241463.4227752686,948589.6229743958,-7493186.950683594,-2178519.0105438232,-2224677.324295044,3913223.0281829834,-24741054.53491211,174971.16327285767,6984704.971313477,6272643.089294434,-8911770.820617676,-3918377.637863159,-7306382.179260254,-6287133.693695068,-7264128.2081604,-7237664.699554443,-12906917.572021484,-3832454.6813964844,-2871115.207672119,-6856991.291046143,-7399620.532989502,-11807482.719421387,-6500181.198120117,-17729017.25769043
0.29,12437436.1038208,3109001.398086548,1226427.435874939,11575693.130493164,5372897.148132324,3491474.390029907,9827093.124389648,11494665.145874023,12317559.242248535,14793097.496032715,8575035.095214844,2148018.8369750977,-4837218.284606934,-1150520.5631256104,8806950.569152832,6356903.553009033,10687824.249267578,11040873.527526855,8868084.907531738,-2032999.9923706055,6716557.97958374,79803.25818061829,-11209108.352661133,9305506.706237793,-1226171.9703674316,-13100960.731506348,-5724386.215209961,9845335.006713867,4511474.609375,3782107.5916290283,164076.5815973282,-20846485.137939453,-2293776.750564575,4709074.974060059,3099952.459335327,-17650581.35986328,14420990.943908691,-23931444.16809082,1642305.0165176392,2185545.4444885254,-3128849.744796753,-2233338.1175994873,-2353566.4081573486,2990437.2692108154,-25866844.177246094,-2292500.0190734863,5013575.553894043,6355645.179748535,-7675445.079803467,-2989200.5920410156,-8831965.446472168,-7749230.861663818,-8819899.559020996,-8630053.520202637,-13041105.270385742,-4179622.173309326,-2976912.021636963,-8244341.850280762,-8832697.868347168,-12433348.655700684,-6108932.971954346,-14494856.834411621
0.295,7296029.567718506,144021.06404304504,2584302.9022216797,5786546.230316162,2203175.5447387695,2450465.9175872803,5067883.014678955,6710207.939147949,7235960.960388184,9322306.632995605,4227724.552154541,447623.1038570404,-3650488.3766174316,2135421.5145111084,8699583.053588867,3327933.5498809814,6131145.95413208,5754504.680633545,3941952.705383301,-4234930.992126465,6189522.743225098,1573149.2042541504,-11325511.932373047,9291596.412658691,-639733.0164909363,-13732517.24243164,-8697701.454162598,9365313.529968262,2470970.1538085938,3351473.808288574,1086239.6955490112,-16493150.71105957,-384813.1000995636,4813429.355621338,3295276.403427124,-14794260.97869873,11442853.927612305,-23323385.23864746,973153.9487838745,2931400.775909424,2806082.248687744,-535005.8674812317,-733836.2336158752,3129666.566848755,-24199449.53918457,-2023608.922958374,4701344.966888428,6928165.435791016,-5179592.609405518,547685.6231689453,-5761370.658874512,-4881092.071533203,-5791277.885437012,-5887038.230895996,-10221345.901489258,-536410.2721214294,-1022388.9350891113,-5162816.524505615,-5881900.310516357,-7781429.290771484,-1964669.4660186768,-7997030.735015869
0.3,9581970.21484375,3046911.2396240234,8352538.108825684,7212507.724761963,5232653.1410217285,4562496.185302734,6069749.355316162,7878920.078277588,8361850.738525391,10489276.885986328,6327476.024627686,3050342.798233032,-1393855.4525375366,4199398.040771484,9510548.59161377,4314847.946166992,7282189.846038818,6725910.663604736,3840986.2518310547,-3639497.2801208496,7303927.898406982,3995754.7187805176,-9963026.04675293,10076353.073120117,1225831.389427185,-12921356.201171875,-8393408.77532959,8570126.5335083,3428247.2133636475,4100560.6651306152,1890724.1821289062,-14045814.514160156,2653554.677963257,6968583.583831787,5507347.583770752,-12652321.815490723,11941013.33618164,-22000019.073486328,1904530.644416809,3758269.5484161377,5156807.899475098,2279429.6741485596,2093264.8181915283,5157762.050628662,-20398614.88342285,200102.44846343994,6812789.440155029,7802774.429321289,-3968137.741088867,3490379.0950775146,-1820672.5120544434,-1231899.4998931885,-1924210.0715637207,-3346522.331237793,-8353389.739990234,2325314.2833709717,284732.6993942261,-1387031.3167572021,-2149629.1160583496,-3353805.0651550293,584759.2949867249,-4739208.221435547
0.305,19171957.01599121,11518041.610717773,15898413.65814209,15968107.223510742,14178923.606872559,9097086.906433105,13176671.028137207,15200340.270996094,15986964.225769043,18086753.845214844,14375264.167785645,9430623.054504395,2050307.9891204834,5397531.986236572,12451924.324035645,9708865.16571045,14264720.916748047,14330564.498901367,9331400.871276855,-141929.22413349152,10732644.081115723,6476366.5199279785,-6136430.740356445,12840000.15258789,4263177.871704102,-10203630.447387695,-5092679.500579834,7664953.708648682,7060955.52444458,6293355.941772461,2913710.832595825,-13660228.729248047,5503229.141235352,10348487.854003906,8851685.523986816,-12953469.276428223,13968081.4743042,-20108169.555664062,4087971.6873168945,4932041.645050049,2402322.292327881,5018962.383270264,4940752.5062561035,8451313.018798828,-17257465.362548828,2348279.4761657715,10739724.159240723,9165740.013122559,-4585007.190704346,3275987.386703491,-578630.9838294983,-8331.97496831417,-718373.4178543091,-3052051.305770874,-7954053.87878418,2295401.3347625732,102487.86211013794,-267142.3554420471,-874178.3499717712,-2786785.840988159,-414785.772562027,-6241908.550262451
0.31,27587423.32458496,18652948.3795166,19695283.889770508,23594730.377197266,20638919.830322266,13077925.682067871,19694122.314453125,21675222.396850586,22855644.22607422,24100963.592529297,20019836.42578125,13879454.612731934,4580622.673034668,6267342.567443848,16181928.634643555,14770688.0569458,20420513.153076172,21203174.591064453,14464511.87133789,2888109.2071533203,13420220.375061035,7834031.105041504,-1819473.5050201416,16419296.264648438,6662205.696105957,-8284055.709838867,-2467379.331588745,6991247.177124023,9513975.143432617,8115031.2423706055,3454771.5187072754,-12852067.947387695,7099076.747894287,12685887.336730957,11081191.062927246,-14938535.690307617,14273828.506469727,-19379180.908203125,5682003.021240234,5912180.9005737305,-872969.8061943054,6707366.466522217,6708430.767059326,10959633.827209473,-17120954.513549805,3013450.3841400146,13901926.040649414,10682089.805603027,-5229150.295257568,1440521.7170715332,-1701664.0901565552,-914528.1910896301,-1810817.3608779907,-3451478.2428741455,-7105849.266052246,1730778.3365249634,479231.5065860748,-1340180.6354522705,-1757954.5974731445,-4281438.35067749,-1754653.2154083252,-7939520.359039307
0.315,28525363.92211914,19193683.624267578,18287841.796875,23503532.40966797,19318576.81274414,14329371.452331543,20212606.43005371,21840152.740478516,23192583.084106445,23771318.435668945,18636030.197143555,13279552.459716797,4893770.217895508,7218960.762023926,17485851.287841797,15183942.794799805,20656097.412109375,21511213.302612305,15179653.16772461,3463485.7177734375,13308441.162109375,8259153.366088867,256627.61926651,17755405.42602539,6833135.12802124,-9291578.29284668,-2760335.4454040527,8154599.189758301,9164500.23651123,8351931.571960449,3316246.98638916,-10364446.640014648,6563339.2333984375,12169528.007507324,10508021.354675293,-16075464.248657227,12944212.913513184,-20414119.720458984,5733858.585357666,6082354.0687561035,-282769.8290348053,6398059.368133545,6365547.180175781,10736813.54522705,-19754529.95300293,2041228.5327911377,13965206.146240234,11336449.62310791,-4796162.128448486,802976.3698577881,-3181009.7694396973,-2369884.252548218,-3253137.8269195557,-3596796.2741851807,-5758225.440979004,2456106.424331665,2133678.674697876,-2737364.5305633545,-3170302.629470825,-5254672.527313232,-1014619.4696426392,-6636502.742767334
0.32,24749502.182006836,15279253.005981445,15390719.413757324,18582462.310791016,14525114.059448242,13517724.990844727,16762107.849121094,18050973.892211914,19301698.684692383,20937635.42175293,14890377.044677734,10912218.09387207,4249179.840087891,7870050.90713501,15537647.247314453,12251057.624816895,17222352.981567383,17633651.733398438,13839107.513427734,2878664.73197937,12353079.795837402,8792963.981628418,-359385.52021980286,15954754.829406738,5590484.142303467,-11412562.370300293,-4204363.822937012,11598926.544189453,8797391.891479492,8331401.824951172,3472019.1955566406,-8213108.062744141,4547394.275665283,9911514.282226562,8310536.3845825195,-14907963.752746582,12888623.237609863,-21027091.97998047,5482494.354248047,6023387.908935547,2480687.141418457,4540090.084075928,4413756.847381592,8599677.085876465,-22150697.708129883,868535.3994369507,12217708.587646484,11148996.353149414,-4128138.542175293,1548019.7668075562,-3937381.5059661865,-3429893.970489502,-4015651.226043701,-4427060.127258301,-5625365.257263184,2962724.208831787,2660203.695297241,-3529882.9078674316,-4149196.147918701,-6052937.030792236,26177.143678069115,-4838226.318359375
0.325,23005300.521850586,13062731.742858887,14533327.102661133,16324811.935424805,13587613.105773926,13024534.225463867,15064276.695251465,16342264.175415039,17435064.3157959,21303075.790405273,15314930.91583252,11522615.432739258,4673873.9013671875,7401605.606079102,13753203.392028809,10933579.444885254,15672890.663146973,15862557.411193848,14425819.396972656,3086739.7785186768,13648529.052734375,10030181.884765625,-1391075.2534866333,14227151.870727539,5499067.306518555,-11163049.697875977,-3745765.447616577,14679329.872131348,11291327.476501465,10244828.224182129,4774421.691894531,-8525143.62335205,3981457.233428955,9456068.992614746,7901765.823364258,-12590588.569641113,15806317.329406738,-19065032.958984375,6984348.773956299,7380221.366882324,2898564.338684082,3920353.651046753,3739284.038543701,8027839.660644531,-21058773.040771484,2163381.0997009277,12988935.470581055,11999306.678771973,-3697800.397872925,2233551.025390625,-3338059.663772583,-3040416.0022735596,-3422290.086746216,-5407154.083251953,-6080551.1474609375,2132942.1997070312,902462.3036384583,-3009081.6020965576,-3712777.853012085,-7314988.136291504,-370597.9287624359,-5898108.959197998
0.33,24464702.606201172,14744882.583618164,14736806.869506836,18483348.846435547,16846549.98779297,13379678.726196289,16368558.883666992,17882411.95678711,18993679.04663086,24273830.41381836,19144048.6907959,14581478.118896484,5618341.92276001,5277644.157409668,14816753.387451172,12747656.82220459,16965309.143066406,17517309.188842773,16559013.366699219,3949203.2527923584,16555807.113647461,11084661.483764648,-1303394.9136734009,15169013.977050781,7181249.141693115,-8646603.58428955,-1260196.8050003052,14545782.089233398,15058294.296264648,13426025.390625,6091526.508331299,-10704146.385192871,6372951.984405518,12093827.247619629,10422097.206115723,-11581997.871398926,19967582.70263672,-15836222.648620605,10094421.38671875,10180204.391479492,43111.320585012436,6117539.405822754,5952846.050262451,10470960.61706543,-16824941.635131836,6988152.980804443,18082000.732421875,14852236.7477417,-2717203.8555145264,2338271.8563079834,-1326820.0159072876,-820789.1583442688,-1348271.4891433716,-4136221.408843994,-4257424.354553223,1768529.4151306152,-411589.3244743347,-992103.636264801,-1525109.2910766602,-7638739.585876465,-546084.2251777649,-8666095.733642578
0.335,23761466.97998047,15946258.544921875,12390787.124633789,19460844.039916992,17684183.12072754,11994686.126708984,16257160.186767578,17927881.240844727,19241935.72998047,24598121.643066406,19949108.123779297,14809607.50579834,3719532.9666137695,1173549.2944717407,15748748.779296875,13361948.96697998,16755001.068115234,17802413.940429688,16673307.418823242,3755004.405975342,16775913.23852539,9636582.374572754,-2481595.039367676,15959086.418151855,7690599.44152832,-7865305.9005737305,360573.7090110779,12081884.384155273,15751049.041748047,13877883.911132812,4596588.611602783,-13413065.910339355,7985015.869140625,14034267.42553711,12198493.003845215,-12940484.046936035,21788089.752197266,-14679060.935974121,11464870.45288086,11003097.534179688,-3772788.0477905273,7601502.895355225,7488026.142120361,12260216.71295166,-13919396.40045166,11952680.587768555,23212331.771850586,16826408.38623047,-1853893.3992385864,1320931.7922592163,-279683.7389469147,544680.1781654358,-203743.90482902527,-1042042.9706573486,-604051.8879890442,2597542.7627563477,522029.69789505005,69898.37437868118,-188508.5552930832,-6668472.2900390625,572296.5598106384,-10191744.804382324
0.34,17759109.497070312,11960371.971130371,6650969.0284729,15333367.347717285,12044095.993041992,7399863.243103027,11978493.690490723,13592673.301696777,15076210.975646973,20344604.4921875,14917391.777038574,9451828.956604004,-2659470.796585083,-4679731.369018555,12169399.26147461,9257954.597473145,12658131.59942627,13683030.128479004,13605680.465698242,1740225.7919311523,12022161.483764648,4399362.087249756,-8352532.386779785,12446130.752563477,4641934.394836426,-10734698.295593262,-739542.4842834473,10586602.210998535,12011151.313781738,9110049.2477417,-922857.7017784119,-16854850.76904297,4120395.1835632324,11217815.399169922,9454360.961914062,-15035174.369812012,19307580.947875977,-16482604.98046875,8038772.5830078125,6455427.646636963,-7617292.404174805,3776885.0326538086,3695740.6997680664,9378536.224365234,-15776558.876037598,11890905.380249023,22568216.32385254,13838003.158569336,-3903696.298599243,-2497238.3975982666,-3230252.504348755,-2445621.967315674,-3150338.649749756,-295178.26437950134,-125691.83111190796,1376004.5766830444,395991.35518074036,-2998793.125152588,-3131162.643432617,-6908628.463745117,126823.5296010971,-10781151.77154541
0.345,11316109.657287598,4841107.8453063965,1417472.6009368896,10139388.084411621,4263185.024261475,3528764.486312866,7353618.144989014,8865634.91821289,10288171.768188477,15602804.183959961,8641095.161437988,2583343.505859375,-9697550.773620605,-10161390.30456543,6356124.8779296875,4106657.5050354004,8550213.813781738,9019074.440002441,10286128.997802734,-857251.1672973633,5900822.162628174,-1904882.1926116943,-16987710.95275879,6899244.785308838,686068.8328742981,-13649526.596069336,-2897988.796234131,11118047.714233398,7402170.658111572,2364038.9442443848,-7275583.267211914,-20710580.825805664,-2823215.7230377197,5867478.847503662,4429780.960083008,-15409437.17956543,14308466.911315918,-18838142.39501953,1524784.4457626343,-1242063.1647109985,-11905122.756958008,-3085164.0701293945,-3189953.327178955,4114800.9300231934,-19889400.482177734,6362062.454223633,16350147.247314453,6619217.872619629,-9270977.973937988,-8792388.916015625,-8815222.74017334,-8323394.775390625,-8873086.929321289,-3498542.547225952,-5348330.020904541,-4010365.4861450195,-4203293.800354004,-8746869.087219238,-8967902.183532715,-9448533.058166504,-3893433.094024658,-12527348.518371582
0.35,11120318.412780762,1422673.5830307007,1095612.1683120728,10189975.73852539,1609618.902206421,5550039.291381836,7694094.657897949,9233611.106872559,10432441.711425781,14895255.088806152,6948363.780975342,422232.3000431061,-11458346.366882324,-11718547.821044922,5400111.198425293,4377798.557281494,9235039.710998535,9266857.147216797,9809226.989746094,-2341980.6957244873,4157282.3524475098,-4103187.5610351562,-21186809.539794922,6119684.219360352,601865.3512001038,-12703909.873962402,-3512109.0412139893,11941464.4241333,5989852.9052734375,-465491.47367477417,-9262018.203735352,-22141860.961914062,-5099753.856658936,4062741.756439209,2864263.5345458984,-14025758.743286133,10799362.182617188,-19880430.221557617,-2672281.503677368,-5402179.24118042,-14871514.320373535,-5424145.698547363,-5600245.952606201,2556478.500366211,-20652099.609375,776176.0950088501,10657749.17602539,1028221.607208252,-13447129.249572754,-12979433.059692383,-11625144.004821777,-11172344.207763672,-11807236.671447754,-6296729.08782959,-11760896.682739258,-9455717.086791992,-9949432.373046875,-11502434.730529785,-11878995.895385742,-11044857.025146484,-7769604.682922363,-14692099.571228027
0.355,15606921.195983887,3920320.2724456787,4873932.361602783,14470253.944396973,4963927.745819092,11132439.613342285,11664407.730102539,13317583.084106445,14421064.376831055,17490304.946899414,9701074.600219727,3491194.486618042,-7389546.871185303,-8308752.059936523,10174075.12664795,9298317.909240723,12922178.268432617,13158010.482788086,11632077.21710205,-2621725.32081604,7480319.499969482,-828841.8054580688,-17491294.860839844,10761460.304260254,3925053.834915161,-10275219.917297363,-2947568.17817688,12262970.924377441,7557160.377502441,1825988.2926940918,-5814945.220947266,-19265810.012817383,-1106175.184249878,6547911.643981934,5275959.9685668945,-13653205.871582031,10808312.41607666,-20752023.696899414,-1971480.131149292,-3354447.603225708,-13895245.552062988,-1604087.8295898438,-1832272.5296020508,5283795.356750488,-17008266.44897461,-568376.4219284058,9479150.772094727,729755.9380531311,-12583869.934082031,-11265483.856201172,-9868471.145629883,-9071953.773498535,-9951820.373535156,-5023334.503173828,-14311670.303344727,-9752060.890197754,-10527585.02960205,-9410655.02166748,-9852355.003356934,-9369600.296020508,-7303797.245025635,-14979907.035827637
0.36,16371532.440185547,6599246.501922607,7353106.0218811035,15780179.023742676,8309416.770935059,11655055.046081543,12684007.64465332,14376842.498779297,15690460.205078125,19140626.907348633,12072672.843933105,6375772.476196289,-3454619.6460723877,-3758695.363998413,12824832.916259766,11015690.803527832,13290744.78149414,14123116.493225098,12832001.686096191,-2827434.778213501,10709202.766418457,3081626.8920898438,-11591769.218444824,13138456.344604492,4979472.637176514,-11943782.806396484,-3706367.015838623,13092537.879943848,8744981.76574707,4449302.673339844,-1760234.9519729614,-14973946.571350098,1567632.9135894775,7429479.598999023,5989196.77734375,-16151481.628417969,12307221.412658691,-22917921.06628418,245877.02751159668,-344529.06250953674,-10309124.946594238,1035375.9527206421,837317.3475265503,6232613.086700439,-13664623.260498047,587374.0911483765,10487270.35522461,2655827.9991149902,-9323714.256286621,-6545350.074768066,-8289093.017578125,-7181575.298309326,-8085399.627685547,-2852342.128753662,-14792250.633239746,-6577709.197998047,-6026692.3904418945,-7493161.201477051,-7907901.763916016,-7736837.863922119,-5128624.439239502,-14053486.824035645
0.365,10933426.856994629,4684761.047363281,5863892.078399658,11717949.867248535,7510337.829589844,5396368.503570557,8867321.968078613,10454967.498779297,12081858.63494873,18132947.92175293,11600129.127502441,5493706.703186035,-4233632.0877075195,-2585971.3554382324,9168561.935424805,6705446.243286133,9134996.41418457,10259605.407714844,12198766.708374023,-2974879.503250122,9863841.05682373,2917755.365371704,-10727430.34362793,9393437.385559082,2034407.8540802002,-17143117.904663086,-5834806.442260742,13436342.239379883,7940826.892852783,3596776.008605957,-1662560.5821609497,-13512505.531311035,-1384561.4194869995,4273403.644561768,2883399.248123169,-19311437.606811523,12347090.721130371,-24871162.41455078,-166303.47073078156,-1954070.9257125854,-8295495.03326416,-1698506.7129135132,-1793345.8089828491,3018498.659133911,-13608024.597167969,933832.4069976807,10426183.700561523,2434494.733810425,-8712827.682495117,-4619119.644165039,-9870954.513549805,-8827606.201171875,-9509061.813354492,-4205643.177032471,-17260698.318481445,-5484347.820281982,-2552882.671356201,-9044327.735900879,-9454257.011413574,-9521439.552307129,-6320354.93850708,-14040870.666503906
0.37,8513140.678405762,2772127.389907837,4607357.501983643,9263345.718383789,5726839.065551758,3414177.179336548,6894157.886505127,8301470.756530762,9942920.684814453,17147665.02380371,10753627.77709961,3557729.482650757,-7198728.561401367,-4502689.361572266,7114760.875701904,4509908.676147461,7333421.70715332,8182386.39831543,11503831.86340332,-1646410.2268218994,6998936.176300049,265128.7913322449,-14005496.978759766,7430155.277252197,1565926.9094467163,-18208093.643188477,-5852844.23828125,9313932.418823242,6786404.609680176,1329807.8775405884,-4193360.8055114746,-14691514.015197754,-2434068.202972412,3550492.286682129,2347064.971923828,-19184385.299682617,11236894.607543945,-23906379.69970703,-2342399.5971679688,-6139757.6332092285,-8805338.859558105,-2514260.768890381,-2510504.0073394775,2259196.996688843,-13503356.93359375,1465641.975402832,10623948.097229004,1164707.1838378906,-10320196.151733398,-5815248.489379883,-9434910.774230957,-8700382.232666016,-9280738.830566406,-6264379.501342773,-19364761.352539062,-6437477.588653564,-2708099.126815796,-8876871.109008789,-9374734.878540039,-10964174.270629883,-8782421.112060547,-13399050.71258545
0.375,18182632.446289062,8547923.08807373,8629462.242126465,15127936.363220215,7558167.457580566,15292725.563049316,12856464.385986328,14134334.564208984,15377592.086791992,18712036.1328125,11845654.487609863,4056448.9364624023,-8003057.479858398,-6364732.265472412,15563319.206237793,12173699.378967285,13466076.850891113,13940146.446228027,12394124.031066895,900542.8552627563,5934071.5408325195,-860934.0190887451,-16054697.036743164,15813720.703125,9080407.14263916,-11108047.485351562,-1740081.1910629272,-857421.5769767761,6690117.835998535,1096856.3556671143,-5532294.750213623,-15675170.8984375,6377492.904663086,10865797.996520996,9672909.7366333,-15329401.016235352,11566912.651062012,-20477714.53857422,-2934597.4922180176,-7511728.763580322,-9203095.436096191,6277560.234069824,6280010.70022583,9545748.710632324,-9541224.479675293,4671246.05178833,13471757.888793945,2461277.961730957,-9932042.121887207,-5902882.099151611,-1689085.2451324463,-1203078.1507492065,-1942788.1240844727,-3056921.7205047607,-16025001.525878906,-4607706.546783447,-3077539.2055511475,-1411408.78200531,-2027887.5827789307,-6571844.577789307,-6212891.578674316,-9109868.049621582
0.38,34903167.724609375,20055210.11352539,15645711.898803711,25440196.990966797,11224205.017089844,33308227.5390625,22757976.531982422,24044061.6607666,24823835.372924805,21236110.68725586,12808507.919311523,4860077.381134033,-8129072.189331055,-8417755.126953125,29294197.08251953,24253656.3873291,23072978.973388672,23609844.207763672,13627918.243408203,1215247.5118637085,6024919.033050537,-1489503.5028457642,-17534748.077392578,29201875.686645508,19419950.485229492,-2464169.502258301,3132662.057876587,-12206605.911254883,6358963.0126953125,1550476.1934280396,-6180902.004241943,-17183788.299560547,18708726.88293457,20395000.457763672,19036405.563354492,-11715943.336486816,13645021.438598633,-18199943.54248047,-2346249.3419647217,-6786268.23425293,-9293986.320495605,18468408.584594727,18322967.529296875,18962345.123291016,-4351574.420928955,8453689.575195312,16628141.403198242,5031223.773956299,-7969407.558441162,-4696115.016937256,7923084.259033203,8340260.5056762695,7453696.727752686,3540620.5654144287,-10279174.8046875,-436759.17387008667,-2074920.892715454,8157394.4091796875,7496523.857116699,112870.30577659607,-222871.61648273468,-4095280.170440674
0.385,44316474.91455078,26687971.115112305,18519020.080566406,30215955.73425293,11397377.014160156,40201896.66748047,26996547.69897461,28404417.037963867,29059881.21032715,21493217.46826172,10828979.4921875,1955307.3644638062,-11824602.127075195,-13502471.923828125,34246902.46582031,28153306.96105957,26760601.043701172,27715373.992919922,12908906.936645508,-3199406.623840332,4141980.6480407715,-5487292.766571045,-23605129.24194336,33861782.07397461,22316995.62072754,-1458849.9069213867,3701015.9492492676,-17927753.448486328,4395668.983459473,-826600.4323959351,-9409888.26751709,-22077072.143554688,20704872.131347656,21450319.290161133,20069576.263427734,-11833427.429199219,14640629.768371582,-18973245.62072754,-3770995.1400756836,-9204590.797424316,-11950058.937072754,20572099.685668945,20212329.864501953,19913875.579833984,-3456121.4447021484,8390107.154846191,16021047.592163086,4185119.152069092,-9258153.915405273,-6652357.10144043,8674173.355102539,9196584.701538086,8333105.087280273,5053936.004638672,-11048837.661743164,-514311.61165237427,-3014948.606491089,9101930.618286133,8473729.133605957,-257064.93854522705,46919.189393520355,-5561509.609222412
0.39,41050418.853759766,24058053.970336914,15751392.364501953,26623394.012451172,8501347.541809082,31884241.104125977,23014362.335205078,24520082.473754883,25384679.794311523,19708280.563354492,8069230.079650879,-2320612.907409668,-16965425.491333008,-19699094.772338867,26913440.704345703,21375896.453857422,22478754.0435791,23737922.66845703,10632261.276245117,-9211551.666259766,1282062.8881454468,-10862067.222595215,-32055377.960205078,26589628.219604492,16181999.206542969,-7660924.434661865,-124590.01690149307,-16931831.35986328,2450494.0509796143,-4675323.963165283,-13628941.535949707,-27704038.619995117,10875666.618347168,13641280.174255371,12463304.51965332,-14699538.230895996,12805145.263671875,-20380800.247192383,-6658349.990844727,-14203603.744506836,-16080963.134765625,11117056.846618652,10676120.75805664,12191169.738769531,-6667384.624481201,5211779.1175842285,13117012.977600098,388078.09352874756,-13638757.705688477,-11535545.349121094,175426.46825313568,973777.5325775146,83935.49174070358,-408600.41975975037,-18711818.69506836,-6088648.796081543,-6570858.955383301,849444.6873664856,239681.97405338287,-8101034.164428711,-7169594.287872314,-13619834.899902344
0.395,34719165.80200195,20130567.55065918,13768112.182617188,22048583.984375,8950811.386108398,22053079.60510254,18037384.033203125,19507711.41052246,20604539.87121582,19439525.604248047,9515200.6149292,-1071307.897567749,-16195882.797241211,-20197011.947631836,18463306.427001953,14334475.51727295,17549219.131469727,18889085.76965332,9729781.150817871,-10826151.847839355,2025464.5347595215,-10570241.928100586,-33025367.736816406,18383014.678955078,9530108.451843262,-12452347.755432129,-3434442.2817230225,-14204688.07220459,3201091.766357422,-4737771.987915039,-12767070.770263672,-26831867.218017578,2138247.9667663574,7256239.414215088,6173540.5921936035,-16947937.01171875,9916626.930236816,-19384811.401367188,-6559274.196624756,-14610904.693603516,-15651135.444641113,2593545.436859131,2317224.7409820557,6019366.264343262,-8551959.037780762,4191583.6334228516,13247805.59539795,-385670.36390304565,-14516886.711120605,-12429507.2555542,-6568339.3478393555,-5445888.996124268,-6559834.4802856445,-4745325.565338135,-22727231.979370117,-9308177.947998047,-7494981.76574707,-5783119.201660156,-6407589.912414551,-12856861.114501953,-11764669.418334961,-18869207.38220215
0.4,35398323.05908203,22572673.797607422,16518566.131591797,23154806.13708496,14717236.518859863,22080335.61706543,18481904.983520508,19858381.271362305,21073858.2611084,22249593.73474121,15153003.692626953,6317758.083343506,-8617856.0256958,-13562421.798706055,17830772.399902344,14937610.626220703,18086002.349853516,19625886.917114258,11494386.672973633,-6915375.232696533,6804945.945739746,-3734801.769256592,-24152540.20690918,17807024.002075195,8423859.596252441,-11387545.585632324,-2932182.788848877,-14151953.69720459,5879912.853240967,-208878.38304042816,-6135797.97744751,-18824958.80126953,2775608.777999878,8251378.059387207,6944942.474365234,-17362159.729003906,8369612.693786621,-16854412.078857422,-2628388.1664276123,-8158879.280090332,-9359985.3515625,3026068.2106018066,2983417.749404907,7093715.190887451,-7156005.859375,6698169.231414795,16763055.801391602,3585491.180419922,-9649494.171142578,-6747773.64730835,-5320927.143096924,-4088947.296142578,-5383606.910705566,-2725372.076034546,-17516452.78930664,-5433648.109436035,-3346271.514892578,-4618683.338165283,-5177884.101867676,-8947597.50366211,-7234836.578369141,-15674439.430236816
0.405,40378372.19238281,27084609.985351562,18494478.225708008,27535728.454589844,18811985.01586914,26636508.94165039,22044158.935546875,23455574.03564453,24824237.823486328,25232566.833496094,18739818.572998047,11400816.917419434,-3384509.563446045,-8410120.010375977,20344972.610473633,18726566.314697266,21619602.20336914,23650020.599365234,13639223.098754883,-2766252.279281616,9743894.577026367,935038.5665893555,-16985136.032104492,20163938.522338867,9484924.31640625,-8984292.984008789,-613283.5745811462,-16631994.247436523,6659585.475921631,3045152.6641845703,-1856569.6477890015,-13299270.629882812,6031961.917877197,11026200.294494629,9465180.397033691,-17558320.999145508,8131234.169006348,-16116233.825683594,-192938.01486492157,-2545923.2330322266,-5291982.650756836,5952294.826507568,5922108.6502075195,9776348.114013672,-6719817.638397217,8086556.434631348,18000150.680541992,5989634.037017822,-6292424.201965332,-2252399.206161499,-3007173.0613708496,-1974618.4349060059,-3162838.935852051,-261479.76517677307,-11530190.467834473,-1277546.2865829468,-313493.7584400177,-2479390.6211853027,-2843665.838241577,-4804633.617401123,-1662188.6491775513,-11382889.747619629
0.41,40829936.98120117,25055980.682373047,13022003.173828125,29196195.602416992,15099255.561828613,25415971.755981445,23150793.075561523,24764553.07006836,26356521.606445312,25061697.006225586,16113815.307617188,7913009.6435546875,-7510580.062866211,-12493637.084960938,18391172.409057617,18490407.943725586,22645256.04248047,25154762.268066406,13515804.290771484,-2780860.9008789062,6626540.184020996,-3014857.053756714,-21483135.223388672,18106620.78857422,8119968.414306641,-10010115.623474121,164379.89473342896,-19809093.475341797,3881863.3556365967,619866.9672012329,-6242930.4122924805,-17699007.034301758,3519852.39982605,9193819.046020508,7717327.59475708,-18796155.92956543,8212816.23840332,-17846208.572387695,-3158741.4741516113,-4651731.491088867,-10182214.736938477,3380770.683288574,3146534.204483032,7940716.26663208,-9952692.031860352,5833666.801452637,14603780.746459961,2022241.5924072266,-10513131.141662598,-6164486.408233643,-7149110.794067383,-6371177.196502686,-7319955.825805664,-4048284.0538024902,-13837096.214294434,-4644680.500030518,-4098036.766052246,-6711531.639099121,-6933523.654937744,-9349799.156188965,-5066289.42489624,-15259168.62487793
0.415,36645618.4387207,18231988.90686035,3726158.857345581,28054933.547973633,8176976.203918457,20463216.78161621,21999618.530273438,23786298.751831055,25411149.978637695,22673686.981201172,11246654.510498047,935036.7188453674,-15351260.1852417,-21105751.037597656,15077820.777893066,16540933.609008789,21287027.35900879,23993173.599243164,11809893.608093262,-4864032.26852417,1309060.4543685913,-10087931.632995605,-30946748.733520508,14837548.25592041,7208754.062652588,-11789278.030395508,-317799.9258041382,-23430038.452148438,552980.1845550537,-4195919.036865234,-14349516.868591309,-26319793.701171875,-437954.99205589294,6149149.8947143555,4980310.440063477,-20099925.994873047,9274514.198303223,-18973522.186279297,-7912173.271179199,-10426227.569580078,-18695310.592651367,-415219.2771434784,-762920.2604293823,5093971.729278564,-12579644.203186035,4339398.8609313965,11886195.182800293,-3743332.624435425,-17312757.49206543,-13747596.740722656,-12671558.380126953,-11922431.945800781,-12777333.25958252,-9557190.895080566,-19532808.303833008,-11368983.268737793,-9903655.052185059,-12177017.211914062,-12525157.928466797,-16937147.14050293,-12817318.9163208,-23197618.48449707
0.42,36259956.35986328,16762237.548828125,716012.8355026245,28839866.638183594,7517593.860626221,21720674.514770508,23135620.1171875,24885040.283203125,26198034.286499023,21800098.419189453,10766660.690307617,-234470.94857692719,-16310914.993286133,-23139196.395874023,18545949.935913086,19972450.256347656,21901468.27697754,24696153.64074707,11312874.794006348,-4562051.296234131,545940.3395652771,-10770441.055297852,-31532716.751098633,18340946.197509766,11852962.493896484,-9195703.506469727,556117.4154281616,-27435497.283935547,251193.46380233765,-5552631.378173828,-16689527.51159668,-28178392.41027832,3588945.150375366,8841537.475585938,7776689.052581787,-19941825.86669922,12287504.196166992,-17164421.08154297,-8656876.564025879,-11483172.416687012,-20562498.092651367,3704511.6424560547,3450576.066970825,7925518.51272583,-9257014.274597168,7989525.79498291,14503426.551818848,-4280393.123626709,-18084436.416625977,-15167492.866516113,-9362400.05493164,-8494550.704956055,-9362861.633300781,-7572153.091430664,-17904064.178466797,-11531251.907348633,-8985375.40435791,-8820742.6071167,-9451135.635375977,-15411240.577697754,-12423972.129821777,-22928760.528564453
0.425,42787353.515625,23924093.24645996,6478030.681610107,32456386.56616211,14318778.991699219,29640995.025634766,27001560.21118164,28588834.762573242,29554855.346679688,23938070.29724121,15081192.016601562,5207606.315612793,-9504364.013671875,-16401504.516601562,27203578.94897461,27573602.6763916,25138542.17529297,28171346.66442871,13027171.13494873,-1828963.8757705688,4971587.181091309,-4945490.837097168,-22294483.184814453,26985164.642333984,19313697.814941406,-3668090.1050567627,2879047.632217407,-29758512.496948242,2514683.961868286,-3151451.826095581,-12134804.725646973,-22200725.555419922,13976776.123046875,15714615.821838379,14444860.458374023,-18532451.629638672,15731723.78540039,-14180058.479309082,-5727418.422698975,-7520233.154296875,-15333744.049072266,14103332.51953125,13866551.399230957,14652793.884277344,-1864079.3561935425,13559897.422790527,18935598.373413086,-750542.5214767456,-13555390.357971191,-9949400.901794434,1778407.6929092407,2614005.5656433105,1840176.5823364258,896099.3885993958,-9892815.589904785,-4943998.336791992,-1966577.649116516,2146594.285964966,1465805.7689666748,-5162481.784820557,-3141390.085220337,-12677267.074584961
0.43,48537441.25366211,31429161.071777344,12637012.481689453,33979724.8840332,20629482.26928711,33378776.55029297,28428762.435913086,29956665.0390625,30983106.61315918,26897045.135498047,18908998.489379883,10077849.388122559,-3572408.91456604,-9296920.776367188,30448669.43359375,29974300.384521484,26414693.83239746,29713064.193725586,15305756.568908691,-94070.203602314,9311318.397521973,-379685.28270721436,-15266634.941101074,30345575.3326416,21044893.264770508,-1956620.693206787,3521143.1980133057,-28322862.62512207,4208482.74230957,-1194028.8543701172,-7692422.389984131,-16916810.989379883,19342370.986938477,18171152.114868164,16722482.681274414,-17622222.900390625,16691774.368286133,-13340818.405151367,-4106527.805328369,-5173338.890075684,-11896240.234375,19582242.965698242,19092571.258544922,16873081.20727539,2366735.6967926025,14141457.557678223,19089506.149291992,180883.34798812866,-11565487.8616333,-6347503.185272217,8784590.721130371,9368046.760559082,8774053.573608398,5280502.796173096,-6477565.765380859,-951923.7279891968,2417166.233062744,8804551.124572754,8452842.712402344,664754.6291351318,2871517.8966522217,-4407673.358917236
0.435,45559787.75024414,31224500.65612793,11627694.129943848,29741430.282592773,20782247.54333496,26387655.25817871,23990312.576293945,25597517.013549805,27088279.724121094,27889778.13720703,19122091.29333496,10432531.356811523,-3515090.9423828125,-7820002.555847168,23447320.93811035,22618686.67602539,22456195.831298828,25798137.664794922,16370750.427246094,-389326.1253833771,10099528.312683105,-327117.4430847168,-17207759.857177734,23624650.955200195,14014402.389526367,-6803293.228149414,391726.46403312683,-24634868.621826172,4117888.927459717,-1356202.9600143433,-7273577.2132873535,-16747632.98034668,14164146.423339844,12530458.450317383,11191783.905029297,-18544576.64489746,14497737.884521484,-15132388.1149292,-5599770.545959473,-6868316.650390625,-14344836.235046387,14542485.237121582,13840363.502502441,11246808.052062988,-285628.3187866211,8255388.259887695,15429912.567138672,-2802320.2419281006,-14365416.526794434,-8045269.966125488,4612150.6690979,4966354.846954346,4433579.921722412,398636.5497112274,-11621879.577636719,-3802145.004272461,466849.9231338501,4439281.463623047,4435046.195983887,-5260121.3455200195,-1218684.3156814575,-6889161.586761475
0.44,35843429.56542969,24913461.685180664,5297165.870666504,22430261.611938477,17373756.408691406,14751969.337463379,16805681.228637695,18423578.2623291,20356218.338012695,26314861.297607422,17718719.482421875,9564137.45880127,-5273002.624511719,-8740895.27130127,13004969.596862793,11823494.911193848,15738032.341003418,19005176.544189453,16079187.393188477,-409282.23729133606,9040849.685668945,-332610.21971702576,-21784198.760986328,13362051.963806152,4512032.032012939,-13299541.473388672,-4513509.750366211,-22806659.698486328,3897450.2086639404,-1279658.555984497,-7676440.238952637,-16940258.026123047,4769343.376159668,4303865.909576416,3210474.967956543,-20964262.008666992,11467118.263244629,-17075805.6640625,-7150031.566619873,-8142939.567565918,-16843847.274780273,5042071.342468262,4544425.487518311,3254296.5412139893,-6483953.952789307,973802.6261329651,13192893.981933594,-4398191.928863525,-16237543.106079102,-9922476.768493652,-4876741.409301758,-4528029.441833496,-5123202.323913574,-7360140.323638916,-17329978.942871094,-7266721.248626709,-2455155.849456787,-4860369.2054748535,-4919271.469116211,-15325752.258300781,-8289053.916931152,-14555269.241333008
0.445,27460838.317871094,18770059.58557129,-515643.6562538147,17377399.444580078,14939870.834350586,7452133.1787109375,12271750.450134277,13709300.04119873,15750652.313232422,23443490.982055664,17117319.107055664,10571583.74786377,-4248535.633087158,-7532371.997833252,7187721.729278564,6038250.44631958,11059923.17199707,14400574.684143066,15167177.200317383,959283.4115028381,8913539.88647461,2684443.235397339,-21662904.739379883,7410946.369171143,-216864.7199869156,-15489356.04095459,-7285005.09262085,-24595506.66809082,4918416.500091553,512219.72703933716,-5877434.730529785,-13187619.20928955,-818389.6541595459,112701.19994878769,-901998.1026649475,-23284517.288208008,9964113.235473633,-17167274.475097656,-6340516.567230225,-5946894.645690918,-13984477.043151855,-847722.589969635,-923168.5996055603,-823710.8588218689,-10731989.860534668,-2740976.572036743,14026272.773742676,-1760451.5552520752,-13491354.942321777,-7665526.866912842,-10252273.559570312,-9764224.0524292,-10332222.938537598,-10167184.829711914,-16637573.2421875,-5270817.756652832,-1480340.600013733,-9869688.034057617,-10276960.372924805,-18991054.53491211,-9557149.887084961,-17410114.288330078
0.45,24600376.12915039,15386928.55834961,-4282992.839813232,16439359.664916992,13678371.42944336,5435201.644897461,11780582.427978516,13037379.264831543,14918825.149536133,20922227.85949707,16767169.952392578,11437899.589538574,-2147271.156311035,-5790200.233459473,5739924.907684326,6126772.880554199,10131134.033203125,13620514.869689941,14207727.432250977,1982587.456703186,9898799.896240234,5538787.841796875,-18871458.053588867,5662076.473236084,94066.91044569016,-13426914.21508789,-6443636.894226074,-27330982.208251953,6432682.991027832,2381767.0345306396,-3631822.8244781494,-8642355.918884277,-2207994.222640991,215788.14089298248,-950237.5721931458,-24061849.59411621,10163674.354553223,-15784043.312072754,-4292632.102966309,-2997548.5801696777,-8714500.427246094,-2358978.509902954,-2321500.539779663,-852533.8768959045,-10977271.08001709,-2341403.4843444824,15015637.397766113,1631863.5940551758,-9499782.56225586,-4038595.676422119,-9805088.04321289,-9212409.019470215,-9594236.373901367,-8391399.383544922,-12473447.799682617,-297747.49279022217,1331368.6847686768,-9280076.98059082,-9842749.59564209,-16204599.380493164,-6599465.847015381,-14934798.240661621
0.455,25461364.74609375,14131559.371948242,-7462927.341461182,17511726.37939453,12258360.862731934,4512762.546539307,12747135.162353516,14087337.493896484,15722777.366638184,19900299.072265625,15796405.792236328,10036929.1305542,-2146960.735321045,-6616127.014160156,4111586.093902588,7286149.501800537,11103912.353515625,14528716.087341309,13569252.014160156,1559679.8658370972,10781649.589538574,5126054.286956787,-18673751.831054688,3863262.176513672,1092406.0344696045,-11696675.300598145,-4243264.675140381,-27672603.607177734,7193279.74319458,2823997.735977173,-2923340.7974243164,-7905901.4320373535,-3305485.0101470947,866414.7257804871,-502817.86918640137,-23188611.98425293,10589836.120605469,-14276192.665100098,-2800279.140472412,-2392118.9308166504,-6474786.281585693,-3265072.1073150635,-3471950.054168701,-313424.1998195648,-8934638.977050781,-175864.115357399,14749780.654907227,2321109.2948913574,-8330861.0916137695,-3065567.4934387207,-8308893.203735352,-7680550.098419189,-7912563.800811768,-7061556.339263916,-10723690.032958984,1898716.926574707,2115322.5898742676,-7937824.249267578,-8300363.540649414,-14165265.083312988,-6134654.0451049805,-13832455.6350708
0.46,26987516.403198242,14835932.731628418,-9563990.592956543,18059474.94506836,11738014.221191406,3370651.4835357666,12779368.40057373,14404478.073120117,15799325.942993164,20183551.788330078,15298261.642456055,8696125.984191895,-2929196.357727051,-8286022.186279297,1511222.8393554688,6675065.517425537,11625164.985656738,14801868.438720703,13243556.97631836,1018372.654914856,10781364.440917969,3645536.422729492,-20402647.018432617,1304968.5955047607,576704.5021057129,-12903694.152832031,-3896505.832672119,-25940998.077392578,7138690.47164917,2629554.7485351562,-2336874.9618530273,-9832663.536071777,-5159413.814544678,324475.7950305939,-1115923.6431121826,-21883651.733398438,9809009.552001953,-13189963.340759277,-2086650.1331329346,-3166799.783706665,-7301106.929779053,-4917966.842651367,-5242141.246795654,-712154.0904045105,-7152654.17098999,1127363.681793213,14849648.475646973,1578213.9301300049,-9412844.65789795,-3970277.3094177246,-9002079.963684082,-8337272.644042969,-8623729.705810547,-7889164.447784424,-11816407.203674316,247290.32814502716,876060.7242584229,-8765013.694763184,-8941549.301147461,-16224517.822265625,-9415494.918823242,-16727104.187011719
0.465,27258060.455322266,16403474.807739258,-9916576.385498047,17037237.1673584,12825530.052185059,3498449.3255615234,11562129.020690918,13313597.679138184,14548446.655273438,19822437.286376953,15792813.301086426,10030821.800231934,-1904266.595840454,-7729025.363922119,556648.850440979,5483203.887939453,10726658.821105957,13749327.659606934,12507870.6741333,1222696.4235305786,9010553.359985352,4100920.6771850586,-20145622.25341797,472157.8359603882,75588.85961771011,-15054788.589477539,-6020026.683807373,-25210523.60534668,6739639.2822265625,2713027.7156829834,-757784.6646308899,-10659105.30090332,-5667780.876159668,46924.736350774765,-1279177.6657104492,-21377922.05810547,7937490.463256836,-12356594.08569336,-2002304.0771484375,-3283721.685409546,-7991082.191467285,-5450439.929962158,-5535385.1318359375,-751097.9771614075,-6507556.438446045,277754.7240257263,15946510.314941406,1858946.681022644,-10454304.695129395,-3972602.8442382812,-10632570.266723633,-9932025.909423828,-10399309.158325195,-8618052.48260498,-12788199.424743652,-2301084.9952697754,-430685.93740463257,-10298972.129821777,-10610005.378723145,-19335367.20275879,-12401373.863220215,-19890472.412109375
0.47,24760063.17138672,15233070.373535156,-11516738.891601562,14523931.503295898,12755383.491516113,4195771.69418335,9679805.755615234,11218861.57989502,12438313.484191895,16812335.968017578,15138497.352600098,11855899.810791016,-593816.9956207275,-6585644.245147705,1764743.0896759033,5169202.80456543,8701641.082763672,11639864.921569824,10764372.825622559,674507.7967643738,4607070.446014404,5016403.1982421875,-18109067.916870117,1781829.3571472168,1065563.7979507446,-15203354.835510254,-8223680.49621582,-26836137.771606445,6043570.995330811,2481225.2521514893,-331153.18417549133,-10352287.292480469,-3918252.944946289,1496795.892715454,376102.2388935089,-21617267.608642578,7188849.925994873,-11682744.026184082,-2554764.50920105,-3019994.7357177734,-8103808.403015137,-3794207.5729370117,-3643176.317214966,694205.641746521,-5698397.636413574,-1304376.3637542725,17014328.002929688,2915502.7866363525,-10972110.748291016,-3009063.0054473877,-10877528.190612793,-10205245.018005371,-10811925.888061523,-7501900.196075439,-12520848.274230957,-3570514.678955078,-1306889.8916244507,-10414737.701416016,-10947812.0803833,-20030494.689941406,-12772692.680358887,-20415187.83569336
0.475,19733024.59716797,9956546.783447266,-17317821.502685547,11524449.348449707,9234395.980834961,3027151.346206665,7737840.65246582,8989052.772521973,10254694.938659668,11853806.495666504,11731687.545776367,10551095.008850098,-1961025.9532928467,-8382379.531860352,2730661.8690490723,5160945.415496826,6585002.899169922,9254837.989807129,8848093.98651123,-1756158.947944641,-1113980.2932739258,3605186.2239837646,-17530382.15637207,2835759.6397399902,2303193.3307647705,-13585889.81628418,-8159790.992736816,-28841653.82385254,5229531.288146973,1706890.2254104614,-2531071.186065674,-11236399.65057373,-1776756.8826675415,3872942.6860809326,2851518.8694000244,-21418199.53918457,10044608.116149902,-11170580.863952637,-2642287.015914917,-3139247.417449951,-9283130.645751953,-1642650.7234573364,-1575341.2246704102,2769255.8765411377,-2997756.004333496,-298038.0058288574,18712631.225585938,3743454.2179107666,-10956798.553466797,-2653343.439102173,-9581619.262695312,-8984622.00164795,-9647665.023803711,-4937098.026275635,-11332234.382629395,-3314152.240753174,-1842122.9124069214,-9213639.259338379,-9659946.44165039,-18259769.439697266,-11710310.935974121,-19702083.587646484
0.48,15929464.340209961,5479496.479034424,-23903341.29333496,9755383.491516113,5299229.621887207,401485.23449897766,6489060.401916504,7732969.284057617,8976894.37866211,8369490.623474121,8045207.0236206055,7297417.163848877,-4683393.0015563965,-11860715.866088867,2074409.008026123,4385200.977325439,5456815.242767334,7842945.575714111,8431510.925292969,-4294508.457183838,-4604527.950286865,1118888.9741897583,-18700939.178466797,2254033.327102661,1435636.281967163,-12881845.474243164,-6332169.532775879,-28966732.025146484,5113680.839538574,1734124.0644454956,-4809676.647186279,-12808183.670043945,-1588575.1247406006,5008527.755737305,3850544.4526672363,-19825906.75354004,15711853.02734375,-10696305.274963379,-990818.3813095093,-2996587.2764587402,-11128614.42565918,-1503691.31565094,-1604201.4360427856,3619602.680206299,1085752.1295547485,4239099.979400635,22426542.282104492,4784578.323364258,-10094160.079956055,-3295138.5974884033,-8439455.98602295,-7873410.224914551,-8561135.292053223,-2093900.442123413,-9312500.953674316,-2320801.258087158,-1751969.2182540894,-8285124.778747559,-8394663.81072998,-15847831.726074219,-10680458.068847656,-19699874.877929688
0.485,17451034.545898438,7600236.892700195,-24477705.001831055,10251970.291137695,6064778.804779053,-372080.86252212524,6510753.154754639,7978907.108306885,9223255.157470703,8955602.645874023,8134021.759033203,6770864.963531494,-4614211.082458496,-12209245.681762695,1188658.356666565,3104492.1875,5601532.459259033,8192894.93560791,9856203.079223633,-4433800.220489502,-3825716.972351074,1103269.4578170776,-18839761.73400879,1395512.2232437134,-1727037.4298095703,-14073068.618774414,-5135011.196136475,-27433828.353881836,6132265.567779541,3283568.859100342,-4348875.522613525,-12347999.572753906,-3541147.470474243,3989586.114883423,2585140.4666900635,-16902908.325195312,19742668.15185547,-10121180.534362793,1138715.0287628174,-2461068.868637085,-11702107.429504395,-3747282.9818725586,-3737553.834915161,2617052.7935028076,3895901.918411255,8615258.21685791,25727981.567382812,6008223.533630371,-9862417.221069336,-4558867.931365967,-8548160.552978516,-7963804.721832275,-8632201.194763184,-122520.75970172882,-7774584.770202637,-2354032.278060913,-1870888.352394104,-8437191.009521484,-8365223.8845825195,-14048088.073730469,-10162383.079528809,-19943881.98852539
0.49,23711700.439453125,15247314.453125,-17943346.02355957,12482278.823852539,11987349.510192871,2351267.3377990723,7836287.498474121,9380270.004272461,10829797.744750977,12638206.481933594,12482801.43737793,10700037.002563477,-664261.2218856812,-7816063.88092041,2124533.176422119,2798587.0838165283,6763660.430908203,9952294.34967041,11662860.870361328,-2170168.399810791,-551693.6779022217,4325269.69909668,-16472948.07434082,2309886.932373047,-4223674.774169922,-14601787.567138672,-5326842.784881592,-25584135.055541992,7600127.220153809,5069396.495819092,-2053972.2442626953,-9285879.135131836,-4928269.386291504,2875344.5148468018,1395646.572113037,-13154029.846191406,19167642.59338379,-9192397.117614746,1165005.4454803467,-2616468.4295654297,-10439401.626586914,-5458122.253417969,-5162385.940551758,1736295.5808639526,4440584.659576416,9173832.893371582,24235486.98425293,6067656.517028809,-12222400.665283203,-5773765.563964844,-8418756.484985352,-7875260.829925537,-8411355.018615723,442649.09625053406,-8617325.782775879,-4305633.544921875,-3180519.5808410645,-8171620.3689575195,-8208852.767944336,-12569676.399230957,-10060400.009155273,-18877325.0579834
0.495,30209817.88635254,22310678.482055664,-10128222.465515137,15428389.549255371,18773826.599121094,6582262.992858887,10351247.787475586,11658946.990966797,13363094.329833984,16259033.203125,17594177.24609375,16150733.947753906,4468497.276306152,-1599058.1512451172,5339785.099029541,4665324.2111206055,9129105.567932129,12442432.403564453,12566952.7053833,580604.6724319458,2276294.469833374,8691126.823425293,-12494975.090026855,5475830.554962158,-2906997.2038269043,-11615118.980407715,-4992869.853973389,-23361118.31665039,8729666.709899902,6044273.376464844,129641.02625846863,-5448487.758636475,-2515251.874923706,4801204.204559326,3503762.0067596436,-8969185.829162598,16588672.637939453,-7335296.630859375,-403926.5215396881,-2923341.2742614746,-7745405.197143555,-3043570.2800750732,-2654234.4093322754,3797715.425491333,5360204.219818115,7567564.487457275,19056112.28942871,5302761.554718018,-15022278.785705566,-4866201.877593994,-5334976.673126221,-4915304.660797119,-5231731.414794922,623607.5758934021,-10365755.081176758,-5508628.845214844,-3562608.242034912,-5020806.789398193,-5176413.536071777,-10084986.686706543,-9212958.335876465,-15748687.744140625
0.5,33969276.428222656,25813957.21435547,-5663984.775543213,18639896.392822266,23018087.38708496,9554932.594299316,13852627.754211426,14889999.389648438,16486322.402954102,17869073.86779785,20315793.991088867,19825157.165527344,8588645.935058594,3656960.4873657227,9388527.870178223,8182754.5166015625,12884704.58984375,15418660.163879395,12902513.50402832,2679934.024810791,4029813.766479492,12743485.450744629,-7978817.462921143,9440932.273864746,1496129.035949707,-6128862.8578186035,-2564452.1713256836,-20092512.130737305,9751635.551452637,7260704.040527344,2973341.941833496,-1848446.249961853,3325866.69921875,9645017.623901367,8570211.410522461,-5099035.263061523,16618356.704711914,-4313104.629516602,42863.279581069946,-810711.2050056458,-3412922.143936157,3112740.0398254395,3334477.186203003,8553900.718688965,9028800.964355469,8077577.590942383,17005050.659179688,6399856.090545654,-13345731.735229492,-69459.03599262238,483949.33342933655,853275.0010490417,678052.2465705872,2021653.413772583,-8840834.617614746,-2221618.175506592,405829.45942878723,723191.6785240173,649440.348148346,-6236669.063568115,-6231171.607971191,-11056188.583374023
