time,Fp1,Fpz,Fp2,AF3,AF4,F7,F5,F3,F1,Fz,F2,F4,F6,F8,FT7,FC5,FC3,FC1,FCz,FC2,FC4,FC6,FT8,T7,C5,C3,C1,Cz,C2,C4,C6,T8,TP7,CP5,CP3,CP1,CPz,CP2,CP4,CP6,TP8,P7,P5,P3,P1,Pz,P2,P4,P6,P8,PO7,PO5,PO3,POz,PO4,PO6,PO8,CB1,O1,Oz,O2,CB2
0.0,3399797.6779937744,1747059.1068267822,3164700.2696990967,2447753.1909942627,2056007.3852539062,638876.2593269348,2292811.155319214,2319278.9554595947,2295430.1834106445,1972780.5852890015,2379847.288131714,2642264.6045684814,2747786.7603302,552715.7783508301,1778113.3651733398,2129500.6275177,2071099.7581481934,2328871.488571167,2623697.9961395264,2192933.5594177246,2804644.3462371826,2455352.783203125,3267554.0447235107,2569008.3503723145,840030.6105613708,145819.7385072708,2315567.7318573,649461.2097740173,2782309.055328369,2942380.18989563,1576271.414756775,4070284.843444824,2464560.031890869,2091931.5814971924,2091257.3337554932,2156422.1382141113,3493360.996246338,1949162.1255874634,2815263.9865875244,2692748.0697631836,2304645.538330078,2467163.8011932373,2485350.8472442627,2046869.9932098389,729382.9321861267,1223961.7109298706,647002.4585723877,1926389.5750045776,2056776.0467529297,-1424373.0306625366,1972690.8206939697,2010156.1546325684,1920829.6537399292,635848.8202095032,1274062.8719329834,147095.12889385223,-5307849.407196045,1880844.4738388062,1872068.0475234985,484106.30226135254,1495355.6060791016,1418336.7490768433
0.005,12876630.783081055,-65697.93820381165,6430560.111999512,64154.669642448425,210611.38808727264,2081925.392150879,-162896.88646793365,606768.7273025513,-507506.6089630127,-5812006.950378418,-2447839.7369384766,5975086.212158203,12753643.989562988,-469168.0669784546,2065719.1276550293,1950187.8023147583,-2440474.271774292,-148640.6773328781,2420418.0240631104,5346386.432647705,8414018.630981445,10936460.494995117,9143841.743469238,4873701.572418213,1243688.2257461548,-473806.35142326355,1213319.5400238037,10103459.358215332,8143460.273742676,13637907.028198242,11822845.458984375,22931816.10107422,9416527.74810791,7825441.837310791,8586898.803710938,8110749.244689941,11121896.743774414,4194436.073303223,13938874.244689941,16366392.135620117,15922250.747680664,9343958.854675293,10105573.654174805,7495712.757110596,4504801.273345947,8777723.31237793,12837912.559509277,12317003.25012207,20411281.58569336,13074805.25970459,9651098.251342773,10651117.324829102,9348773.956298828,5808524.131774902,13608041.763305664,17228919.982910156,9057040.214538574,9892024.040222168,8668732.643127441,6547945.022583008,14624459.266662598,11910520.553588867
0.01,21642570.49560547,3000573.3966827393,9674643.516540527,2752741.0984039307,1979062.1995925903,7214966.773986816,2476988.5540008545,3724921.464920044,1873494.8635101318,-6752985.954284668,-2354213.7145996094,10191155.433654785,19971839.904785156,698171.4367866516,4391852.378845215,6055809.020996094,-480890.09523391724,2382883.5487365723,5224217.891693115,9037912.368774414,13141202.926635742,17309350.967407227,13063275.337219238,7922019.958496094,5739811.420440674,3728553.533554077,5052966.594696045,16020799.63684082,12871120.45288086,20634115.21911621,18995214.462280273,34027084.35058594,15632302.284240723,14150944.709777832,15260562.896728516,12718719.482421875,16762216.567993164,8114501.953125,21450119.018554688,24607976.91345215,24008195.877075195,15433044.43359375,16665983.200073242,13689397.811889648,8947593.688964844,14546943.664550781,20029157.638549805,19374521.255493164,31667797.088623047,22374282.836914062,16434791.564941406,17899116.51611328,16150064.468383789,10626995.086669922,21418325.424194336,26714239.1204834,17472085.95275879,16832809.448242188,15128456.115722656,11696241.37878418,22350606.91833496,18253053.665161133
0.015,26739147.186279297,9580781.936645508,13635693.550109863,8356932.640075684,7602442.264556885,12941160.202026367,7738872.051239014,9003524.780273438,7109391.689300537,-1223633.1701278687,3066720.2472686768,15890234.94720459,25058094.024658203,5552918.434143066,6360471.248626709,11208200.454711914,5018251.895904541,7543953.418731689,10073505.401611328,13012174.606323242,17372119.903564453,21920806.884765625,16307373.046875,9458783.149719238,10761938.095092773,9218904.495239258,10301942.825317383,19302036.28540039,16657844.543457031,24148340.225219727,23277336.12060547,36976009.368896484,18173755.645751953,17859243.392944336,19060375.213623047,13985875.129699707,18639785.766601562,12575150.489807129,25326120.376586914,27539127.349853516,26193456.649780273,17855087.280273438,19197385.787963867,17547142.028808594,11791281.700134277,16693515.77758789,21046075.82092285,22349071.502685547,34596580.505371094,25881734.84802246,19753988.26599121,21199790.954589844,19724716.186523438,13447474.479675293,23046852.111816406,27621973.037719727,19177288.055419922,20194488.525390625,18684581.756591797,14232350.34942627,23244571.685791016,19016036.987304688
0.02,25803190.231323242,13800687.789916992,17410648.345947266,10535568.237304688,13045237.54119873,13448099.136352539,9109051.704406738,9985569.00024414,8730468.75,4036265.8500671387,8962039.947509766,21177597.045898438,28959918.975830078,11686901.092529297,4214422.702789307,11349735.260009766,6255921.840667725,9017278.671264648,12852602.005004883,15492243.766784668,20727741.241455078,25247322.08251953,19800926.208496094,6854499.340057373,10306056.97631836,9690351.486206055,10463746.070861816,22382844.924926758,18682701.110839844,26009492.874145508,25731569.290161133,36253604.888916016,15548016.548156738,16335588.455200195,17736986.16027832,11683077.812194824,16959983.825683594,14393553.733825684,27185653.686523438,28318914.41345215,25361827.850341797,15198291.778564453,16469440.460205078,16390045.166015625,10999840.73638916,15044079.780578613,18426774.978637695,22319662.09411621,32313575.744628906,25992975.23498535,18310361.862182617,19622646.33178711,18493061.065673828,12799032.211303711,20383901.596069336,24481056.213378906,17570365.90576172,18821439.743041992,17541263.580322266,13236618.995666504,20119594.57397461,16028537.75024414
0.025,21851882.934570312,12691546.440124512,17451566.696166992,7950523.376464844,13476454.734802246,9951834.678649902,5710609.436035156,6162142.753601074,5637619.495391846,3695020.914077759,9787910.461425781,21831483.840942383,29092285.15625,12478940.0100708,-338838.3090496063,7634518.623352051,2201716.423034668,5920039.176940918,11257678.985595703,14554485.321044922,20796949.38659668,25266180.03845215,20067228.317260742,2319147.5868225098,6042672.634124756,6383401.393890381,6621444.225311279,24704891.204833984,17735193.252563477,25807840.34729004,25183160.78186035,34221374.51171875,11841220.85571289,13148041.725158691,14777420.043945312,9056351.661682129,14703576.08795166,12047039.031982422,26901359.55810547,27703577.041625977,23120695.114135742,11517191.886901855,12809977.531433105,13478361.129760742,8844871.520996094,12300059.31854248,15470449.447631836,20250038.146972656,27630678.176879883,24262241.36352539,15434876.441955566,16702030.181884766,15573212.623596191,10073665.618896484,17171461.10534668,21661449.432373047,15704257.96508789,16000385.284423828,14603153.228759766,10715590.476989746,17195240.020751953,12732530.59387207
0.03,22313081.741333008,9871000.289916992,12145818.710327148,6744074.34463501,8777040.481567383,11557769.775390625,4270766.258239746,4633017.063140869,4203479.766845703,-506338.53673934937,5404877.662658691,16561611.17553711,22998786.92626953,3945702.7912139893,112374.10455942154,8239984.512329102,305247.36642837524,4624115.467071533,7989705.562591553,11253863.334655762,16601715.087890625,20401323.318481445,13354629.516601562,2621397.9721069336,6196849.822998047,6341339.588165283,6011600.971221924,24230625.15258789,14470355.033874512,22598140.716552734,20776262.283325195,30493045.806884766,13277692.794799805,14375416.75567627,15896020.889282227,9555937.767028809,14955016.136169434,7911756.0386657715,23998840.33203125,24712713.24157715,19987775.802612305,12933572.769165039,14373455.047607422,14626578.330993652,9325731.27746582,11887313.842773438,14188587.188720703,17228666.305541992,22582878.11279297,21574800.491333008,16291740.417480469,17508274.07836914,16198051.452636719,9213397.979736328,16271030.42602539,20796152.114868164,14638903.617858887,16747398.376464844,15096551.895141602,10492466.926574707,17164056.7779541,11782584.190368652
0.035,31265514.373779297,10854858.3984375,5773235.321044922,12465380.668640137,4393895.149230957,24489904.403686523,10365068.435668945,10962231.636047363,9835929.870605469,-2512954.4734954834,1616256.594657898,10568562.507629395,14363228.797912598,-8728222.846984863,10386115.074157715,17615701.67541504,6164528.369903564,10309565.544128418,7831730.842590332,9835542.678833008,11897285.461425781,13928124.42779541,2691650.867462158,11983139.038085938,14631546.974182129,11897057.53326416,11210558.891296387,21406465.530395508,12403277.397155762,18956928.253173828,15848475.456237793,26306465.14892578,20950510.025024414,20545724.868774414,21661485.67199707,12642403.602600098,17778207.778930664,6214132.308959961,21108875.274658203,21114072.799682617,17947179.794311523,20504331.588745117,21978031.158447266,20461460.11352539,12833000.183105469,14721984.86328125,15515471.458435059,15656304.359436035,20099016.189575195,20075452.80456543,21900472.64099121,22957738.876342773,21615772.247314453,12945853.233337402,18029365.53955078,22165622.71118164,14962111.473083496,22109445.571899414,20411693.572998047,14364698.41003418,20167955.39855957,13788993.835449219
0.04,43784564.97192383,16217163.0859375,4225888.252258301,22300144.19555664,5327634.811401367,43053432.46459961,20835823.05908203,21635507.583618164,19547891.61682129,453759.25302505493,3474376.440048218,10403565.406799316,10556468.963623047,-15743988.990783691,25836040.496826172,30221969.604492188,16038606.643676758,19898309.7076416,11777571.678161621,12995361.328125,11647138.595581055,11626350.402832031,-4052035.331726074,26317464.82849121,26017696.380615234,18100664.138793945,16939413.07067871,18440570.831298828,14560505.867004395,19238704.681396484,15121449.47052002,24694366.455078125,30067886.352539062,26703926.08642578,27607252.12097168,15198190.689086914,21031528.47290039,8896272.659301758,22309761.04736328,20846620.559692383,19124557.495117188,29499101.638793945,30763137.817382812,26380458.83178711,16655775.07019043,19136522.29309082,19754711.151123047,17828296.661376953,22054990.768432617,21627161.026000977,28584016.799926758,29448783.87451172,28268608.09326172,19901542.66357422,20976301.193237305,25567214.965820312,17239545.822143555,28610219.955444336,27079584.1217041,20353286.743164062,24591363.90686035,17853046.417236328
0.045,50361743.92700195,20981536.865234375,7137647.1519470215,28072729.110717773,10125170.707702637,54660057.067871094,27356304.168701172,28070657.73010254,25363159.1796875,4524584.2933654785,8978153.228759766,15662569.999694824,13672083.854675293,-14343647.003173828,36255828.857421875,37172718.0480957,21824909.210205078,25648723.602294922,15626409.530639648,17919458.389282227,15488820.07598877,14700785.636901855,-3632237.672805786,36540340.423583984,33055347.442626953,20694248.19946289,18323907.85217285,16434753.41796875,19443330.764770508,23624956.130981445,18457620.62072754,26191379.54711914,36341114.04418945,30001001.358032227,31120946.884155273,16365226.745605469,23663051.60522461,14009110.450744629,27723114.013671875,24785423.278808594,22745943.069458008,35718158.72192383,36741771.69799805,29713214.874267578,19780050.27770996,23489175.79650879,25983940.12451172,23058662.41455078,26448068.618774414,25299636.840820312,33358116.149902344,34153354.64477539,33093101.501464844,26240055.084228516,23981473.922729492,29803266.525268555,20868068.69506836,33374588.012695312,32010002.13623047,25377101.89819336,28727279.663085938,22811460.494995117
0.05,47055744.17114258,20591222.763061523,8055850.982666016,25916666.03088379,12803170.204162598,53307624.81689453,25962285.9954834,26421310.424804688,23595430.374145508,3976220.13092041,11413908.004760742,19374198.91357422,18083030.700683594,-11600003.242492676,36444831.84814453,36166042.32788086,20491790.771484375,24073802.947998047,15088906.288146973,19276666.64123535,18011388.778686523,18330022.81188965,-707360.6252670288,37628440.856933594,34383190.1550293,20995376.586914062,16889059.06677246,15876329.42199707,22327196.12121582,27351991.653442383,21111492.156982422,28042886.73400879,39753284.4543457,32411609.649658203,33827865.60058594,18049381.256103516,26320396.423339844,17958690.643310547,32663921.356201172,29331785.202026367,26152704.2388916,39199058.532714844,40211532.59277344,32270000.457763672,23439046.85974121,27216304.779052734,31788589.477539062,27750501.63269043,29559097.290039062,28771102.905273438,36781734.466552734,37719280.24291992,36530200.95825195,29569774.627685547,27132894.51599121,33236331.939697266,24180646.896362305,36888008.11767578,35605812.072753906,28540700.912475586,31874320.98388672,27547801.971435547
0.055,39526649.475097656,15994487.762451172,3321632.8620910645,20087156.295776367,10543180.465698242,44887832.64160156,20389247.89428711,20707622.528076172,18099649.42932129,-1711584.8064422607,7938658.237457275,17495801.92565918,18595306.396484375,-14310726.165771484,30563947.677612305,32125934.600830078,15744432.44934082,18822740.55480957,11180455.207824707,16101327.896118164,16396402.359008789,18626623.153686523,-381240.576505661,32685901.641845703,33330204.010009766,21420587.53967285,16200485.229492188,18067100.524902344,21178947.44873047,27248262.405395508,20701654.4342041,28690906.524658203,41609008.7890625,35374423.98071289,36749683.38012695,20487495.42236328,29024085.998535156,18952461.24267578,33548763.275146484,31456239.700317383,28690101.623535156,41218898.77319336,42383811.950683594,35263992.30957031,27065107.345581055,29605813.98010254,35093166.35131836,29297372.817993164,30916719.436645508,31626159.66796875,39884231.56738281,41133518.21899414,39612209.32006836,30565309.524536133,30638965.606689453,35512931.82373047,26475259.78088379,40100650.787353516,38893238.06762695,31003820.419311523,34306404.11376953,30790033.3404541
0.06,36223503.11279297,12129137.03918457,-2879966.0205841064,16946517.944335938,6947014.331817627,38669902.80151367,16340574.264526367,16733240.127563477,14596271.514892578,-7111806.869506836,3246003.8661956787,14194052.696228027,17106330.87158203,-20393461.227416992,25624671.936035156,29754093.170166016,12019576.072692871,15265746.116638184,8910067.558288574,13142901.420593262,14281798.362731934,17670518.87512207,-1778543.23387146,27784080.505371094,32021678.924560547,20918510.43701172,15925192.832946777,22733827.590942383,19133960.723876953,25844066.619873047,20012542.724609375,29688690.185546875,41410552.978515625,36415294.6472168,37473937.98828125,20552375.79345703,30266929.626464844,18079837.799072266,32161075.592041016,32180976.86767578,31635551.45263672,41150871.27685547,42379955.29174805,36220924.377441406,27645015.716552734,29523538.58947754,36223423.00415039,28713556.28967285,33066284.1796875,34697586.05957031,41483932.49511719,43010284.423828125,41236167.907714844,31045303.344726562,33703651.428222656,37438510.89477539,28523733.139038086,41837223.052978516,40704814.91088867,33519260.40649414,36407100.677490234,31789060.592651367
0.065,39227794.6472168,12247867.584228516,-4536354.541778564,17884595.87097168,6816925.525665283,36799125.67138672,15236880.3024292,15796347.618103027,14439693.450927734,-7293650.6271362305,3403350.353240967,15457522.39227295,18289730.072021484,-24037605.28564453,23286666.870117188,28824855.80444336,10038264.274597168,14800581.932067871,11095876.693725586,14701776.504516602,16042865.753173828,19145978.927612305,-1946720.004081726,24909427.642822266,29839107.513427734,17678337.09716797,13693589.210510254,26393470.764160156,20028242.111206055,26921590.80505371,21368438.720703125,31788648.60534668,38635578.15551758,33392879.486083984,34221855.16357422,16134687.423706055,29273836.135864258,17605838.775634766,32282146.453857422,33512516.021728516,34487293.2434082,38342025.75683594,39508323.669433594,33136737.823486328,24116300.582885742,27119155.883789062,37179718.017578125,28487533.569335938,36505626.6784668,36880905.15136719,40494266.510009766,42011257.17163086,40304458.61816406,31525238.037109375,35230461.12060547,39093513.48876953,30553680.419921875,40980834.9609375,39819812.7746582,35429096.22192383,38100997.92480469,31473106.384277344
0.07,43468833.923339844,14942128.18145752,-1825714.2305374146,19564228.057861328,9924118.041992188,34944507.59887695,14681236.267089844,15369676.58996582,14987297.058105469,-3481134.4146728516,8040592.193603516,20402942.657470703,21620262.145996094,-25387731.552124023,20471162.796020508,26946792.602539062,8322210.311889648,15171609.878540039,15228340.148925781,19271022.79663086,20018493.65234375,21718883.514404297,-2352202.6538848877,21959999.084472656,26515224.45678711,13299254.417419434,10286543.846130371,26681463.24157715,23238882.064819336,29465591.430664062,21989934.92126465,32230293.27392578,35135578.15551758,28718332.290649414,29572637.5579834,10072703.36151123,27645343.780517578,18589855.194091797,33933094.0246582,34305007.93457031,34397712.70751953,34678714.752197266,35836071.0144043,28456996.91772461,19537532.806396484,24454305.64880371,38588211.05957031,28719232.5592041,37858394.622802734,35381023.40698242,38549564.361572266,39757621.76513672,38336574.55444336,31195457.458496094,34815368.65234375,38984226.22680664,30743150.71105957,39066791.53442383,37746753.69262695,35892536.16333008,38849082.946777344,31830757.14111328
0.075,43761707.3059082,16579668.045043945,145933.46416950226,19296609.87854004,11960273.742675781,31223484.03930664,13152175.903320312,13898719.787597656,14254437.446594238,-868483.6626052856,11276687.622070312,22630056.381225586,21941373.825073242,-29079675.674438477,16332462.310791016,24111921.310424805,6571784.973144531,14544342.994689941,16998750.686645508,21834144.592285156,20743392.944335938,20650360.107421875,-6706927.77633667,18225002.28881836,23803213.119506836,11137922.286987305,9150255.20324707,26533927.91748047,24818355.560302734,29102949.142456055,18073921.20361328,28346187.591552734,32941589.35546875,26221525.192260742,27237514.49584961,7328561.782836914,27412357.330322266,19897090.911865234,33507106.78100586,31584197.998046875,30025384.9029541,32376762.39013672,33637332.916259766,25944385.528564453,17048273.08654785,23085340.49987793,38271888.732910156,26887422.561645508,33963886.26098633,29234802.24609375,37300052.642822266,38218288.42163086,36933212.28027344,29179161.071777344,32011909.48486328,35271469.11621094,26649053.5736084,37744941.71142578,36265781.40258789,34361495.97167969,37429023.74267578,32928688.049316406
0.08,40801738.73901367,15903240.203857422,-867180.4666519165,18184246.063232422,11216248.512268066,29417287.826538086,12137339.59197998,12872898.10180664,13391673.08807373,-1634748.2204437256,10280629.15802002,19877103.805541992,18056713.104248047,-35170528.411865234,14103924.751281738,22758752.822875977,6182192.802429199,13794586.181640625,15913860.321044922,20826095.581054688,17373979.568481445,15904818.534851074,-13502933.502197266,16109931.945800781,23556314.46838379,11985941.886901855,11507246.017456055,30374608.993530273,23486768.72253418,25306245.803833008,11774701.118469238,22805765.15197754,31479673.385620117,26112422.943115234,27271604.537963867,9159626.960754395,28650627.13623047,19994943.618774414,29830862.045288086,25992904.663085938,24674356.46057129,30961271.286010742,32282077.78930664,25820522.30834961,15860978.126525879,22126785.278320312,34513931.27441406,22150295.25756836,26575706.481933594,21313350.677490234,35406005.859375,36342876.43432617,34869407.653808594,25629768.37158203,26553668.975830078,28362890.243530273,18984794.61669922,35822349.548339844,34310127.25830078,30631532.669067383,33090656.280517578,32277153.01513672
0.085,39680820.46508789,15443396.56829834,-1595375.0610351562,19124940.872192383,11350637.435913086,32306888.580322266,13699051.856994629,14373737.335205078,14708030.700683594,-2538226.842880249,9363926.887512207,17793579.1015625,15951184.272766113,-38249576.568603516,15257357.597351074,24195278.16772461,8186827.659606934,15018512.725830078,15769536.972045898,20288946.1517334,15711210.250854492,13917300.2243042,-16228252.410888672,16692337.036132812,25393276.21459961,13764959.335327148,14884396.55303955,37565761.56616211,22789678.5736084,23350505.828857422,9790390.968322754,21825075.149536133,29320547.103881836,25928634.643554688,27135948.181152344,12127230.644226074,30012229.919433594,19408771.514892578,27013629.913330078,22896600.7232666,23739263.5345459,28891807.556152344,30134202.95715332,25719434.73815918,13250274.658203125,19845094.680786133,29780323.028564453,17999828.338623047,21427654.266357422,16149583.81652832,31327268.600463867,32480422.973632812,30743316.650390625,21925382.614135742,20659967.42248535,22182966.232299805,12960028.648376465,31822675.704956055,30384443.283081055,25943258.28552246,27790540.69519043,28635732.650756836
0.09,43866783.142089844,18419109.344482422,1338492.751121521,23139133.45336914,16248573.303222656,36104026.794433594,17458711.624145508,18112550.735473633,18530338.287353516,-184341.698884964,13662754.05883789,22221229.553222656,21151842.11730957,-36450866.69921875,15959644.317626953,26702899.932861328,11676026.344299316,18734727.85949707,19525581.35986328,24436706.54296875,20483371.73461914,19347255.70678711,-12069746.017456055,16937347.412109375,27059043.884277344,14796899.795532227,16760566.711425781,43727912.90283203,26342895.5078125,27707979.202270508,14921114.921569824,27824508.666992188,27598800.659179688,25134998.321533203,26241235.733032227,12721463.203430176,30938350.677490234,20572383.880615234,29681665.420532227,26776456.832885742,29302679.06188965,27163719.177246094,28283447.265625,25098953.247070312,9206328.392028809,16634155.2734375,29209718.704223633,19095569.610595703,23357387.54272461,16755405.42602539,27957986.83166504,29200313.568115234,27417463.302612305,20226444.244384766,19749160.766601562,22421844.482421875,14702247.619628906,28479667.66357422,27120025.634765625,23948303.22265625,26558782.57751465,25578336.715698242
0.095,50868907.9284668,24295169.830322266,6221412.181854248,27698135.375976562,23634662.628173828,34970783.23364258,20506580.352783203,21264123.916625977,22277130.126953125,3605248.9280700684,21007970.809936523,30468881.607055664,30385917.66357422,-34734428.40576172,12372813.22479248,27364162.44506836,14148555.755615234,22614116.668701172,25020547.86682129,31566843.032836914,28352046.966552734,27988023.75793457,-6154548.645019531,13852184.295654297,26754381.17980957,15267247.200012207,17429918.28918457,47175178.52783203,32545703.887939453,35635334.01489258,22241340.63720703,35803276.06201172,28736337.661743164,25541978.83605957,26414686.20300293,11177789.688110352,32081222.534179688,24535427.09350586,36657295.22705078,35336063.385009766,37502277.37426758,28226865.768432617,29275789.260864258,25611753.463745117,7035896.301269531,15131479.263305664,34721412.658691406,25558679.580688477,32034923.553466797,22655609.130859375,30228639.602661133,31369626.998901367,29679519.653320312,22179738.998413086,27408401.489257812,31416147.232055664,24875112.533569336,30563970.5657959,29242324.829101562,28023925.78125,32939437.866210938,28170495.986938477
0.1,53807243.34716797,28096765.518188477,8182310.104370117,28514715.19470215,26454389.572143555,29099044.799804688,19991449.3560791,20883001.32751465,22527143.478393555,4085073.947906494,23776500.701904297,33889232.63549805,34485469.818115234,-36519950.86669922,6985263.824462891,25074268.341064453,13390201.568603516,23119092.94128418,27064266.204833984,35381763.45825195,31503057.4798584,31271465.301513672,-4799490.451812744,9459963.79852295,24790571.212768555,15548034.66796875,18323949.813842773,49350536.34643555,35954486.84692383,39819152.83203125,25080722.80883789,38387119.29321289,32156047.821044922,27434526.443481445,28119731.903076172,10044745.445251465,33655158.99658203,28639490.127563477,41655715.94238281,41031837.463378906,41587955.474853516,31618770.599365234,32619842.529296875,27451822.28088379,9247877.12097168,17024085.998535156,42127681.732177734,32009029.388427734,41607547.760009766,29742256.16455078,37695838.928222656,38767070.77026367,37069988.25073242,27073074.340820312,39393577.575683594,44100490.57006836,36407356.26220703,37744789.123535156,36450252.532958984,36557636.26098633,43549949.645996094,35701812.744140625
0.105,48415542.60253906,25557010.650634766,5128544.807434082,23944858.55102539,21413152.69470215,24666358.947753906,15962042.808532715,16785488.12866211,18526800.15563965,363868.1471347809,18923030.853271484,28907289.505004883,29648008.346557617,-37710838.317871094,5865341.1865234375,21643608.09326172,9685452.461242676,19192455.291748047,23605445.861816406,32542579.650878906,27391317.36755371,26926666.259765625,-7508543.968200684,8624525.07019043,23167570.114135742,15094892.501831055,19231107.711791992,50016876.220703125,33721076.96533203,37019844.05517578,22741874.69482422,33959217.0715332,34409576.416015625,28605562.210083008,29346570.96862793,10512384.414672852,34629615.783691406,29055513.381958008,40533245.08666992,39203674.31640625,38521457.67211914,33911304.47387695,34870105.7434082,28545982.360839844,14314509.391784668,20692502.975463867,45461467.74291992,33178588.8671875,45274478.912353516,32987266.540527344,43630676.26953125,44743427.27661133,43004863.73901367,31434865.951538086,45995098.11401367,51209899.90234375,40536495.208740234,43550540.924072266,42290489.196777344,43066738.12866211,49792823.791503906,40935241.69921875
0.11,38956523.89526367,18997995.376586914,263797.402381897,17838026.04675293,13875139.236450195,25745018.005371094,11821671.485900879,12307903.289794922,13719068.52722168,-3200655.221939087,12329201.698303223,21749006.271362305,22442907.333374023,-33633098.60229492,10288825.988769531,20148904.80041504,6178468.227386475,14250311.851501465,18356557.846069336,26912780.76171875,21722600.93688965,21604158.401489258,-8801853.17993164,12407038.688659668,23663427.352905273,13720517.1585083,18720779.418945312,47501167.29736328,28811183.92944336,31613462.448120117,20212116.241455078,28310974.12109375,34108528.13720703,28041700.36315918,29031118.392944336,11460306.167602539,33894775.390625,25475500.106811523,35814670.56274414,33374675.750732422,32708354.949951172,33661926.26953125,34646408.08105469,28054193.4967041,18024904.251098633,22507350.92163086,43169464.111328125,29341094.970703125,41732059.478759766,31014459.60998535,43268184.661865234,44335208.892822266,42773601.53198242,31497516.632080078,42131538.39111328,48358295.44067383,35794010.162353516,43264953.61328125,42011119.8425293,42887733.459472656,46888454.43725586,38661994.93408203
0.115,34474903.10668945,15479824.06616211,-1634379.7445297241,16037591.934204102,11581840.515136719,29382074.3560791,11167755.126953125,11315823.554992676,12505444.526672363,-3112798.4523773193,10865648.26965332,20073453.903198242,21398874.282836914,-27330385.208129883,14999876.976013184,21913618.087768555,5969314.5751953125,12948740.005493164,16260828.018188477,24544815.063476562,20628355.026245117,21851970.672607422,-6263374.328613281,16616497.039794922,26252508.16345215,12757755.279541016,16719495.77331543,43472095.48950195,25849588.39416504,29388633.728027344,21070178.985595703,27471319.1986084,33755798.33984375,27832191.467285156,28978454.58984375,11594247.817993164,31540824.89013672,21400571.823120117,32563400.268554688,30454032.89794922,31178182.60192871,33367366.790771484,34432350.158691406,27998271.942138672,17682018.280029297,20319219.5892334,38419288.635253906,24731189.727783203,36224182.12890625,27150089.263916016,39497386.93237305,40334880.82885742,39095008.850097656,26651760.10131836,32579792.022705078,40255786.89575195,28861968.994140625,39571170.806884766,38268028.259277344,38174369.81201172,39097244.26269531,32305091.857910156
0.12,37310977.935791016,17652952.194213867,108869.5153594017,19029359.817504883,14790875.434875488,29517648.696899414,13556457.51953125,13705989.837646484,14888393.40209961,-1402235.984802246,13387702.941894531,23079576.49230957,26245479.583740234,-25394845.962524414,15066207.885742188,24751316.07055664,8358690.26184082,15428077.697753906,17669292.449951172,26117099.76196289,22964839.935302734,25874639.5111084,-3117706.298828125,17128513.33618164,29122631.072998047,13678729.057312012,15101906.776428223,42033065.79589844,25577548.98071289,30295713.424682617,23329010.009765625,30589878.08227539,35395141.6015625,29819581.985473633,30845523.834228516,11189237.594604492,28878883.361816406,19680858.612060547,31828586.57836914,31854764.938354492,34760444.64111328,35097644.8059082,36162509.91821289,29984693.52722168,14687317.848205566,15666747.093200684,34552593.23120117,21879768.37158203,34059520.72143555,24853801.727294922,37898345.947265625,38554775.23803711,37388427.734375,20351440.4296875,25687383.6517334,34448429.107666016,25873409.271240234,37902294.15893555,36547927.85644531,34384162.90283203,33955745.697021484,29061407.0892334
0.125,39010951.99584961,19586597.442626953,1271594.762802124,20717483.520507812,16613882.064819336,23735025.40588379,14561348.915100098,15077501.29699707,16092504.501342773,-2013194.5610046387,13721371.6506958,23996633.529663086,29313236.236572266,-28291107.177734375,10904994.96459961,24635700.225830078,9231442.45147705,16779052.734375,18906541.82434082,27265087.127685547,23217418.670654297,27057874.67956543,-3048549.4136810303,13868722.915649414,29952262.87841797,15745179.176330566,15262440.68145752,43176338.19580078,25321363.44909668,29943470.001220703,23009727.478027344,31956415.1763916,36853744.50683594,32128154.754638672,32883819.580078125,11203291.893005371,27529590.606689453,19805355.072021484,30852237.701416016,32547119.140625,36891269.68383789,36643039.70336914,37588413.23852539,32085556.030273438,12719442.367553711,12455967.903137207,32487117.767333984,19883970.260620117,34557567.59643555,23758384.704589844,38882259.368896484,39639522.552490234,38189079.28466797,17152360.916137695,24407485.961914062,32947555.541992188,25668882.369995117,38788230.895996094,37474079.13208008,33334197.998046875,33382328.033447266,30285934.448242188
0.13,32534923.553466797,15671927.452087402,-1212438.8217926025,16952896.118164062,13945708.274841309,15106721.878051758,11423765.182495117,12378911.972045898,13081954.002380371,-4461771.011352539,11123394.012451172,21335037.231445312,27214776.99279785,-30768449.783325195,5459613.32321167,19982458.114624023,6233062.267303467,13804937.362670898,18144035.33935547,26111961.364746094,20528127.670288086,24007280.349731445,-5522976.398468018,8845726.013183594,27450515.747070312,16203092.575073242,16137535.095214844,42574352.2644043,24184337.615966797,27312454.223632812,20034784.3170166,29514575.958251953,34608535.76660156,31185222.625732422,31788961.41052246,11383357.048034668,28334554.67224121,20369657.516479492,29001150.131225586,29541606.903076172,33004615.783691406,34422843.93310547,35284534.4543457,30966012.954711914,13241097.450256348,13062305.450439453,32134395.599365234,17982618.33190918,33759204.86450195,21998807.907104492,38337184.90600586,39353389.739990234,37652954.1015625,18567472.457885742,25720275.87890625,32491531.372070312,23756057.739257812,38307594.299316406,37127479.553222656,32468852.996826172,33551536.560058594,30673604.96520996
0.135,25025634.765625,10884184.837341309,-3757688.7607574463,12610435.485839844,13224113.464355469,8802551.26953125,7541007.995605469,8743142.127990723,9638494.491577148,-4415501.117706299,12133091.926574707,22056371.688842773,26266710.28137207,-30526220.321655273,88662.39339113235,14219154.357910156,2441294.9085235596,10294900.894165039,18069793.701171875,26560422.897338867,20570793.15185547,22969753.26538086,-7027176.380157471,3323235.7501983643,22737741.470336914,13721832.275390625,15870650.291442871,39674491.88232422,24944990.158081055,27157302.856445312,18698432.92236328,28178039.55078125,29492616.653442383,26936769.485473633,27613441.467285156,10470175.743103027,30694026.947021484,21985048.294067383,29790805.81665039,27475530.62438965,28045766.830444336,29297992.706298828,30205200.1953125,26771856.3079834,13988918.30444336,15985499.382019043,33670665.7409668,17888019.561767578,31788949.966430664,20682958.602905273,35254585.26611328,36380172.72949219,34796970.36743164,22352125.16784668,26818159.103393555,31434814.453125,20501115.798950195,35430122.37548828,34338317.87109375,30705411.911010742,32638442.993164062,27308103.561401367
0.14,29533075.3326416,14906130.79071045,-269595.11637687683,15476651.191711426,21180604.934692383,7560385.227203369,8636843.68133545,9876914.024353027,11734435.081481934,-409530.75885772705,20418399.810791016,31157800.674438477,33453227.996826172,-30442770.00427246,-4482816.696166992,12756614.685058594,2820283.1745147705,12317661.28540039,21602636.337280273,32129863.739013672,27301036.834716797,29193735.122680664,-5045588.01651001,-1319638.3714675903,19365362.1673584,10824181.55670166,14884441.375732422,40294975.28076172,29763843.536376953,33210391.998291016,22364738.46435547,32912666.32080078,27021554.946899414,23956541.061401367,24808872.22290039,8444104.194641113,33040031.43310547,25827384.94873047,35506298.06518555,32513954.162597656,30676769.256591797,26848869.32373047,27787370.681762695,23963060.37902832,12727104.187011719,17972562.789916992,36570133.209228516,21063329.696655273,33402603.149414062,22821458.81652832,34589637.756347656,35600807.189941406,34305770.87402344,25940755.84411621,28336736.67907715,32313602.447509766,21240695.95336914,34911560.05859375,33726963.04321289,31476030.349731445,34295921.325683594,25254692.07763672
0.145,44120494.8425293,25762067.794799805,7573344.2306518555,24129316.329956055,33011451.721191406,9423976.89819336,14522510.528564453,15695272.445678711,18471036.911010742,3197815.6566619873,29679830.55114746,42640659.33227539,45420360.56518555,-32429244.995117188,-6289449.214935303,16831161.499023438,7287755.489349365,19037418.365478516,27001087.188720703,39626735.68725586,36417324.06616211,39177104.94995117,-178505.5696964264,-2697272.300720215,20497869.49157715,11195536.613464355,15362135.887145996,47687545.77636719,36141971.588134766,41950416.564941406,29168313.98010254,41166763.30566406,31373701.095581055,26308080.673217773,27257978.439331055,7207386.9705200195,34242195.12939453,30527692.794799805,42698631.286621094,42982879.638671875,41510425.56762695,31224403.381347656,32044776.916503906,26369773.864746094,10882716.178894043,17919832.229614258,39222736.35864258,25636930.465698242,40491813.65966797,28305507.65991211,40920230.865478516,41801372.52807617,40561225.89111328,29329549.78942871,31548671.72241211,36992801.666259766,28248403.549194336,41218223.571777344,39827510.833740234,37898391.72363281,41719852.447509766,31062818.52722168
0.15,50952545.166015625,28912420.27282715,9667026.51977539,28241174.697875977,36351287.841796875,10172904.014587402,18316143.035888672,19351032.257080078,22050960.540771484,1650196.0754394531,30778915.405273438,45654777.52685547,51226348.876953125,-34576545.71533203,-4350763.320922852,21772058.486938477,10220554.35180664,22674491.88232422,29402046.20361328,42299091.33911133,39855495.45288086,44179740.90576172,4152468.681335449,-78732.24467039108,25256570.81604004,14772833.824157715,17498491.287231445,55885837.55493164,39014411.92626953,45858158.111572266,33591499.32861328,45169742.584228516,40212352.75268555,32408813.4765625,33310852.05078125,8121238.708496094,34232654.5715332,32600475.311279297,45463020.32470703,50059940.338134766,51398868.560791016,39991191.86401367,40682579.040527344,32412528.99169922,11242815.017700195,17160266.876220703,40241657.25708008,27867464.065551758,47633010.86425781,32864284.51538086,51398330.68847656,52310729.98046875,50834884.64355469,33259330.74951172,35059123.99291992,42432540.89355469,36245780.94482422,51588909.14916992,50117168.42651367,46743213.65356445,51091129.302978516,42602664.947509766
0.155,43072242.736816406,19228162.76550293,2315340.280532837,23652084.350585938,28437570.571899414,9231697.082519531,16251060.485839844,17083330.154418945,18976299.285888672,-3416541.09954834,24108247.756958008,38736572.265625,46437938.69018555,-35310024.26147461,-939133.7037086487,23078613.28125,8575761.795043945,19697633.743286133,27156213.760375977,38745948.791503906,35757072.44873047,40849025.72631836,4258960.247039795,3679859.399795532,29414821.62475586,17699289.321899414,18605802.536010742,57089031.21948242,36693801.87988281,42398902.893066406,32319721.221923828,41423835.75439453,46710002.89916992,36672645.568847656,37452419.28100586,9766242.980957031,33386512.756347656,30384878.158569336,42449886.322021484,48305683.13598633,52408531.188964844,46322223.66333008,47073196.41113281,36693901.06201172,12857935.905456543,16198205.947875977,39398563.385009766,26364311.21826172,48127452.8503418,32801555.633544922,57717952.728271484,58772361.755371094,57029605.865478516,35893390.65551758,35963977.8137207,43711544.036865234,38107830.04760742,57831031.799316406,56529022.216796875,50544754.02832031,54635780.334472656,49579765.31982422
0.16,41105670.92895508,15726726.531982422,-167952.96967029572,20975973.12927246,23137964.248657227,12060901.641845703,14813857.078552246,15476366.996765137,17024797.439575195,-4812716.484069824,20233484.268188477,32989933.013916016,40252635.95581055,-34610557.556152344,1348534.5840454102,22830842.971801758,7710618.019104004,17781028.747558594,24630962.371826172,35351692.19970703,31046659.469604492,35701473.236083984,684816.7181015015,5494128.227233887,30840356.826782227,17870702.743530273,17473037.719726562,52499965.66772461,33173236.846923828,37213142.39501953,28178339.0045166,35118007.65991211,46507827.75878906,36188747.40600586,36900691.986083984,9881520.27130127,32319789.88647461,26408832.550048828,38435634.61303711,42128948.21166992,46832569.12231445,45982845.306396484,46888717.65136719,36326393.127441406,11811091.423034668,13992595.672607422,37397487.64038086,23609107.971191406,42579925.537109375,28800338.745117188,54997467.041015625,56143783.56933594,54265892.028808594,34244426.72729492,33462211.60888672,39959663.39111328,32973697.662353516,55033874.51171875,53996284.48486328,46082229.61425781,49742534.63745117,45013710.021972656
0.165,69431922.91259766,41969841.00341797,22062158.584594727,32925514.221191406,36099750.51879883,23269649.505615234,23261106.491088867,23913784.02709961,26170475.006103516,2474934.1011047363,27823123.931884766,39793788.90991211,46224418.64013672,-29524652.4810791,3149252.6531219482,26979776.38244629,15246929.168701172,26824464.797973633,27788982.391357422,39136978.14941406,33958957.67211914,38459083.557128906,320692.6882266998,6033298.969268799,32365482.330322266,18124866.485595703,17494226.455688477,50661273.95629883,34329490.661621094,38164813.99536133,28151498.794555664,34753257.751464844,41889575.95825195,34106132.50732422,34881340.02685547,9283391.952514648,32835830.688476562,25659425.735473633,39351203.91845703,40700378.41796875,43801517.486572266,41351364.13574219,42257450.103759766,34264774.322509766,7841884.613037109,11680120.468139648,36375934.60083008,23817703.247070312,38811607.360839844,25027421.951293945,47094936.37084961,48217338.56201172,46292819.97680664,29572376.251220703,30588871.002197266,35723670.959472656,26913856.506347656,46983345.03173828,46056179.04663086,38717292.78564453,42522979.736328125,33770442.962646484
0.17,119357551.57470703,92611648.55957031,68153999.32861328,55670913.69628906,65380958.557128906,36977752.685546875,39736682.8918457,40534049.98779297,43974910.736083984,15454522.132873535,44116668.701171875,58444290.16113281,67708084.10644531,-14607424.73602295,5545455.9326171875,35961532.59277344,29615966.796875,44474769.592285156,37601959.228515625,50262584.6862793,45935047.1496582,52411041.259765625,11099674.224853516,7315073.9669799805,36988758.0871582,21858566.284179688,22499376.29699707,56481460.57128906,42437030.79223633,47831951.14135742,37073917.388916016,44401077.27050781,38742645.263671875,35370349.8840332,36286487.5793457,11552734.375,37505855.560302734,31640581.130981445,47243804.931640625,48717475.89111328,49600776.67236328,38283535.00366211,39056301.11694336,35378635.40649414,6492877.48336792,13902953.147888184,40090629.57763672,29894496.91772461,43561836.24267578,26087678.909301758,42419807.43408203,43486652.37426758,41569599.15161133,28321323.39477539,32126640.31982422,36686660.76660156,26649549.48425293,42173572.5402832,41169456.481933594,36985099.79248047,41532138.82446289,27775156.021118164
0.175,151831237.79296875,131967880.24902344,110531951.90429688,70337532.04345703,91790832.51953125,39146614.07470703,50500789.642333984,51463909.14916992,55793472.29003906,25406784.057617188,58408847.80883789,77624107.36083984,94434005.73730469,9224129.676818848,5578752.9945373535,41812377.9296875,39237182.6171875,56258808.13598633,48530010.22338867,62353515.625,61029098.51074219,71801689.14794922,32796398.162841797,7757483.005523682,42100837.70751953,27334754.943847656,30352495.193481445,66381980.895996094,54134418.48754883,61914566.04003906,52735546.11206055,61341846.46606445,40258575.439453125,40394046.783447266,41391639.709472656,17859476.08947754,46448047.63793945,43135833.740234375,59359046.936035156,63195396.423339844,63073635.10131836,39879737.854003906,40666362.76245117,40274753.57055664,12091692.924499512,23158180.236816406,50528148.65112305,41201320.64819336,56059024.810791016,34263305.6640625,45574710.845947266,46678871.154785156,44857551.57470703,35148624.420166016,40189102.17285156,44619674.68261719,34061325.07324219,45401626.58691406,44314060.21118164,43976352.69165039,49443698.88305664,33787830.3527832
0.18,140831192.01660156,131133239.74609375,120797370.91064453,64567924.49951172,98498626.70898438,23038881.301879883,45538219.4519043,46579639.43481445,51383251.19018555,25944698.333740234,62798931.12182617,86868247.98583984,112310340.88134766,30385980.6060791,-698785.6030464172,37365489.9597168,35423011.779785156,51976253.509521484,53794944.763183594,68808822.63183594,71509948.73046875,87205223.0834961,54860664.36767578,3735721.1112976074,42201629.638671875,29510139.46533203,34363513.9465332,73707740.7836914,63168457.03125,73319091.796875,67107437.13378906,78581298.828125,44595489.501953125,44821895.599365234,45772327.4230957,24155300.14038086,55311298.37036133,54170318.603515625,70196937.56103516,76998565.67382812,78045043.9453125,44239307.40356445,45261638.64135742,44757621.76513672,20972534.1796875,34388023.376464844,63486915.588378906,52889587.40234375,69447189.33105469,46888877.868652344,53957916.259765625,55191436.767578125,53514118.19458008,46352775.57373047,51303859.71069336,55795761.10839844,45569438.93432617,54084384.91821289,53017688.7512207,55143516.540527344,61458087.92114258,47487331.39038086
0.185,101307914.73388672,97889869.6899414,97750045.77636719,46358116.149902344,86257484.43603516,-910033.4644317627,30650075.912475586,31671573.638916016,36717861.17553711,18819572.44873047,57968597.412109375,84387741.08886719,114500953.6743164,36473327.63671875,-10848203.659057617,25863460.540771484,22829826.35498047,37479923.248291016,51778167.724609375,67805274.9633789,73328147.8881836,92295867.91992188,65386085.510253906,-3853080.2726745605,36915546.41723633,27005706.787109375,31751985.549926758,74864051.81884766,65291526.794433594,77098152.16064453,72796142.578125,88473640.44189453,47979934.69238281,45125217.43774414,45973243.713378906,25638010.025024414,58660011.291503906,58308372.497558594,74616783.14208984,83672218.3227539,87549858.09326172,47579376.220703125,48774883.27026367,45167465.20996094,25190793.991088867,39159740.44799805,70483871.45996094,58446598.052978516,76714920.04394531,56292808.532714844,61259826.66015625,62547370.91064453,60961215.97290039,52815536.49902344,58403064.7277832,63552497.86376953,54739307.40356445,61647750.85449219,60618743.896484375,63229774.475097656,70077156.06689453,58669040.67993164
0.19,67213851.92871094,63397010.803222656,64771423.33984375,32979900.360107422,68843544.00634766,-15651980.40008545,19961416.244506836,20892549.514770508,25897514.34326172,11725663.185119629,50298770.904541016,75760337.82958984,104449066.16210938,27291421.89025879,-16901615.142822266,17424736.02294922,13530610.084533691,26778932.571411133,46885616.302490234,62539001.46484375,68155830.38330078,87278892.51708984,61851428.9855957,-8988305.09185791,32040340.423583984,23881237.030029297,27300779.342651367,70574417.11425781,61570476.53198242,73434028.62548828,69196861.26708984,87171325.68359375,48495449.06616211,42349128.72314453,43156475.06713867,22906820.29724121,55774097.44262695,54710376.73950195,71578666.68701172,81220344.54345703,87731224.0600586,48007778.16772461,49112335.205078125,42364067.07763672,22186170.57800293,35440216.064453125,67564575.1953125,55409538.26904297,75663085.9375,55986030.57861328,63005733.489990234,64131065.368652344,62587692.26074219,49663917.541503906,57142204.28466797,63597408.294677734,56545494.079589844,63373329.162597656,62292198.181152344,64109367.37060547,70803062.43896484,60745525.36010742
0.195,52423984.52758789,46309123.99291992,42856437.68310547,30674783.70666504,57366950.98876953,-16614273.071289062,18887544.631958008,19704629.89807129,24342779.1595459,10103471.755981445,45220645.904541016,67791648.8647461,91195030.21240234,14398493.766784668,-15433024.406433105,16506931.30493164,12457647.323608398,25328613.28125,44023094.177246094,57769874.572753906,61527702.33154297,77998283.38623047,52047832.48901367,-8345472.33581543,31425643.920898438,23650413.513183594,26683864.59350586,64927833.557128906,56965087.890625,67185562.13378906,62479526.51977539,78378540.0390625,46578022.00317383,39802223.205566406,40653377.532958984,21079708.099365234,51241134.64355469,49266109.466552734,65565734.86328125,73781311.03515625,80853088.37890625,46017143.24951172,46964805.603027344,39755989.07470703,17487770.080566406,29805683.135986328,60072246.55151367,48471389.77050781,69798416.13769531,48076118.46923828,59326576.232910156,60183944.70214844,58729042.053222656,41133270.263671875,50107410.4309082,57756320.95336914,51452915.19165039,59490787.506103516,58318805.69458008,58766208.64868164,64661720.275878906,55197353.36303711
0.2,44927993.77441406,39946723.93798828,33355041.50390625,31194295.88317871,52257812.5,-14969268.798828125,20063264.846801758,20847465.51513672,25149818.420410156,11792773.246765137,43412185.66894531,63886924.743652344,82723999.0234375,7937575.817108154,-12546015.739440918,17426519.3939209,13411084.175109863,26246246.337890625,43565769.19555664,56127746.58203125,58487533.56933594,71793693.54248047,45367336.27319336,-6212785.720825195,31926288.604736328,24532878.875732422,29119276.04675293,63648521.423339844,55548641.204833984,64031562.80517578,59462169.6472168,71435432.43408203,43751770.01953125,39033817.291259766,39944999.69482422,22917333.602905273,49477771.7590332,48428947.44873047,62858097.076416016,69003433.22753906,74513359.06982422,43189754.486083984,44189979.553222656,39126491.54663086,17386281.967163086,28942817.68798828,56379138.9465332,45053943.6340332,65145454.40673828,41733692.16918945,54455837.24975586,55217723.84643555,53875877.380371094,35659496.30737305,43975635.52856445,52144859.313964844,45569206.23779297,54535614.013671875,53341217.041015625,52048217.7734375,57213211.05957031,48816543.57910156
0.205,32851219.177246094,31117837.90588379,26181003.57055664,26243032.455444336,48252319.3359375,-21372358.322143555,15747871.398925781,16655921.936035156,21064924.240112305,10749954.223632812,42064723.96850586,62967353.82080078,81127593.99414062,7231122.970581055,-15754777.908325195,13455873.489379883,9540372.848510742,22175348.28186035,42674736.02294922,56779499.05395508,59555618.28613281,71778854.37011719,44455341.33911133,-8743219.375610352,28894128.799438477,22631570.81604004,29680727.005004883,69389732.36083984,57093704.22363281,65523063.65966797,61133232.11669922,72379768.37158203,41680133.81958008,39166065.21606445,40102157.59277344,25598146.438598633,50412818.908691406,52296669.006347656,65183639.52636719,70899162.29248047,74705352.78320312,41195281.982421875,42375839.23339844,39542640.686035156,21661153.79333496,32027748.107910156,58320095.06225586,47205394.74487305,64870964.05029297,42412719.7265625,53225265.50292969,54157466.888427734,52802326.20239258,37371448.5168457,42495708.46557617,50707382.20214844,44479965.20996094,53421165.466308594,52262783.05053711,49145351.40991211,54182403.564453125,47166831.970214844
0.21,21170190.811157227,19427202.224731445,16680463.790893555,18556867.599487305,43266468.0480957,-32476879.119873047,8422731.399536133,9495670.318603516,14390048.98071289,5541862.010955811,39525001.525878906,62191055.29785156,82605400.08544922,4725645.065307617,-24060989.379882812,6318942.546844482,2864118.0992126465,15323845.863342285,40660652.16064453,57652751.92260742,61280696.868896484,74579696.65527344,45144432.067871094,-15667854.309082031,23471376.419067383,17911424.63684082,26990930.557250977,77960250.85449219,58801738.73901367,68331077.5756836,62773643.493652344,77688179.01611328,41392677.307128906,38995544.43359375,39919738.76953125,25333536.14807129,51441535.94970703,55717361.45019531,68552192.68798828,75830650.32958984,79631454.46777344,41014530.181884766,42204948.42529297,39465538.024902344,24987476.348876953,33551422.119140625,61008026.123046875,50181224.82299805,67096992.49267578,45993835.44921875,56679248.80981445,57822433.47167969,56289844.51293945,43225746.154785156,43934772.49145508,51899391.174316406,47354019.16503906,56974075.31738281,55820446.0144043,51563476.5625,56873378.75366211,50214748.38256836
0.215,20188798.904418945,13752740.859985352,9565917.96875,16263515.47241211,40548999.78637695,-37464183.80737305,5890667.915344238,6946938.037872314,12319205.284118652,1529514.7895812988,37973232.26928711,60875602.72216797,82526695.25146484,-3654544.5919036865,-30254747.39074707,3100703.716278076,333363.9204502106,12986130.714416504,40365917.20581055,58403461.45629883,60971420.28808594,74788322.44873047,42990386.962890625,-21372806.549072266,20545999.52697754,14386060.71472168,24660301.208496094,82454727.17285156,59384189.60571289,68839111.328125,60511775.970458984,79497390.74707031,42203334.80834961,38269512.17651367,39146266.93725586,22711761.474609375,51474319.45800781,55636432.64770508,68994972.2290039,77603179.93164062,82676383.97216797,41900901.794433594,42884952.545166016,38522895.81298828,23742784.50012207,31242750.16784668,61021213.53149414,49686607.360839844,68589851.37939453,46103782.653808594,61025642.39501953,62175067.90161133,60491523.74267578,47577838.89770508,45501296.99707031,52758678.4362793,49490188.59863281,61255451.20239258,60071239.47143555,56194751.73950195,62020740.5090332,53838062.28637695
0.22,28421125.411987305,17079860.68725586,9676818.84765625,20772235.870361328,43166374.20654297,-34149921.41723633,9591502.18963623,10446382.522583008,16093723.29711914,3325397.9682922363,40322048.18725586,61044780.73120117,80561340.33203125,-14023941.993713379,-31351816.177368164,5858228.2066345215,3420547.0085144043,16637912.75024414,43380821.228027344,60077548.98071289,59639549.255371094,71502532.95898438,38542858.1237793,-23132015.228271484,21016077.041625977,14570761.680603027,25028291.702270508,81512718.2006836,59870643.615722656,67332832.33642578,56271663.665771484,75890281.6772461,41991313.93432617,37153717.041015625,37952529.90722656,21063009.26208496,51094436.64550781,54390949.24926758,67351310.72998047,75447914.12353516,81044868.46923828,41697040.55786133,42522701.263427734,37212722.77832031,19361289.978027344,28125907.89794922,60560134.88769531,47513935.08911133,69195976.25732422,43181541.442871094,61936630.24902344,62927017.21191406,61320613.861083984,48176105.49926758,47463352.20336914,53760265.3503418,49507648.46801758,62081726.07421875,60920974.73144531,59096778.869628906,66125625.61035156,54966598.51074219
0.225,34285675.048828125,22041101.455688477,14225117.683410645,24973560.333251953,48323196.41113281,-31751022.338867188,12854007.720947266,13616824.15008545,19379486.083984375,7755285.263061523,44854583.740234375,63332435.607910156,79425155.63964844,-19906169.891357422,-31705200.1953125,8949123.38256836,6236856.460571289,20061351.776123047,46467021.94213867,62012283.32519531,59254428.86352539,68397666.93115234,35530803.68041992,-24097890.853881836,20563634.872436523,16190423.965454102,25441253.662109375,79937072.75390625,60677925.10986328,66320960.998535156,54595348.3581543,71849555.96923828,39450397.49145508,35612926.4831543,36358821.868896484,20990888.595581055,50150390.625,54929241.18041992,66620986.93847656,73614944.45800781,77919540.40527344,39096721.64916992,39993938.44604492,35858551.025390625,15385627.746582031,27496496.200561523,62537857.05566406,47617488.861083984,70454261.77978516,41565948.486328125,59214038.84887695,60092151.6418457,58750019.07348633,46998027.80151367,50841899.87182617,56546504.974365234,49863769.53125,59418663.024902344,58369037.62817383,59403739.92919922,68242568.96972656,53975257.873535156
0.23,31105640.411376953,20674028.396606445,15639189.720153809,23035284.0423584,49171672.82104492,-36546688.079833984,10649225.234985352,11618574.142456055,17304868.698120117,7865993.499755859,45765121.45996094,64186248.779296875,78966064.453125,-20379272.4609375,-34769920.349121094,7541155.815124512,4182813.1675720215,18244443.893432617,45307380.67626953,61264480.59082031,58798431.396484375,67268371.58203125,34629947.662353516,-26946308.135986328,16741018.295288086,15583710.670471191,22746566.772460938,80509033.203125,60086536.4074707,65918136.59667969,55621879.57763672,70117088.3178711,35666007.99560547,33653213.50097656,34438987.731933594,19770748.138427734,47746551.513671875,55861484.52758789,66520179.748535156,73508171.08154297,75597198.48632812,35235446.92993164,36308792.11425781,34343627.9296875,13248378.75366211,28779756.546020508,65147102.35595703,49055080.41381836,70929748.53515625,40557075.50048828,55701694.48852539,56587284.088134766,55474365.234375,46054489.13574219,53245601.654052734,58559932.708740234,50239501.953125,56019653.3203125,55079738.61694336,58398094.177246094,68142585.75439453,52134040.83251953
0.235,25061012.268066406,14270855.903625488,10331106.185913086,18281486.51123047,42990364.07470703,-41092758.17871094,6805661.201477051,8035627.365112305,13359026.908874512,2827181.100845337,40596347.80883789,59906703.94897461,74934455.87158203,-22033840.17944336,-36447494.50683594,5032835.006713867,611647.3078727722,14432034.492492676,40801456.451416016,56721630.09643555,55742664.3371582,64989898.681640625,31297477.72216797,-28257041.931152344,13513522.148132324,12987235.069274902,18805364.60876465,79872695.92285156,57032161.712646484,63766910.552978516,54421176.91040039,66738838.19580078,33169746.39892578,31942501.068115234,32829399.10888672,16316228.866577148,44634170.53222656,54037483.21533203,64106224.060058594,71307983.3984375,71429557.80029297,32710018.157958984,33848217.01049805,32857875.82397461,11906511.306762695,29164592.742919922,64491806.03027344,47234104.15649414,67182296.75292969,35298755.64575195,53104919.43359375,54013076.78222656,52956645.96557617,44688045.501708984,51139331.81762695,55197452.545166016,46429496.76513672,53426486.96899414,52492187.5,56656024.93286133,65095085.14404297,49436218.26171875
0.24,27597312.927246094,11366676.330566406,2548652.8873443604,19215835.571289062,35248542.78564453,-32920925.14038086,9144578.93371582,10318768.501281738,15077481.269836426,-673016.1309242249,34360412.59765625,52355190.27709961,65013862.60986328,-32110836.029052734,-30099065.78063965,8950176.239013672,2597568.5119628906,16073402.404785156,38372421.26464844,51830722.80883789,50571716.30859375,58524894.71435547,21202974.319458008,-22407779.693603516,16453697.204589844,12441913.604736328,18463867.1875,74711540.22216797,53548011.779785156,59313602.447509766,47873371.12426758,57983020.7824707,33727531.43310547,31799566.2689209,32720474.243164062,13587028.503417969,43151088.71459961,50017391.204833984,59064247.131347656,64775283.81347656,63086151.123046875,33281314.849853516,34330238.342285156,32475036.62109375,10538783.073425293,27429491.04309082,60552383.42285156,41417957.3059082,59739368.4387207,25993690.490722656,51261276.24511719,52140998.84033203,51034008.02612305,41790233.61206055,45584815.979003906,47373054.50439453,37972156.5246582,51527713.775634766,50503692.626953125,54273406.982421875,60225315.09399414,46122631.07299805
0.245,42048309.326171875,16918712.615966797,-1202584.0282440186,28947038.650512695,32934673.309326172,-11313562.393188477,19426174.16381836,20273126.60217285,24440185.546875,2089588.8805389404,33216613.76953125,47063064.57519531,53016025.54321289,-49939315.79589844,-15928288.459777832,20980348.587036133,11850929.260253906,25284196.853637695,40645431.51855469,50653316.497802734,46614002.2277832,49848823.54736328,6384392.738342285,-9533394.813537598,25515882.49206543,16462408.065795898,22925895.69091797,67772125.24414062,52282546.99707031,55073551.177978516,39000839.23339844,46954643.24951172,37151588.439941406,34105094.90966797,34929256.439208984,14456012.725830078,44007762.90893555,47385219.57397461,54716346.740722656,57639339.447021484,53690662.3840332,36676094.05517578,37581783.294677734,34333942.41333008,9957166.67175293,24954854.96520996,57147922.51586914,36349842.0715332,53725875.85449219,18966213.22631836,50380706.787109375,51229732.513427734,50100017.54760742,38557617.1875,41441051.4831543,41511436.462402344,31053869.247436523,50661464.69116211,49568401.33666992,52340209.9609375,56919956.20727539,43772178.649902344
0.25,58965133.66699219,25609897.61352539,-331112.0569705963,41104290.00854492,35207427.978515625,10603775.978088379,31082117.080688477,31735095.977783203,35273853.30200195,7353456.020355225,35974582.67211914,45604194.64111328,44373394.01245117,-66661277.770996094,-1494948.0295181274,34411968.23120117,22585924.14855957,36037635.803222656,43966457.36694336,52294139.86206055,45042903.900146484,43067520.14160156,-6341535.568237305,3734835.8631134033,35090152.740478516,22583646.774291992,27978229.522705078,64178855.895996094,52573188.78173828,52715061.18774414,32583961.486816406,39311698.91357422,41530086.517333984,37873981.47583008,38558643.34106445,17292438.507080078,44974792.48046875,47094322.204589844,53095378.87573242,54019657.135009766,47624984.74121094,40954494.47631836,41738330.84106445,37854885.10131836,10917899.131774902,23684467.315673828,56392002.10571289,35282238.0065918,51656227.111816406,16751873.016357422,50727035.52246094,51579608.91723633,50483528.13720703,36801528.93066406,40158348.083496094,40228649.1394043,29625017.166137695,51005416.87011719,49978511.810302734,51357604.98046875,56083091.735839844,42654483.795166016
0.255,65678810.119628906,27799585.342407227,-331665.5158996582,47005523.681640625,34760185.24169922,20800384.521484375,36855648.040771484,37608909.606933594,40429035.18676758,8616600.036621094,36066043.853759766,43853404.9987793,39714626.31225586,-74400009.15527344,6718646.52633667,41790737.15209961,28251874.923706055,41153224.94506836,43905761.71875,52413288.11645508,43278495.78857422,38916919.70825195,-12615049.362182617,11486969.947814941,40354854.583740234,26329063.415527344,29207550.048828125,64785209.65576172,51572906.494140625,50788970.947265625,29214029.31213379,35773948.669433594,44529060.36376953,40517959.59472656,41125053.40576172,18103063.583374023,44062850.95214844,46325355.529785156,52379291.53442383,52522323.60839844,44457557.678222656,43894794.46411133,44583152.770996094,40525009.15527344,12285593.98651123,24140794.75402832,56583751.6784668,35705413.818359375,50083343.505859375,14435830.116271973,50756725.3112793,51616207.122802734,50530147.552490234,36024078.369140625,38166759.4909668,38832866.66870117,29210460.662841797,50870975.494384766,50030601.501464844,49826972.96142578,54356548.30932617,40738914.489746094
0.26,60377849.57885742,21507268.90563965,-4657448.768615723,45170734.40551758,28931695.93811035,19603734.970092773,36239650.72631836,37077411.65161133,39379039.7644043,5610297.679901123,31650564.193725586,39512222.29003906,36586795.806884766,-74451461.79199219,8716975.212097168,42323287.96386719,28107381.82067871,40003490.44799805,41742660.52246094,50321788.7878418,40011123.65722656,35949737.548828125,-13684479.713439941,13587398.529052734,41215774.53613281,26525272.369384766,26910247.802734375,67283500.67138672,49360897.064208984,48510063.17138672,26970283.50830078,33869800.56762695,45609130.859375,40639495.849609375,41204528.80859375,16213758.46862793,42836540.22216797,44116878.509521484,51145160.67504883,50542812.34741211,42108673.095703125,45051631.927490234,45670619.96459961,40685520.17211914,12335624.694824219,25639560.69946289,56625141.14379883,34797176.361083984,46913669.58618164,9723102.569580078,49616813.65966797,50471477.50854492,49320384.97924805,35385532.37915039,34774471.282958984,34855571.74682617,25634283.0657959,49563873.291015625,48857589.72167969,48071521.7590332,51044345.85571289,38582035.064697266
0.265,53418460.845947266,14673521.995544434,-9874285.697937012,41511749.267578125,24133666.9921875,14243668.556213379,33982402.80151367,34611583.7097168,37057647.705078125,3361401.319503784,28535158.157348633,36767009.73510742,35228080.74951172,-74614440.91796875,7434328.079223633,40158237.45727539,26081256.866455078,37586635.58959961,42249504.08935547,50427543.64013672,38348834.99145508,35029151.916503906,-12881415.367126465,12728562.355041504,39917171.478271484,25747909.545898438,24603727.340698242,71072639.46533203,49549530.029296875,48585731.506347656,26403970.71838379,34037105.560302734,46618812.561035156,39821403.50341797,40295036.31591797,14973045.349121094,44379798.889160156,44041461.94458008,51632221.22192383,50563869.47631836,42824722.29003906,46150474.548339844,46759273.529052734,39718154.90722656,11171115.87524414,27414552.688598633,58741020.20263672,34876045.22705078,47014785.76660156,9243409.156799316,50515865.325927734,51374206.54296875,50141296.38671875,37023384.09423828,35971038.818359375,34629039.7644043,24390081.40563965,50606864.92919922,49804725.646972656,50862636.56616211,52421749.114990234,41591529.846191406
0.27,53435077.66723633,14080668.449401855,-11286094.665527344,40804351.806640625,26215270.99609375,8363356.590270996,33123001.098632812,33449932.098388672,36643772.12524414,4068456.1729431152,31163595.19958496,39698120.1171875,37525066.37573242,-79338989.2578125,3820497.512817383,37840461.73095703,24972023.010253906,37272560.119628906,46151168.82324219,54955333.7097168,40970100.40283203,37733829.498291016,-12240268.70727539,9779299.73602295,37392829.89501953,25846101.760864258,24141027.450561523,76316436.76757812,53458583.83178711,52816513.06152344,29100648.880004883,37772060.39428711,48968692.779541016,40280906.677246094,40638488.76953125,16625120.162963867,48395122.52807617,48548210.14404297,55597316.74194336,55800933.837890625,49190250.396728516,48378917.6940918,49071155.5480957,39947158.81347656,10410262.107849121,28923391.342163086,64127288.818359375,39015140.533447266,54531444.54956055,17899042.1295166,56700538.635253906,57561332.70263672,56322124.48120117,43079257.96508789,45288516.998291016,43551025.390625,32366085.052490234,57177890.77758789,56099372.86376953,60678924.560546875,62692012.786865234,52111076.35498047
0.275,57112308.502197266,16779899.59716797,-10058053.016662598,41709758.75854492,31599594.116210938,1896151.6618728638,32587741.85180664,32890888.214111328,36747283.935546875,5015961.647033691,35950054.16870117,45048274.993896484,41543441.77246094,-85499992.37060547,-1955797.9106903076,34918716.43066406,24327140.80810547,37675987.243652344,49089893.34106445,59655681.61010742,45220333.099365234,41642822.265625,-12802999.496459961,4659931.659698486,33824787.13989258,25700288.772583008,24337036.1328125,80072212.21923828,57237136.84082031,57621791.83959961,32699699.40185547,41782592.7734375,51069602.966308594,41613685.607910156,41941047.66845703,19146841.049194336,50910781.86035156,54003814.697265625,59903179.16870117,62326457.97729492,56372608.18481445,50161594.39086914,51003181.45751953,41205554.9621582,10606306.076049805,29481800.079345703,68841934.20410156,44344680.78613281,63584411.62109375,27866489.41040039,64521072.38769531,65371421.813964844,64199691.77246094,50003005.98144531,55522182.46459961,54745864.86816406,43956809.997558594,65160484.313964844,63898914.3371582,70317527.7709961,74246200.56152344,62278259.27734375
0.28,56838821.41113281,16350990.295410156,-10693604.469299316,41406604.7668457,32985359.19189453,-3115281.581878662,31360176.08642578,31908437.728881836,35860919.95239258,4537294.387817383,37219825.744628906,46574520.111083984,42528224.94506836,-88554885.86425781,-7208218.574523926,32023258.209228516,23535337.448120117,37018527.98461914,48644954.681396484,59986396.78955078,46737648.010253906,42296794.89135742,-15167677.879333496,-312320.38140296936,31065448.760986328,24216333.389282227,23901674.270629883,78762298.58398438,57326564.78881836,58224033.35571289,32452739.715576172,40719165.80200195,50603603.36303711,41812530.517578125,42207759.857177734,19388721.466064453,49538822.174072266,55203212.73803711,60168460.845947266,62833702.087402344,56308990.478515625,49491909.02709961,50429454.8034668,41545684.814453125,10542955.39855957,28422966.00341797,68033790.5883789,45122230.529785156,64369270.32470703,27437507.62939453,66402496.337890625,67292068.48144531,66157241.82128906,51074302.673339844,56654743.19458008,56414894.104003906,46247528.076171875,66766517.639160156,65599052.42919922,69697837.82958984,75565971.37451172,62112991.33300781
0.285,53722347.259521484,13603900.909423828,-13384208.679199219,41207164.7644043,30483551.025390625,-3775120.735168457,31270843.505859375,31993043.899536133,35841430.6640625,4943787.097930908,35826118.46923828,44410503.38745117,40050426.4831543,-89410156.25,-8815664.291381836,31892555.236816406,23832534.790039062,36940792.083740234,48140697.47924805,58137989.04418945,45994056.701660156,40023380.279541016,-18178190.231323242,-1952226.0427474976,31453945.15991211,22949657.440185547,23460905.075073242,74150787.35351562,55970085.14404297,55821357.72705078,28262714.385986328,35830066.6809082,48638919.830322266,40926616.66870117,41377960.205078125,17340782.165527344,46807189.94140625,52807876.58691406,57122043.60961914,57836509.704589844,49986865.99731445,47680065.1550293,48536540.98510742,40864585.876464844,9420298.57635498,26080236.434936523,63237884.521484375,41372707.36694336,57304531.09741211,18140989.303588867,61711380.00488281,62745422.36328125,61532695.77026367,45865501.403808594,49937328.33862305,48631561.279296875,37827316.28417969,61730003.356933594,60782932.28149414,60306156.158447266,67720916.74804688,53783462.52441406
0.29,55092758.17871094,14546172.142028809,-13866718.292236328,43997604.37011719,30225944.51904297,-1716169.5957183838,33897926.330566406,34571556.091308594,38703529.357910156,7884388.446807861,36465408.32519531,43831012.72583008,38472343.44482422,-91644424.43847656,-7318097.5914001465,35087635.0402832,26080610.275268555,39576545.71533203,50768058.77685547,58810359.954833984,46354515.075683594,39231266.021728516,-19493078.231811523,-407125.8306503296,34246887.20703125,23794687.271118164,23972993.850708008,71520225.52490234,57053970.33691406,55167545.318603516,25091623.306274414,33637748.71826172,48229282.37915039,40956550.59814453,41404369.35424805,15492099.76196289,46200645.446777344,51392566.6809082,54478565.21606445,54955249.78637695,46688575.744628906,47641357.421875,48268772.12524414,41014514.9230957,8127762.794494629,23876953.125,60515216.82739258,38558357.23876953,52237045.28808594,12593713.760375977,57716499.32861328,58894733.42895508,57521469.11621094,41481781.005859375,45618251.80053711,42747196.197509766,30743947.982788086,57713352.20336914,56832912.44506836,54039958.95385742,62648841.857910156,48965671.53930664
0.295,61323825.83618164,19646686.553955078,-10383356.094360352,48286190.032958984,33605937.95776367,-1076826.810836792,37190444.94628906,37788646.69799805,42401031.494140625,10799399.375915527,39068347.9309082,45905208.587646484,39457809.44824219,-93920692.44384766,-5637154.579162598,38001136.779785156,28656221.389770508,43134387.9699707,53549289.70336914,60677570.34301758,47248355.865478516,40730903.62548828,-18527788.162231445,1359867.811203003,35837570.19042969,25690402.98461914,24807247.161865234,71455924.98779297,58902397.15576172,56192646.02661133,25466518.40209961,35421096.80175781,49326126.09863281,42149707.79418945,42614749.908447266,15242040.634155273,46891506.19506836,51555553.4362793,52032489.77661133,56554180.14526367,49496204.3762207,48992622.37548828,49435111.99951172,42225566.86401367,7754784.58404541,23019313.81225586,61614540.100097656,38852882.385253906,53370460.510253906,15637728.691101074,58216411.59057617,59360054.01611328,57855358.1237793,42463825.22583008,47435970.306396484,44095939.63623047,31856874.465942383,58374084.47265625,57378826.14135742,56277805.32836914,64810913.0859375,51745372.7722168
0.3,64822235.107421875,22891090.393066406,-5952420.234680176,49652107.23876953,35909862.51831055,-2079068.1838989258,38056941.986083984,38725723.26660156,43299430.84716797,10788732.528686523,39603195.19042969,46774833.67919922,40269580.84106445,-91095756.53076172,-4754186.153411865,37532646.17919922,29521137.237548828,44028625.48828125,51942436.21826172,58991874.69482422,45533218.38378906,41219646.45385742,-16704641.342163086,1961159.4676971436,34442337.03613281,26044923.782348633,24860078.811645508,69109733.58154297,57265396.11816406,54958023.07128906,26930332.18383789,35979152.67944336,49250606.536865234,42555053.7109375,43081756.591796875,15950426.10168457,45885185.24169922,50206157.68432617,47137485.50415039,57257999.420166016,51441360.47363281,48942722.32055664,49381721.49658203,42578857.421875,8144179.344177246,23566326.141357422,62641471.86279297,39189273.834228516,54841732.025146484,18861080.169677734,59165523.529052734,60115375.51879883,58582866.66870117,45408523.55957031,49122352.600097656,46249652.86254883,34499065.39916992,59297409.05761719,58222328.186035156,59954437.255859375,66585960.388183594,54439334.869384766
0.305,62723583.22143555,21823619.842529297,-3167704.3437957764,47564079.28466797,35700839.99633789,-2069629.430770874,36811767.578125,37595825.1953125,41584518.43261719,9141663.551330566,38342353.82080078,46242630.00488281,40708084.10644531,-83432212.82958984,-3924458.9805603027,35306823.73046875,29026042.938232422,42323593.13964844,48077346.80175781,55402587.890625,43009975.43334961,41051189.42260742,-14314228.057861328,2351836.4429473877,32239151.000976562,24475934.982299805,24513233.184814453,62685127.25830078,54108360.290527344,52703022.00317383,28222587.58544922,34374576.568603516,48258560.18066406,41686031.341552734,42180362.701416016,16775268.5546875,44044857.025146484,48243991.85180664,42338939.66674805,55557865.142822266,49249404.90722656,47921997.0703125,48460212.70751953,41597503.662109375,8583586.692810059,24789400.100708008,62046253.2043457,38628211.975097656,53271167.75512695,16276031.494140625,58282230.377197266,59104125.9765625,57633140.563964844,46403503.41796875,47451160.4309082,44619712.829589844,32926403.045654297,58227962.493896484,57199440.002441406,59588405.60913086,64320556.640625,52700031.28051758
0.31,61114894.86694336,20924846.649169922,-1396950.8409500122,45915603.63769531,37171924.59106445,-2088204.6222686768,35982753.75366211,36780227.66113281,40523193.359375,8841285.705566406,39925643.92089844,48835620.88012695,44435817.71850586,-78875526.42822266,-4186553.955078125,34516563.415527344,28594396.591186523,41260826.110839844,48380981.4453125,56933765.41137695,45194824.21875,44769710.540771484,-10219974.517822266,2353290.319442749,31464712.142944336,22708917.61779785,24804445.266723633,57147563.93432617,55899513.244628906,55531894.68383789,31897510.528564453,36882389.068603516,49579360.96191406,41283145.904541016,41580257.415771484,17301361.083984375,45311283.111572266,50494129.1809082,43805992.126464844,57787658.69140625,50235523.22387695,49295646.66748047,49883022.30834961,41080310.8215332,8644929.885864258,25586671.829223633,63300144.19555664,40590587.6159668,54080688.4765625,13977549.55291748,60050682.067871094,60914512.634277344,59528530.12084961,47307861.328125,47965438.84277344,44280735.01586914,32624927.520751953,59981712.341308594,58967823.02856445,60167007.44628906,65564453.125,53267459.869384766
0.315,63297412.87231445,22560537.338256836,-597032.7854156494,46159065.24658203,40634330.74951172,-5564173.221588135,35676044.46411133,36442523.95629883,40769763.9465332,9595829.963684082,43981513.97705078,53759651.18408203,49956329.345703125,-82603317.26074219,-7129089.35546875,34710968.017578125,27851459.503173828,41560268.40209961,53038902.282714844,63493267.05932617,50875019.07348633,50931613.92211914,-5897877.6931762695,455093.8010215759,30913009.643554688,21536094.665527344,25283910.751342773,56785560.607910156,61860374.450683594,62448577.880859375,37425609.58862305,44691020.96557617,52661987.3046875,41530982.971191406,41685394.287109375,16811639.7857666,49412593.841552734,55878311.15722656,50152107.23876953,65314285.27832031,58389820.09887695,52405948.638916016,52993824.00512695,41338432.31201172,7839367.389678955,24487840.65246582,66740966.796875,44867889.404296875,59647922.51586914,17836578.369140625,65617614.74609375,66517868.04199219,65182243.34716797,49738830.56640625,52817443.84765625,48394588.470458984,38037620.544433594,65731712.341308594,64603172.302246094,65148132.32421875,73253181.45751953,60134925.842285156
0.32,63078304.290771484,21923662.185668945,-3191964.864730835,44892200.4699707,39035827.63671875,-10213828.086853027,33753147.12524414,34560924.5300293,39507324.21875,8790640.830993652,43194881.439208984,52316833.49609375,48218875.885009766,-88886993.40820312,-10051558.494567871,33328971.86279297,25669960.021972656,40335796.35620117,54323741.9128418,64939048.767089844,50728179.931640625,49846893.310546875,-5871484.756469727,-1896084.189414978,28860321.044921875,20521625.518798828,24666810.989379883,58995166.77856445,62158218.38378906,62759803.771972656,38009593.96362305,47828681.94580078,52264591.217041016,40265487.67089844,40599021.911621094,15120536.804199219,50587097.16796875,55589973.44970703,51034568.786621094,67837486.26708984,63693820.95336914,51864559.173583984,52509254.455566406,40229061.126708984,5944356.918334961,20892417.907714844,65829978.942871094,44604877.47192383,61344394.68383789,21534534.454345703,66651107.78808594,67408294.67773438,66067497.25341797,49201641.08276367,53395431.51855469,49446071.62475586,41046714.782714844,66794029.235839844,65586212.158203125,66365531.92138672,75720062.25585938,63990001.6784668
0.325,55896232.60498047,15660317.420959473,-9272259.712219238,40337612.15209961,29378719.329833984,-9144958.49609375,30477989.196777344,31329793.93005371,35927383.42285156,6204455.852508545,34535396.575927734,41057567.59643555,35801307.678222656,-88942481.9946289,-7748929.977416992,30926515.579223633,23235450.744628906,36621467.59033203,47933254.24194336,55608100.89111328,40939617.15698242,37682418.82324219,-11469699.85961914,-366337.92519569397,27159183.502197266,20150135.040283203,23360130.310058594,59123691.55883789,52343143.463134766,51544754.02832031,29922544.479370117,39251239.77661133,47327404.0222168,37590213.775634766,38300121.30737305,13985644.340515137,46252975.46386719,46115207.67211914,41829967.4987793,58237102.50854492,56238895.416259766,46695446.0144043,47434024.810791016,37672683.71582031,4269124.984741211,17038965.225219727,57427074.43237305,36541759.4909668,52597904.205322266,16511627.197265625,57985523.22387695,58524921.41723633,57135623.931884766,42364307.40356445,43708103.17993164,41275035.8581543,33412345.88623047,57861595.153808594,56761264.80102539,56878456.115722656,64229484.55810547,56153343.200683594
0.33,48752609.25292969,9424296.379089355,-13651164.054870605,36481452.94189453,20611406.326293945,-2124645.709991455,29035594.940185547,29788314.819335938,33382350.92163086,4337389.4691467285,26029182.43408203,30403007.50732422,23975446.701049805,-83550918.57910156,-774705.4100036621,30585088.7298584,22957357.40661621,33819583.892822266,40143184.661865234,44543998.71826172,31329208.374023438,25719667.434692383,-17195404.052734375,5484996.318817139,28612621.307373047,21201200.485229492,23152029.037475586,57730117.79785156,42269546.50878906,39982841.49169922,20427423.47717285,27932788.848876953,44675430.29785156,37153854.37011719,37985229.4921875,15330770.492553711,42113395.69091797,37098609.924316406,32478630.06591797,46216148.376464844,43835094.4519043,43958305.35888672,44682552.337646484,37154056.549072266,4727804.660797119,16779470.443725586,49814685.8215332,28433362.96081543,42209384.91821289,7233285.427093506,48973987.5793457,49434047.69897461,47993957.51953125,35425823.21166992,33074153.900146484,31863710.403442383,22781232.833862305,48617465.97290039,47662902.83203125,45846271.51489258,50382709.50317383,44986114.501953125
0.335,50852439.880371094,10536962.509155273,-11583554.2678833,37297584.533691406,22870267.868041992,1490126.0137557983,30380758.28552246,30965885.162353516,34164646.14868164,4244242.6681518555,26835681.915283203,32413082.122802734,26150930.404663086,-81207298.2788086,2856652.021408081,32290626.525878906,24310403.82385254,34482910.15625,39367328.64379883,44135692.59643555,33276229.858398438,27333761.21520996,-16750408.172607422,9220573.425292969,31322168.350219727,21980840.6829834,24046115.87524414,58658943.17626953,43695404.052734375,41734466.552734375,19691593.170166016,28251146.31652832,49064182.28149414,40160114.28833008,40670261.38305664,17806257.247924805,44255725.8605957,38980228.424072266,34669105.529785156,46496971.130371094,42941047.66845703,48483470.91674805,49057586.669921875,40001995.08666992,6660379.886627197,20725906.372070312,52633235.931396484,29595012.664794922,43694728.85131836,5805781.364440918,51730743.408203125,52254215.240478516,50805473.32763672,36933013.916015625,34822307.58666992,33358493.80493164,23308002.471923828,51477275.84838867,50475547.790527344,47589561.462402344,51832550.048828125,45661479.94995117
0.34,59460647.58300781,17009510.040283203,-5153409.004211426,40596248.626708984,33327495.574951172,-4750661.373138428,31402482.986450195,32006713.8671875,35861461.6394043,4241808.891296387,35016113.28125,44506626.12915039,40167758.94165039,-85046073.91357422,-2432387.351989746,32449283.599853516,24139581.68029785,36305850.982666016,44974945.068359375,53540561.67602539,44400859.83276367,40356212.6159668,-10678182.601928711,5195660.11428833,30317480.087280273,19720685.958862305,23802595.138549805,62514789.58129883,54189891.81518555,54304721.83227539,27534772.872924805,40519695.28198242,55096050.26245117,42243843.07861328,42358444.21386719,17766782.760620117,49896610.260009766,48022354.12597656,45654148.10180664,58462799.072265625,55694271.087646484,54691562.65258789,55145610.80932617,42124042.51098633,6755484.104156494,24325412.75024414,62591327.66723633,38070148.46801758,55988594.05517578,14619866.371154785,63259952.545166016,63832561.49291992,62411685.943603516,45148365.02075195,47263839.72167969,44362701.416015625,34891429.90112305,63268463.134765625,62097167.96875,60498359.68017578,67017814.63623047,58239112.854003906
0.345,64327949.52392578,20747446.060180664,-485533.56528282166,41903465.270996094,40596412.658691406,-14909494.400024414,30160106.658935547,31025966.64428711,35688068.38989258,3333798.408508301,41316314.697265625,53647991.18041992,51781616.2109375,-89098190.30761719,-11921200.7522583,29984691.619873047,21903825.759887695,36313556.67114258,49840808.8684082,61486038.20800781,52807743.072509766,51030490.87524414,-4741734.027862549,-3324781.4178466797,25294347.763061523,15578824.996948242,21655712.127685547,66310798.64501953,61566421.50878906,63525115.966796875,34784049.98779297,51921691.89453125,55299480.43823242,40038986.20605469,40127326.96533203,14591256.141662598,51628353.118896484,52297683.71582031,53123443.603515625,68578376.77001953,68355682.37304688,54905929.56542969,55401893.615722656,40171421.05102539,3774157.0472717285,23125383.377075195,67944046.02050781,44214519.50073242,65677482.60498047,24235019.68383789,70461311.34033203,71036262.51220703,69604804.99267578,50797096.252441406,56789352.41699219,52765357.971191406,44314613.342285156,70525123.5961914,69339233.3984375,69876899.71923828,78711486.81640625,68652923.58398438
0.35,62763366.69921875,19223051.071166992,-224433.94362926483,41496593.4753418,40125648.498535156,-18802606.5826416,29353944.778442383,30435081.481933594,35200935.36376953,3061913.013458252,41807708.740234375,53613162.994384766,53037487.0300293,-88617439.27001953,-16591823.57788086,28535968.780517578,21147611.618041992,35882732.39135742,50814517.974853516,62261730.1940918,53096248.626708984,52105228.424072266,-2696250.9155273438,-8006632.8048706055,21987884.521484375,14513401.985168457,20097936.630249023,67913902.28271484,60821922.302246094,63057998.65722656,35814701.080322266,54192615.5090332,51417591.0949707,36891651.15356445,37251373.291015625,12120218.276977539,48401565.55175781,48894290.924072266,52297241.2109375,69652923.58398438,70951614.37988281,50874732.971191406,51495666.50390625,37188495.63598633,900630.1164627075,18485692.977905273,64884262.08496094,43911380.767822266,65481666.564941406,26867622.37548828,69057220.45898438,69696510.3149414,68158172.60742188,50226482.39135742,56672294.61669922,52702644.34814453,44217407.2265625,68941711.42578125,67949111.93847656,68985557.55615234,78591400.14648438,69036949.15771484
0.355,60786342.62084961,17000307.083129883,-2182452.917098999,42465404.51049805,37094593.0480957,-15270632.74383545,31514408.111572266,32494956.970214844,36934616.08886719,4774830.341339111,40149600.982666016,49462226.86767578,48227119.44580078,-86624862.67089844,-14369769.096374512,30361980.438232422,23834817.88635254,37620925.90332031,50572891.23535156,60156776.428222656,49980915.06958008,47913002.014160156,-4047255.039215088,-6083089.828491211,23813478.469848633,18241722.106933594,21186136.24572754,67132453.91845703,57694236.755371094,59110874.17602539,32963459.014892578,50401432.037353516,49924289.70336914,37189445.49560547,37670917.51098633,13144054.412841797,45904262.54272461,45429050.44555664,48942771.911621094,66183357.23876953,66276397.705078125,49235061.64550781,49902008.056640625,37356536.865234375,1040379.2858123779,15400240.898132324,60288806.9152832,40854869.8425293,59658660.888671875,22922607.421875,65462501.525878906,66227996.826171875,64563369.75097656,47493164.0625,51844532.01293945,48180896.7590332,38632759.09423828,65209297.18017578,64381935.119628906,64092239.37988281,73212707.51953125,64236000.061035156
0.36,61101032.25708008,17007957.458496094,-3783650.1598358154,44024196.62475586,36097587.58544922,-11911931.037902832,33910362.243652344,34609809.87548828,39010673.52294922,7194688.79699707,39519893.646240234,46891887.66479492,43636466.97998047,-87345474.24316406,-11221929.550170898,31995489.1204834,26505767.822265625,39778911.59057617,50847393.03588867,59437564.849853516,48119079.58984375,43858604.431152344,-7216024.875640869,-2915981.7695617676,26316059.112548828,21726873.39782715,22997598.64807129,63720569.6105957,57024303.4362793,57441734.313964844,29665931.701660156,45475193.02368164,50189289.09301758,38502212.52441406,38769882.20214844,15104395.866394043,47011680.603027344,46209804.53491211,47549884.79614258,62458034.51538086,59637252.80761719,49461868.28613281,50070201.8737793,38413825.98876953,2057088.851928711,15785760.879516602,59086688.99536133,37989276.88598633,53035308.837890625,15116874.694824219,62465438.84277344,63276664.73388672,61636508.94165039,45073532.10449219,47047180.17578125,42461566.92504883,31466960.906982422,62263950.34790039,61437072.75390625,60138153.076171875,68017044.06738281,59234462.73803711
0.365,60073463.439941406,17414569.854736328,-3993654.489517212,42699516.29638672,36540393.8293457,-14107551.574707031,32428638.458251953,33048755.645751953,37765762.32910156,8260231.018066406,39412769.31762695,46318576.81274414,41071128.845214844,-89454994.20166016,-12369489.669799805,29444395.065307617,25106727.600097656,38624259.94873047,50284416.19873047,58993659.97314453,47123287.200927734,40780364.990234375,-10875381.469726562,-3960732.4600219727,23502874.37438965,19660621.643066406,22277080.535888672,58096218.10913086,57087779.9987793,56646965.02685547,26472244.262695312,40485355.377197266,46454471.588134766,35624897.00317383,35615745.544433594,14037892.34161377,48607234.954833984,47437091.82739258,46505664.82543945,57676410.67504883,52165298.46191406,45760177.61230469,46319103.2409668,35432861.328125,225803.49445343018,17310791.015625,58864788.05541992,34948883.056640625,46406913.75732422,5573478.698730469,56603088.37890625,57356670.37963867,55941764.83154297,41913188.93432617,42188926.696777344,35369945.52612305,22625917.434692383,56541236.877441406,55696468.353271484,55467689.514160156,61658100.12817383,53512531.28051758
0.37,57066356.65893555,17270673.751831055,-2176697.254180908,39297702.78930664,37816173.5534668,-19474258.422851562,28425127.029418945,29280668.258666992,34234951.01928711,7804135.322570801,39740894.31762695,47333446.50268555,41397583.0078125,-90035385.13183594,-16510574.340820312,24771986.00769043,21150629.0435791,35046501.15966797,48851127.62451172,57793746.94824219,46617294.31152344,39530872.3449707,-12927096.366882324,-8090453.147888184,16685672.760009766,13814186.096191406,19326704.025268555,53198940.27709961,56210899.353027344,55318897.24731445,24237070.083618164,37235122.68066406,39833015.44189453,30167976.37939453,30098781.58569336,10703509.330749512,48377990.72265625,46861995.697021484,45164184.5703125,53412601.470947266,46427921.295166016,39165336.60888672,39781471.252441406,30028806.686401367,-3251256.7043304443,18230476.37939453,58064929.9621582,33213756.561279297,42659286.49902344,-982700.765132904,49867530.822753906,50628002.16674805,49465000.15258789,40259162.90283203,39535285.94970703,30417240.142822266,15809127.807617188,49942222.595214844,49200054.16870117,51754966.735839844,56822929.38232422,49257778.16772461
0.375,57231204.986572266,18564157.485961914,1178056.9553375244,38641670.22705078,40750267.028808594,-22401208.877563477,27052747.72644043,28144445.419311523,33111007.690429688,6931313.514709473,41399803.161621094,50274665.83251953,45143188.4765625,-90405906.6772461,-18950424.194335938,23385833.740234375,19443620.681762695,33768646.240234375,48580303.19213867,57640651.70288086,47977191.92504883,41698497.7722168,-12133939.743041992,-10281919.479370117,12624044.418334961,10298037.5289917,17421524.047851562,52314884.185791016,56292484.283447266,55693382.263183594,24526845.932006836,38725139.61791992,38100658.41674805,28879266.7388916,28898921.966552734,9257203.102111816,48216613.76953125,47812038.42163086,46039268.493652344,54135547.63793945,47106403.35083008,37431140.8996582,38188472.747802734,28758897.78137207,-3718739.9864196777,19257770.538330078,59442382.8125,35313343.0480957,45555637.35961914,-325821.51889801025,50086299.896240234,50992519.37866211,49908424.377441406,44211181.640625,43250961.30371094,32717361.450195312,16990308.76159668,50323333.740234375,49685546.875,54879920.959472656,60291305.54199219,51778347.01538086
0.38,61749145.5078125,20765615.463256836,2744609.594345093,41335262.298583984,42440803.52783203,-20542997.360229492,29196844.10095215,30202005.38635254,35127643.58520508,5702997.207641602,41987651.82495117,51703304.290771484,47845260.62011719,-93131118.77441406,-17614854.81262207,26006574.630737305,20816528.3203125,35676879.8828125,48862064.361572266,57951148.986816406,49217487.33520508,44029941.55883789,-10836801.528930664,-8486042.022705078,13942901.611328125,10896106.719970703,17577363.967895508,54898418.42651367,57046058.654785156,57035331.72607422,25306318.283081055,42269248.962402344,42360897.064208984,32475254.05883789,32539203.643798828,10573396.682739258,48823467.25463867,50533573.150634766,47766288.75732422,57569545.74584961,51858371.73461914,41667057.037353516,42533489.22729492,32309024.810791016,-908426.2847900391,20052492.141723633,62159847.259521484,38097904.205322266,50349826.81274414,3208643.4364318848,56265327.45361328,57262851.71508789,56118896.484375,49903667.44995117,49240497.58911133,38235691.07055664,22408477.783203125,56650802.61230469,55941017.150878906,61983646.392822266,68232460.02197266,57790874.48120117
0.385,64434066.77246094,19959403.99169922,-138026.98254585266,42312427.52075195,38292789.459228516,-16332235.336303711,30508842.46826172,31176977.157592773,36019733.42895508,3725488.9011383057,37985572.814941406,47081321.716308594,43949329.3762207,-96578147.8881836,-14622999.19128418,28175901.412963867,21682041.16821289,36558895.111083984,46685722.35107422,55111072.5402832,45958900.451660156,40955513.00048828,-12319772.720336914,-5434513.092041016,16453962.326049805,11767574.310302734,17227836.60888672,57225368.49975586,54526496.88720703,54441604.61425781,22447860.717773438,40916980.7434082,44339946.74682617,34062549.59106445,34134765.625,11000555.992126465,47103050.231933594,49153835.29663086,44835723.876953125,55490264.892578125,51732444.763183594,43587421.41723633,44416973.11401367,33924354.553222656,-205419.19767856598,18212158.203125,59913875.579833984,35036933.89892578,47056735.99243164,559039.9503707886,56957630.1574707,57807083.12988281,56644664.7644043,47654762.268066406,47145103.454589844,36478225.70800781,20630819.32067871,57309383.392333984,56404033.66088867,61245922.08862305,66999176.025390625,56107765.197753906
0.39,62361274.71923828,16344608.306884766,-3982839.822769165,39752265.93017578,31532768.24951172,-13837270.736694336,29167121.88720703,29575937.271118164,34197803.49731445,2557505.6076049805,32500614.166259766,40130050.65917969,37212963.10424805,-97113105.77392578,-13072099.685668945,27583600.997924805,20696737.28942871,34759834.28955078,42897880.55419922,49884014.12963867,39822933.197021484,34679492.95043945,-15366428.37524414,-4333237.648010254,16416641.235351562,10487876.892089844,14781976.699829102,57054973.60229492,48764511.10839844,48068828.58276367,17246171.951293945,34902606.96411133,40319740.295410156,30519498.825073242,30671848.29711914,8432144.165039062,42170829.77294922,42036994.93408203,37726100.92163086,47667758.94165039,45183986.66381836,39487625.12207031,40129535.67504883,30474575.04272461,-4221983.909606934,13899170.875549316,51869586.94458008,27149688.720703125,36423839.5690918,-7908337.593078613,48842662.8112793,49437278.747558594,48309448.2421875,37541652.67944336,36751979.82788086,26913726.806640625,10621362.686157227,48917243.95751953,47905887.603759766,50690994.26269531,54854305.267333984,45772228.2409668
0.395,62040298.46191406,16714902.877807617,-1771228.1942367554,39379848.48022461,32392631.53076172,-14033491.134643555,29388195.037841797,29775442.123413086,34192977.90527344,5039549.350738525,33850139.61791992,41016864.77661133,38253456.115722656,-94293716.43066406,-13096025.466918945,27393264.770507812,21328845.977783203,34775482.177734375,42712703.704833984,48798309.326171875,38714508.056640625,34469951.62963867,-14941985.130310059,-4554119.110107422,15959570.88470459,9801487.922668457,12634095.191955566,55171558.38012695,46116928.10058594,45635166.16821289,16657176.971435547,33701717.376708984,38358337.40234375,28190528.869628906,28429336.547851562,5950620.651245117,38823833.46557617,36850543.97583008,35266860.96191406,44851890.563964844,42433616.638183594,37510799.407958984,37952140.80810547,28105579.376220703,-7639967.918395996,11823039.054870605,47183265.686035156,23945232.391357422,32015113.830566406,-10613345.1461792,44685237.884521484,45205215.45410156,43980857.849121094,32750869.750976562,31683839.797973633,22280021.66748047,6167180.53817749,44430698.39477539,43501850.12817383,44882732.39135742,48611667.63305664,41573047.63793945
0.4,68121444.70214844,24508071.899414062,7184492.111206055,45007171.630859375,42819110.87036133,-13092236.518859863,33992179.87060547,34468727.111816406,38849342.346191406,11000094.413757324,42747879.02832031,50625640.869140625,47737358.09326172,-89119026.18408203,-11367600.440979004,30347682.95288086,25630487.4420166,39456432.3425293,46861515.045166016,53426765.44189453,44465950.01220703,41958293.91479492,-9332399.368286133,-2478516.8170928955,18626752.853393555,12339023.59008789,13548760.414123535,52023315.4296875,49019187.927246094,50017910.00366211,22690296.173095703,41428665.16113281,45058235.16845703,32653892.517089844,32822933.197021484,7187255.859375,40288604.736328125,38587749.48120117,41222179.4128418,51660621.643066406,49233512.87841797,44325267.79174805,44724571.228027344,32355056.762695312,-4239383.697509766,15088088.035583496,51320732.11669922,29376745.223999023,40259239.196777344,-1618093.1329727173,53659591.67480469,54307903.28979492,52843578.33862305,40724861.14501953,39552566.52832031,29794036.865234375,15307579.040527344,53254714.96582031,52521003.72314453,53559329.986572266,58634944.915771484,52348606.10961914
0.405,71757446.2890625,31606039.04724121,14113730.430603027,49369400.02441406,49051006.31713867,-6761930.465698242,37557067.87109375,38063911.43798828,42171993.255615234,15342023.849487305,47011936.18774414,54383659.36279297,50753005.98144531,-79043983.45947266,-4866775.989532471,33220520.01953125,29077136.993408203,42743167.877197266,47037441.25366211,53853664.39819336,46490280.15136719,44960872.650146484,-3273037.1952056885,3873399.496078491,22653789.520263672,15190251.350402832,15864276.885986328,45320877.07519531,48969211.57836914,51136047.36328125,26887153.62548828,47390865.325927734,52393550.872802734,38385231.018066406,38367343.90258789,10492298.126220703,41160739.89868164,39245048.52294922,45235218.0480957,55672435.76049805,54558467.864990234,51820987.701416016,52368637.08496094,37953697.204589844,3637510.5381011963,19281499.8626709,54264457.70263672,33724624.63378906,47883235.931396484,8618933.67767334,63436080.93261719,64128936.767578125,62610855.10253906,49162067.41333008,47513088.22631836,38109901.428222656,25378192.901611328,63060367.584228516,62529422.760009766,63384132.385253906,69042678.83300781,63443225.8605957
0.41,60016963.958740234,26831380.84411621,10961295.127868652,41835391.998291016,37257904.052734375,3913821.9356536865,32439304.35180664,32881687.16430664,35837509.15527344,13018054.008483887,35355880.73730469,39307243.34716797,34844318.38989258,-60706226.34887695,5314229.965209961,30790077.209472656,25685449.600219727,36208923.33984375,35380962.37182617,39725917.81616211,34174297.33276367,32153419.494628906,-2353749.2752075195,12313199.043273926,22746488.571166992,13398723.602294922,15229338.645935059,32754730.224609375,36417560.57739258,37823890.686035156,20078987.12158203,38474460.60180664,46802066.802978516,35252376.556396484,35167968.75,10910420.417785645,33333293.914794922,27990507.125854492,34802902.22167969,42429904.93774414,43472068.786621094,46263309.478759766,47001182.556152344,34957237.243652344,7470324.993133545,16970527.64892578,41872371.673583984,25524881.36291504,38121215.8203125,6112542.629241943,54335021.97265625,54794605.25512695,53677673.33984375,40450401.306152344,37810146.33178711,31352283.477783203,18427806.854248047,53991367.34008789,53621067.04711914,53441162.109375,56681217.193603516,53317070.00732422
0.415,35799625.396728516,11563775.062561035,996745.1095581055,24466037.75024414,13156576.156616211,13419110.298156738,20543539.04724121,20878307.342529297,21950380.325317383,5799555.30166626,13566226.959228516,12993073.463439941,8211771.011352539,-38713504.791259766,14779136.657714844,24001623.153686523,17079359.05456543,21992273.330688477,16680938.720703125,15983178.13873291,12576816.55883789,9382639.88494873,-6562622.547149658,19015222.549438477,17981182.098388672,7634881.973266602,10959506.034851074,16965225.219726562,15478726.387023926,14813651.084899902,4988246.917724609,17508428.5736084,28931022.64404297,23306734.085083008,23375398.635864258,7315194.606781006,18220144.271850586,8433324.813842773,13448693.27545166,16721977.233886719,18624202.728271484,28278646.46911621,29060075.759887695,23237398.147583008,4020000.457763672,8010266.304016113,17029237.747192383,7870504.379272461,14253086.09008789,-7942603.11126709,27677371.978759766,27799774.169921875,27292009.353637695,16416547.775268555,13240775.108337402,11152584.075927734,-3853072.8816986084,27275196.075439453,26998128.89099121,24992309.5703125,24357152.938842773,23862619.400024414
0.42,19193666.458129883,318900.10833740234,-4763841.62902832,12839482.307434082,-2188916.9216156006,17677003.860473633,13245533.94317627,13511449.813842773,13151940.34576416,1254355.1921844482,132304.3555021286,-2597822.427749634,-7660643.577575684,-26156528.47290039,19646881.103515625,19953428.268432617,11958374.0234375,12950041.770935059,5600374.221801758,740073.3828544617,-942214.31016922,-5177317.142486572,-11027331.352233887,22021663.665771484,13723169.326782227,4283649.921417236,7661324.024200439,6265891.551971436,2143811.9411468506,280299.42512512207,-5618447.780609131,2084017.5151824951,15217581.748962402,14267015.45715332,14524314.880371094,4348575.592041016,7682759.761810303,-3122627.2583007812,-716936.2902641296,-149718.2548046112,258237.5705242157,14515851.974487305,15132276.53503418,14241176.60522461,-340977.5495529175,1304035.3059768677,183656.61799907684,-3600957.155227661,-2285226.821899414,-18545419.692993164,7591876.50680542,7591511.249542236,7358446.12121582,-1286049.6044158936,-3651500.940322876,-3894544.839859009,-20581232.07092285,7129324.913024902,6873304.843902588,3314515.5906677246,927276.9093513489,1444405.198097229
0.425,25368124.00817871,4112515.449523926,-431181.04338645935,17923183.44116211,4124170.7801818848,15934671.401977539,17649528.50341797,17992788.314819336,17757661.819458008,3835789.442062378,5850274.085998535,4752562.522888184,-844630.8970451355,-31719249.725341797,18148897.171020508,22766214.37072754,15374507.904052734,17614070.892333984,10930842.399597168,6242763.042449951,4586279.392242432,-30823.31456243992,-10976545.333862305,20932733.5357666,14257544.51751709,7053906.9175720215,9235298.156738281,8162325.859069824,7194919.109344482,6436764.717102051,-2250791.7881011963,5851879.596710205,18456703.186035156,17234619.140625,17507354.736328125,6273738.861083984,11176440.238952637,3268472.194671631,5206618.309020996,6631374.835968018,5037128.925323486,17955463.409423828,18308990.478515625,17124362.94555664,1565043.568611145,4530107.498168945,6732460.975646973,1974675.0593185425,4128585.3385925293,-14556077.003479004,13151287.078857422,13309322.357177734,12846338.272094727,3918824.9111175537,3267783.6418151855,668759.3460083008,-15514248.847961426,12758383.750915527,12476743.698120117,8763625.144958496,8047190.6661987305,6727295.875549316
0.43,46362308.502197266,17971454.620361328,9555253.028869629,32287212.371826172,23875360.4888916,7580552.577972412,27123397.827148438,27716648.10180664,29033014.29748535,9447245.597839355,22924221.03881836,25882648.468017578,21237003.326416016,-47700695.0378418,9832761.764526367,27539815.90270996,21905008.31604004,29253154.754638672,25980140.686035156,25761005.401611328,22872804.641723633,19777486.80114746,-4596623.420715332,14912157.05871582,16531496.047973633,11603286.743164062,13293416.023254395,20865154.266357422,24726032.257080078,27107812.881469727,12696566.581726074,25514820.098876953,32957603.454589844,27715608.596801758,27859361.64855957,11083548.545837402,24733654.022216797,20204059.600830078,25384227.752685547,30767164.23034668,29570049.285888672,32795150.756835938,32974117.279052734,27647146.224975586,7916681.289672852,14405241.966247559,29399059.295654297,19550245.28503418,27436286.92626953,592362.4038696289,36944610.595703125,37306571.96044922,36503704.07104492,25057872.772216797,26087575.912475586,20431972.50366211,6460876.46484375,36764591.217041016,36421234.130859375,34223983.76464844,36855716.705322266,32402053.833007812
0.435,59776435.85205078,27891363.1439209,17732353.21044922,39027835.845947266,39362289.42871094,-7611491.2033081055,29161611.557006836,30023733.139038086,33117874.145507812,11112522.12524414,35514869.689941406,42866920.471191406,42660060.88256836,-55243568.420410156,-3468498.2299804688,25893449.783325195,22155847.549438477,33756351.470947266,36240844.7265625,41278446.197509766,38603088.37890625,39937416.076660156,6783654.21295166,4165307.5218200684,14094481.468200684,10865851.402282715,13909649.848937988,32816825.86669922,38925632.47680664,45206619.26269531,28650989.532470703,46086494.44580078,42105014.80102539,33500911.712646484,33550724.029541016,12765317.916870117,34938579.55932617,32339576.721191406,42562564.849853516,52829936.98120117,54855049.13330078,42131225.5859375,42317741.39404297,33606323.2421875,10294845.581054688,20072523.11706543,46390491.4855957,34258697.509765625,47764926.91040039,14595836.639404297,54791973.11401367,55178066.25366211,54340179.443359375,40566440.58227539,43237297.05810547,38184413.90991211,26347003.936767578,54847942.35229492,54387882.232666016,54437915.80200195,60172256.46972656,53821624.755859375
0.44,53267997.74169922,26810039.520263672,21595108.032226562,31580343.24645996,42321048.736572266,-25433649.06311035,20339748.38256836,21315641.403198242,25344312.66784668,7879769.325256348,36691490.173339844,47502643.58520508,53816593.170166016,-43879024.505615234,-16516265.869140625,15952795.028686523,14097084.999084473,26129262.924194336,34662273.40698242,42154510.498046875,42999584.19799805,49959445.95336914,19028730.392456055,-7522880.554199219,5648057.93762207,3952457.6663970947,9220300.674438477,33586139.67895508,40235290.52734375,49635189.056396484,36645824.43237305,55569747.92480469,37015663.146972656,28721090.31677246,28794506.072998047,8761748.313903809,33251377.10571289,32420967.10205078,45761760.71166992,58918624.87792969,64222824.09667969,36985500.33569336,37258728.02734375,28896867.752075195,4668671.131134033,15767798.42376709,44632801.0559082,35982906.341552734,50922084.80834961,17946273.803710938,51953575.134277344,52208816.52832031,51581741.33300781,37653846.740722656,42391235.3515625,40746181.48803711,29568843.841552734,52114574.43237305,51518318.17626953,52969722.747802734,61096214.294433594,55470909.118652344
0.445,35361335.75439453,19527563.095092773,22570627.212524414,19027793.884277344,37813354.4921875,-38788539.88647461,8942335.12878418,9937002.182006836,13982151.985168457,4598244.190216064,31845483.779907227,44674709.32006836,55336845.39794922,-23374885.55908203,-24420190.811157227,3861010.3130340576,4502129.554748535,14528413.772583008,26940519.332885742,33631519.31762695,39380905.15136719,49384456.634521484,26879863.739013672,-15488251.686096191,-3768926.1436462402,-3321387.529373169,3578512.191772461,24622447.967529297,33002307.891845703,43458103.17993164,35461856.842041016,53546207.427978516,23670793.533325195,18654405.59387207,18806152.34375,2988413.3338928223,24388418.197631836,25768447.875976562,38727920.53222656,50828643.798828125,56815338.134765625,23530178.07006836,23782093.048095703,18769062.042236328,-3654505.0144195557,7184292.316436768,31404357.91015625,27403202.056884766,39408245.08666992,10253615.379333496,35351459.50317383,35495903.01513672,35007064.81933594,23332759.857177734,29922431.94580078,29357273.10180664,16979257.583618164,35436748.50463867,34793823.2421875,36087791.442871094,45657112.12158203,42453433.990478516
0.45,21752918.243408203,13320136.070251465,20866140.365600586,12133764.266967773,33101783.752441406,-45183315.27709961,3158082.2467803955,4261864.185333252,8056028.366088867,3991722.822189331,28126832.962036133,41377338.40942383,52137649.53613281,-12370536.804199219,-27911666.870117188,-4240583.896636963,-407460.62994003296,8216538.429260254,22230047.22595215,27191583.63342285,35353790.283203125,44159893.03588867,27601488.11340332,-19597398.75793457,-9844505.310058594,-6468593.120574951,1546386.480331421,15927691.459655762,27540552.139282227,36787673.95019531,29849679.946899414,47401741.02783203,12963580.131530762,11441598.892211914,11662955.284118652,786719.2029953003,19340820.3125,21268568.03894043,32128467.559814453,40170234.68017578,44783676.14746094,12832846.641540527,12933698.654174805,11640509.605407715,-6960939.884185791,3748038.5303497314,22714677.810668945,18780405.044555664,26346801.7578125,-1313664.9131774902,21561626.434326172,21696578.979492188,21197490.692138672,13346805.572509766,19840559.005737305,15565993.309020996,720646.321773529,21497758.865356445,20945783.615112305,21525890.350341797,30698167.80090332,29189796.447753906
0.455,16472736.358642578,9080714.225769043,15334858.894348145,10528155.326843262,28497522.354125977,-47946063.99536133,1840295.0763702393,3068680.52482605,6824518.203735352,3573363.3041381836,25524818.420410156,37491310.119628906,46378116.607666016,-16245494.842529297,-31032859.802246094,-8218710.899353027,-1701344.37084198,6805002.212524414,21800868.98803711,25721492.767333984,32756217.95654297,38409179.6875,23018775.939941406,-23141597.747802734,-13424854.278564453,-7401684.761047363,2307746.410369873,12909324.645996094,26863126.754760742,33810241.69921875,23852123.260498047,42113628.38745117,8155528.0685424805,8742424.964904785,9038081.169128418,2555748.224258423,21390014.6484375,20648229.598999023,30110656.73828125,34189155.57861328,37887256.62231445,8078517.913818359,8101187.705993652,9280451.774597168,-4317828.178405762,6762776.851654053,23456726.07421875,15788023.948669434,20094724.655151367,-9026841.163635254,17344837.188720703,17504278.1829834,17034389.49584961,13584984.77935791,17242385.864257812,8101197.242736816,-9082291.603088379,17212476.73034668,16797893.524169922,17533626.556396484,24267477.03552246,22491624.83215332
0.46,11724384.307861328,3847869.634628296,7559660.4347229,7267070.293426514,20762548.446655273,-48948352.8137207,-641780.9724807739,398208.52875709534,4214912.414550781,1077047.1096038818,20075311.6607666,29054115.295410156,36957862.854003906,-22528980.255126953,-33692176.818847656,-10732513.427734375,-3606359.4818115234,4291180.13381958,19774482.72705078,22254356.384277344,27621854.782104492,31167995.45288086,17290853.50036621,-26178371.42944336,-16623811.721801758,-10065548.89678955,1929026.2460708618,11791200.637817383,24736898.42224121,29785051.345825195,17444869.995117188,36100685.119628906,4864019.870758057,6649509.906768799,7041199.207305908,4056719.3031311035,22879880.905151367,18156679.153442383,27560174.9420166,29815212.24975586,33958351.135253906,4727166.652679443,4899624.824523926,7455024.719238281,-1494440.9132003784,8815253.257751465,23941211.700439453,14505444.526672363,17202508.9263916,-11142499.923706055,15818920.135498047,15971949.577331543,15633592.60559082,15904150.009155273,15575369.834899902,5453833.58001709,-12530613.899230957,15721062.660217285,15384819.984436035,17022617.34008789,20870981.216430664,18344953.536987305
0.465,3527261.972427368,-1696142.1966552734,2462630.7487487793,1389580.6074142456,11679230.690002441,-46191051.4831543,-4648076.53427124,-4172362.804412842,-472589.4331932068,-1476381.3018798828,12521305.084228516,17807168.96057129,25551061.630249023,-19768726.348876953,-31729841.232299805,-11560241.69921875,-6228618.144989014,-271578.75895500183,13725842.475891113,13009769.439697266,19115537.643432617,22109746.9329834,13532958.030700684,-24861577.9876709,-18151824.951171875,-13970685.958862305,-610429.1677474976,8784944.534301758,17242622.37548828,21408275.604248047,10579061.508178711,27995246.88720703,937930.2263259888,3576348.304748535,4038773.536682129,2416695.1179504395,17194269.18029785,10452492.713928223,20659952.16369629,22773488.998413086,27301399.23095703,658087.3727798462,1079929.7094345093,4237197.8759765625,-2824107.1701049805,4779879.570007324,16382444.381713867,9634917.259216309,11858116.149902344,-11229632.377624512,10665457.725524902,10810792.922973633,10533238.410949707,12064773.559570312,9375612.258911133,2460220.0984954834,-14600038.528442383,10578263.282775879,10262564.659118652,12052137.37487793,14554044.723510742,12703770.637512207
0.47,-612164.0801429749,-2911254.8828125,3508663.6543273926,-502917.7665710449,8561318.397521973,-40947711.94458008,-5211975.09765625,-5229629.039764404,-1688520.908355713,-1306839.7045135498,9512364.387512207,12806713.104248047,20023565.2923584,-13433999.061584473,-25515333.17565918,-8592989.921569824,-6055500.030517578,-1498220.682144165,9808088.302612305,5755867.481231689,14121475.219726562,17210985.18371582,13005520.820617676,-18978048.32458496,-15667963.981628418,-15182467.460632324,-2463644.26612854,7241020.679473877,11164523.124694824,15255735.397338867,7486155.986785889,23443473.81591797,1070356.6074371338,3201731.9202423096,3647509.813308716,-343360.8412742615,9458814.62097168,3674153.8047790527,15196125.030517578,17864336.013793945,21858448.028564453,719847.0234870911,1258758.306503296,3430910.110473633,-6136542.320251465,-937489.9864196777,7993482.58972168,4244114.398956299,7745099.5445251465,-11441401.481628418,7569222.927093506,7745716.571807861,7346150.875091553,6439735.889434814,4321805.000305176,643308.4011077881,-15008122.444152832,7384903.907775879,7045610.9046936035,7642945.289611816,10567465.782165527,9934082.03125
0.475,6955529.21295166,1876338.6011123657,8747179.03137207,5368567.943572998,15437045.097351074,-40348308.56323242,-396328.71747016907,-396862.5068664551,3392920.970916748,831456.184387207,15489645.957946777,20244245.529174805,27112890.243530273,-16881715.774536133,-22427919.387817383,-2973396.3012695312,-2303559.5417022705,3598840.9519195557,14820702.55279541,10450926.780700684,19512157.440185547,23174785.614013672,15477562.90435791,-15001921.653747559,-10837025.64239502,-12531370.162963867,-1566801.0711669922,11408130.645751953,15844942.092895508,20328233.71887207,12361132.621765137,29366590.49987793,9288643.836975098,8482676.50604248,8827876.091003418,-598119.6165084839,10194965.362548828,6787575.721740723,19508602.142333984,23465698.2421875,27256694.793701172,8967348.098754883,9486293.79272461,8399079.322814941,-6823891.639709473,-886653.72133255,11362250.328063965,6179001.331329346,13509621.620178223,-9785880.088806152,15839690.208435059,16051622.39074707,15450972.557067871,9544396.40045166,9736660.957336426,6051010.608673096,-9031323.432922363,15536399.841308594,15057818.412780762,14502420.425415039,18282011.032104492,16694961.547851562
0.48,21375234.603881836,8192234.992980957,12909484.86328125,14190852.165222168,27244146.3470459,-48104160.30883789,5479617.595672607,5858541.011810303,10472803.115844727,2556172.8477478027,26670295.71533203,34768127.44140625,42373001.09863281,-32274765.014648438,-27350217.819213867,869429.5287132263,1397379.5175552368,10906930.923461914,26631811.141967773,25113376.61743164,32359451.293945312,36895286.560058594,18540349.96032715,-18075992.584228516,-8254611.015319824,-9326030.731201172,663726.7470359802,18252786.63635254,29642511.36779785,34632186.88964844,21728822.708129883,42756217.95654297,21104347.229003906,16190727.233886719,16425785.064697266,1852274.5370864868,20714380.264282227,19162988.662719727,31981962.203979492,37807052.61230469,42679985.04638672,20791282.653808594,21333532.333374023,16081968.307495117,-4485493.6599731445,5052232.265472412,26062267.303466797,16160980.224609375,28198156.356811523,-5193271.636962891,32844280.242919922,33060901.641845703,32275932.31201172,22159463.88244629,24412265.77758789,18027124.404907227,2634521.245956421,32541862.48779297,31777963.638305664,31708452.224731445,35963237.76245117,30890836.715698242
0.485,30897134.78088379,11008176.803588867,13024108.88671875,19364801.40686035,35535251.61743164,-57817600.25024414,8013787.269592285,8614281.65435791,14276602.745056152,3461642.026901245,35352443.69506836,45122673.03466797,53403343.200683594,-49072879.791259766,-35470119.47631836,890781.5217971802,2227539.0625,14999081.6116333,36533092.4987793,37553646.087646484,42678730.01098633,47174648.28491211,18654146.194458008,-24693468.09387207,-9530177.116394043,-8543692.588806152,1938916.563987732,21419973.373413086,41239269.2565918,46524360.65673828,26986646.65222168,52509010.314941406,28095848.083496094,20535415.649414062,20725824.3560791,3905310.63079834,31420274.73449707,30285554.885864258,42369037.62817383,49450439.453125,55112361.907958984,27740171.432495117,28363567.352294922,20544544.219970703,-2855670.928955078,10332650.184631348,39003913.87939453,26067312.240600586,40395267.486572266,-968034.9230766296,45656147.00317383,45909065.24658203,44895454.40673828,33794292.44995117,37383464.81323242,27848169.326782227,12255199.432373047,45503849.029541016,44455539.70336914,46264873.50463867,51270233.154296875,43048038.482666016
0.49,32590244.29321289,11278431.89239502,11518039.70336914,20859315.872192383,38449058.532714844,-61293170.92895508,8294456.481933594,8769048.690795898,15226100.92163086,4253839.492797852,38637809.75341797,47650608.06274414,55234516.14379883,-58576099.39575195,-39030406.9519043,33657.7370762825,1904119.9684143066,15984430.313110352,39833621.978759766,40803134.91821289,45718769.07348633,49073242.1875,15896619.79675293,-27635089.874267578,-11533123.016357422,-9211593.627929688,2118447.0653533936,20663927.07824707,44289550.78125,49985340.1184082,26051002.502441406,54358158.111572266,28939094.54345703,20775131.225585938,20988288.87939453,3661532.402038574,34892730.712890625,33046428.680419922,45585758.209228516,52972175.59814453,57292064.66674805,28629598.61755371,29177467.346191406,20912393.56994629,-3892408.3709716797,11299959.182739258,42614574.43237305,30279304.50439453,43899246.21582031,337771.80314064026,48570178.9855957,48972930.908203125,47680175.78125,37450962.06665039,42795902.252197266,30731925.96435547,15674357.414245605,48648334.50317383,47486438.7512207,50890987.396240234,57732727.05078125,48845676.42211914
0.495,34599094.39086914,14190472.602844238,13825119.018554688,23020854.949951172,41362159.729003906,-59102806.091308594,9940431.594848633,10264575.958251953,17025663.375854492,4584535.598754883,39961170.1965332,49053524.017333984,56170894.622802734,-60040485.38208008,-37226325.98876953,1729858.5176467896,3530641.794204712,17553037.643432617,39518493.65234375,39857910.15625,46267429.35180664,49809421.53930664,16168390.274047852,-25303876.876831055,-11099973.678588867,-8853303.909301758,2280328.0353546143,20896894.454956055,43596794.12841797,50798419.95239258,26600002.28881836,56505382.5378418,30014986.038208008,21326725.006103516,21555875.778198242,2598946.0945129395,33650852.20336914,31467712.40234375,46814373.01635742,55164871.21582031,57475772.857666016,29914577.48413086,30148849.487304688,21580299.377441406,-5066167.35458374,10754423.141479492,42535194.396972656,32049423.217773438,45171813.96484375,1990565.8960342407,49284248.35205078,49902782.44018555,48481868.743896484,37416492.4621582,45614551.54418945,31837396.6217041,17616325.37841797,49605598.44970703,48471958.16040039,52089488.9831543,61350284.576416016,53194961.54785156
0.5,42253631.591796875,21571512.22229004,22420890.80810547,26767257.690429688,47898681.640625,-57474040.98510742,13154090.881347656,13601045.608520508,20167819.97680664,4484763.145446777,42674777.98461914,54984272.00317383,64348602.294921875,-54172744.75097656,-35071353.912353516,4918755.054473877,6826045.036315918,20504711.151123047,39600170.13549805,41575756.07299805,49625724.79248047,56494655.60913086,24437536.239624023,-22252313.6138916,-9209100.723266602,-7516201.972961426,2416780.471801758,23181106.567382812,45137969.970703125,55085796.35620117,34323574.06616211,66003486.63330078,34276279.44946289,24131034.85107422,24312892.91381836,2609870.9106445312,32848655.700683594,32462760.92529297,50975070.95336914,61890430.45043945,64814140.31982422,34381038.665771484,34323268.89038086,24411043.167114258,-3815960.645675659,11472067.832946777,44911983.489990234,35654636.38305664,50787368.77441406,7937449.4552612305,54097732.54394531,54851737.97607422,53603195.19042969,39140079.498291016,50237224.57885742,36251434.326171875,22294092.178344727,54608665.466308594,53501735.68725586,56432552.337646484,67378440.8569336,59532863.61694336
0.505,49530467.98706055,28561635.971069336,32716476.440429688,28314929.962158203,54196865.08178711,-58990612.0300293,14519807.815551758,15231333.73260498,21306913.375854492,5543454.647064209,45372718.811035156,61401184.08203125,74515830.99365234,-42512310.02807617,-35971725.46386719,5409011.363983154,8400772.094726562,21696086.883544922,39686367.03491211,44719795.22705078,53691585.540771484,64387924.19433594,35869178.771972656,-22754983.90197754,-9444484.71069336,-7580197.334289551,1662279.3674468994,23117643.356323242,47232704.162597656,59515583.03833008,43286792.75512695,76378036.49902344,35707649.23095703,25057622.9095459,25185779.571533203,2784793.3769226074,32264114.379882812,35771144.86694336,54684677.12402344,67697235.10742188,73785842.89550781,35788330.078125,35746292.11425781,25203456.87866211,-2137574.4342803955,11657309.532165527,46475505.82885742,38743373.87084961,56198688.50708008,14741333.0078125,56581905.364990234,57337055.20629883,56389858.24584961,39673675.537109375,52382484.436035156,39986572.265625,25262777.32849121,57148460.388183594,56051082.611083984,58767963.40942383,70269577.02636719,62367767.333984375
0.51,48339576.721191406,28884170.532226562,36019058.22753906,25350965.49987793,54151321.41113281,-62738452.91137695,11873939.514160156,12686985.969543457,18481157.302856445,7732964.038848877,44811420.44067383,60937488.5559082,75266304.01611328,-34578037.26196289,-40261127.47192383,1101785.5405807495,6009466.171264648,19045402.52685547,38080543.518066406,44412120.8190918,53425975.79956055,64037002.56347656,38836372.37548828,-27830963.134765625,-13819818.496704102,-10443120.002746582,-16818.154603242874,18841569.900512695,45900928.49731445,58269443.51196289,43545303.34472656,76291404.7241211,28520629.8828125,20125139.236450195,20320310.592651367,893254.7569274902,30208023.071289062,37029376.98364258,53287910.46142578,65274345.39794922,72843254.08935547,28357618.33190918,28575284.957885742,20164978.02734375,-4084580.421447754,9356163.97857666,43161174.77416992,37367782.59277344,54055999.755859375,14436629.295349121,48659755.70678711,49377353.66821289,48583679.19921875,34545410.15625,47807239.5324707,36986080.169677734,20570207.595825195,49152698.5168457,48133258.81958008,52034774.78027344,63913703.91845703,55970428.466796875
0.515,40851348.876953125,22286098.48022461,28711647.033691406,20728538.513183594,47873531.341552734,-69485847.47314453,7058485.507965088,7779768.466949463,14016920.08972168,7506933.212280273,41157333.37402344,54087604.52270508,66108650.20751953,-42469367.98095703,-47767280.57861328,-5529109.001159668,1070895.6718444824,14681732.177734375,36282764.43481445,41370037.07885742,49261428.83300781,56125762.939453125,29328271.865844727,-36298191.07055664,-20708604.81262207,-14714936.256408691,-1668268.2037353516,14499588.012695312,43100517.27294922,53667522.43041992,35157051.08642578,66633918.76220703,17498546.600341797,12526351.928710938,12931955.337524414,-2713759.183883667,29777021.408081055,36234413.146972656,49736923.21777344,58432853.69873047,63279254.91333008,17116888.04626465,17528062.82043457,12799330.711364746,-9478274.34539795,7133101.463317871,39846557.6171875,33747783.66088867,47261436.462402344,5780475.616455078,36196208.95385742,36920856.47583008,36122291.564941406,28099687.576293945,41853290.55786133,30008783.3404541,11476595.878601074,36614219.665527344,35712223.052978516,41665481.56738281,54464618.68286133,45383201.599121094
