time,Fp1,Fpz,Fp2,AF3,AF4,F7,F5,F3,F1,Fz,F2,F4,F6,F8,FT7,FC5,FC3,FC1,FCz,FC2,FC4,FC6,FT8,T7,C5,C3,C1,Cz,C2,C4,C6,T8,TP7,CP5,CP3,CP1,CPz,CP2,CP4,CP6,TP8,P7,P5,P3,P1,Pz,P2,P4,P6,P8,PO7,PO5,PO3,POz,PO4,PO6,PO8,CB1,O1,Oz,O2,CB2
0.0,-1878287.1961593628,-1449002.3851394653,-3483401.298522949,-2826419.5919036865,-1963834.4049453735,-3006830.6922912598,-301163.4051799774,-2381207.227706909,-888201.2367248535,-2675154.9243927,-1290358.9010238647,-953752.2792816162,-984469.0561294556,-958107.7098846436,-1900867.8197860718,-3637204.885482788,-494152.0690917969,-406127.1548271179,-1071758.6278915405,-1077837.1095657349,-1084251.4038085938,-1017118.0963516235,-414463.96708488464,152877.00295448303,1236553.66897583,-2001711.6069793701,-1539750.4568099976,685773.3130455017,168288.99085521698,-1066368.1030273438,-2375173.330307007,577665.0905609131,2433415.412902832,372653.7823677063,-1100196.361541748,-1873849.2727279663,123.57790546957403,-1057104.229927063,-1074201.4646530151,-1242711.067199707,-480243.89147758484,-485972.43428230286,1439337.0151519775,1520141.9591903687,-3095233.917236328,-2279463.052749634,-1750092.7448272705,-3602493.2861328125,-681122.9586601257,-1307942.9864883423,-2031628.3702850342,-2496308.5651397705,-4034989.356994629,-2239286.6611480713,-2176832.437515259,-2195919.7521209717,745362.6394271851,-3155369.758605957,-3289442.300796509,-1727156.5198898315,-2204359.292984009,-2193132.4005126953
0.005,34198379.51660156,13432508.46862793,10452245.712280273,985104.3224334717,1569787.859916687,11546804.428100586,6801464.557647705,2431126.356124878,1576700.8066177368,-5197432.518005371,443290.6210422516,2424575.090408325,2205981.731414795,3345355.749130249,15998010.635375977,14258554.458618164,3411720.9911346436,-581172.8239059448,-4142213.821411133,-3852097.272872925,-4689423.561096191,3197214.6034240723,10976096.153259277,12931644.439697266,13838537.216186523,3312815.9046173096,-2673202.0378112793,-3403312.921524048,3175130.605697632,6331963.539123535,4279703.140258789,9170805.931091309,21482324.600219727,12637804.985046387,8517119.407653809,4661257.266998291,2316398.859024048,6154231.071472168,6771508.693695068,8759905.815124512,380303.85971069336,13668307.304382324,15315862.655639648,14743457.794189453,-963869.8101043701,7571505.546569824,9826433.181762695,13782503.128051758,10571221.351623535,13012261.390686035,13554995.5368042,10888807.29675293,11103518.48602295,7134675.979614258,16745935.440063477,17248937.606811523,19513854.98046875,16782920.837402344,13593436.241149902,9954712.867736816,16240116.119384766,16990615.844726562
0.01,46967769.622802734,18102661.1328125,14326304.43572998,988621.711730957,1259773.2543945312,14289339.065551758,7889904.499053955,2978356.122970581,1913099.5273590088,-5886868.953704834,-350399.911403656,1570064.3062591553,1150004.0292739868,2633760.2138519287,21054779.052734375,19597509.384155273,4171352.3864746094,-433092.98157691956,-5563906.192779541,-5002246.856689453,-6226723.670959473,2524662.0178222656,12528298.377990723,16718217.849731445,16891141.891479492,2980074.167251587,-2790029.287338257,-4552882.671356201,4546662.8074646,8998618.125915527,5931408.405303955,10026303.2913208,25904272.079467773,14592546.463012695,11328820.22857666,8056409.83581543,3351298.5706329346,8588603.973388672,9490307.807922363,12004403.114318848,-941468.7156677246,16094566.345214844,18822738.647460938,18209281.92138672,-1165752.7685165405,9638949.394226074,13230904.579162598,20991363.525390625,14108622.550964355,17252233.505249023,16628110.885620117,13357476.234436035,14785791.397094727,8969846.725463867,22037502.28881836,22716764.450073242,23471063.6138916,22823945.999145508,17717203.14025879,12204094.886779785,21305267.333984375,22310766.220092773
0.015,38072315.21606445,13611714.363098145,8479531.288146973,-2487738.1324768066,-1682545.54271698,6869681.835174561,3689795.2556610107,-695751.6074180603,260329.39553260803,-4850344.181060791,-2047231.4357757568,-1271620.750427246,-1879032.2542190552,-641035.7356071472,15024266.242980957,12907613.754272461,2301724.672317505,-303339.4515514374,-5122740.268707275,-4361034.870147705,-5530261.516571045,-652490.9138679504,7975868.225097656,12675723.0758667,11694471.35925293,-1705776.6914367676,-2234933.376312256,-2977590.799331665,4663028.717041016,7773388.385772705,4829938.4117126465,6464799.880981445,17945745.46813965,8385225.296020508,8745256.423950195,8004054.069519043,3073414.087295532,7152850.151062012,8074578.285217285,10189105.987548828,-2409078.1211853027,9068129.539489746,13886764.526367188,13832830.429077148,-2883705.3775787354,5847401.6189575195,9992505.073547363,18806491.85180664,11294647.216796875,13567968.368530273,9613744.735717773,7013530.731201172,8797393.798828125,5193753.242492676,15944087.028503418,16531179.428100586,15880580.90209961,16583688.735961914,11073297.500610352,7439098.358154297,15301549.911499023,16098131.17980957
0.02,29365825.653076172,10217568.397521973,2841945.171356201,-4918036.460876465,-2399615.2877807617,2166181.3259124756,789372.5633621216,-3997089.8628234863,-1226051.0921478271,-3151322.841644287,-858560.8601570129,-397053.89738082886,-1136228.7998199463,-401.69875137507915,11036466.598510742,5798924.446105957,1051027.6556015015,-576793.1342124939,-3662096.5003967285,-2772669.553756714,-3801068.3059692383,-30854.053795337677,8427554.1305542,9690978.050231934,7185603.141784668,-4883497.23815918,-2128964.1857147217,-1238089.2038345337,5290229.797363281,7247523.784637451,7033518.314361572,7552497.863769531,11773298.263549805,4377335.548400879,7205171.585083008,6478449.821472168,2453078.508377075,6567778.587341309,7553077.220916748,10303392.41027832,-74013.27043771744,4668747.425079346,10581525.802612305,11152769.088745117,-3447563.648223877,4096977.2338867188,8001922.607421875,16155149.459838867,9658143.043518066,12131755.828857422,5621316.432952881,3440658.5693359375,4838171.95892334,3487344.50340271,11715996.742248535,12249901.77154541,11680891.990661621,11813476.5625,6706806.659698486,5399063.1103515625,11291866.302490234,11857861.518859863
0.025,36248222.35107422,14750283.241271973,5179424.76272583,-2377877.712249756,919948.5778808594,9440579.414367676,4241893.291473389,-2436794.2810058594,-1048032.8798294067,-1659709.9304199219,3089323.9974975586,4483816.146850586,3684684.991836548,5079160.213470459,17496728.897094727,7280092.716217041,2347230.4344177246,-994350.790977478,-2368322.1340179443,-1354197.0252990723,-2441070.795059204,4900423.526763916,15436931.610107422,13555241.584777832,8225446.701049805,-3930909.1567993164,-2820111.5131378174,-1166589.0216827393,6754981.994628906,9272077.560424805,12792731.285095215,14000887.870788574,14965485.572814941,7208168.506622314,9105769.157409668,5273746.967315674,2242074.728012085,8723872.184753418,9860146.522521973,14403475.761413574,5659734.725952148,8922384.262084961,13382039.070129395,14206091.88079834,-1767301.4402389526,7269521.236419678,10588079.452514648,18064851.760864258,12452605.247497559,16795921.325683594,11329400.062561035,8733136.177062988,9553945.541381836,6555823.32611084,15804696.083068848,16400623.321533203,16972255.70678711,17039817.810058594,11998983.383178711,9569625.854492188,15446754.455566406,16095954.895019531
0.03,52524608.61206055,22969766.61682129,11782293.319702148,3664337.635040283,3641298.0556488037,24819665.908813477,12302484.512329102,3474513.530731201,-222452.23820209503,-1854336.2617492676,4184770.107269287,6212634.086608887,5423204.42199707,6973762.035369873,29749423.98071289,15375188.827514648,5028394.2222595215,-1135052.3233413696,-2861275.4344940186,-1705017.9243087769,-3036650.8960723877,6727718.353271484,18131168.365478516,21833402.633666992,11577428.817749023,-1614407.7777862549,-3503773.6892700195,-2624606.132507324,6730854.9880981445,10755561.828613281,14825214.385986328,16099405.288696289,21726985.931396484,11648628.234863281,11058732.986450195,5115050.792694092,2383164.405822754,10422880.172729492,11577913.284301758,16758806.228637695,8800486.56463623,15731709.480285645,17021762.84790039,17736072.540283203,963197.2312927246,10709635.734558105,13330067.63458252,20617696.76208496,15096919.059753418,20623714.447021484,19757793.426513672,16751720.428466797,17388517.379760742,9819231.986999512,21487846.37451172,22094944.00024414,23133216.857910156,26322010.040283203,20640687.942504883,13959230.422973633,20957508.087158203,21901517.868041992
0.035,62624858.85620117,25826459.884643555,12293881.4163208,7754242.420196533,-387.4727408401668,37901172.63793945,19336971.282958984,9102141.380310059,-535757.303237915,-5369780.06362915,-2049671.8883514404,-875113.2488250732,-1591798.9015579224,-283439.18919563293,38482322.692871094,22741300.582885742,7270862.579345703,-837502.5391578674,-6205798.149108887,-4995704.174041748,-6546864.5095825195,-349575.81758499146,8698560.71472168,29062955.856323242,13159835.815429688,-633368.968963623,-3244525.671005249,-4515356.540679932,3196192.2645568848,8579891.204833984,8165545.463562012,7240109.920501709,24331928.253173828,12153788.566589355,10523461.34185791,6193400.859832764,2489484.7869873047,8402614.59350586,9366853.713989258,12499060.63079834,4802068.23348999,17274646.759033203,15983815.19317627,16444246.292114258,3268664.598464966,10183300.018310547,11708818.435668945,18394088.745117188,12765106.201171875,16874855.041503906,21280918.12133789,18589683.532714844,19407115.936279297,9272235.870361328,20564844.131469727,21075504.302978516,21463916.778564453,28853601.455688477,22590599.060058594,13199716.567993164,19813758.850097656,20927759.170532227
0.04,61831203.46069336,20978935.24169922,3465087.413787842,7291444.301605225,-8729064.94140625,44645618.4387207,22730504.989624023,11657152.17590332,-1309768.6767578125,-10582077.980041504,-11931987.762451172,-12367568.016052246,-12990968.704223633,-11974238.395690918,41923389.43481445,26718540.19165039,9262495.040893555,455391.7348384857,-10527183.532714844,-9442461.013793945,-10982104.301452637,-11735329.627990723,-5844716.0720825195,33413513.18359375,14312313.079833984,320389.12177085876,-1890665.7695770264,-5754536.151885986,-1878963.828086853,4441150.188446045,-1676845.1929092407,-6012376.308441162,24037458.419799805,10692716.598510742,9648593.90258789,8139475.8224487305,2435096.502304077,4315052.032470703,5063923.358917236,5327877.521514893,-2819425.344467163,14854866.027832031,12408864.974975586,12555478.0960083,4578036.308288574,7480077.266693115,7553134.918212891,12842719.078063965,7689418.315887451,9199890.13671875,16492151.260375977,14360034.942626953,14977405.548095703,6781826.972961426,14904791.831970215,15347009.658813477,15443499.565124512,23414314.27001953,17356754.302978516,9930481.910705566,14094713.21105957,15097264.289855957
0.045,59115447.998046875,15301216.125488281,-5812883.8539123535,6241859.436035156,-14212512.969970703,49852310.18066406,25098058.700561523,13572082.51953125,571764.5883560181,-11996434.211730957,-16401929.85534668,-17844022.750854492,-18434234.619140625,-17326658.248901367,45913120.26977539,30652767.181396484,12518564.224243164,3943801.6414642334,-11238128.662109375,-10367851.257324219,-11642168.998718262,-16946981.43005371,-12123115.539550781,36832904.81567383,18496536.254882812,3373431.921005249,-16873.58319759369,-5480325.222015381,-3891205.7876586914,2625900.5069732666,-4568453.311920166,-11803859.71069336,26888860.70251465,12460108.757019043,11119715.690612793,9625080.108642578,2350341.558456421,2512357.711791992,3160030.8418273926,2882647.0375061035,-6258316.0400390625,15488387.107849121,11745696.067810059,11498568.534851074,4637226.581573486,6326740.264892578,5551972.389221191,9753937.721252441,5662017.345428467,6408301.35345459,13657790.184020996,11466749.19128418,10849832.534790039,5873383.99887085,12211451.530456543,12676870.346069336,13924901.008605957,18527395.248413086,12966369.62890625,9420825.958251953,11477139.472961426,12229270.935058594
0.05,62700531.005859375,15885717.391967773,-5431187.152862549,9747344.017028809,-10695537.567138672,57524543.76220703,29343515.396118164,18256517.41027832,6341958.522796631,-6475140.571594238,-11660951.614379883,-13355664.253234863,-14008109.092712402,-12553462.982177734,53699394.22607422,36720466.61376953,17110525.131225586,9624660.49194336,-6048807.621002197,-5319459.438323975,-6298945.426940918,-12316255.569458008,-7037382.125854492,40591133.11767578,24778455.73425293,7094666.481018066,1674662.3516082764,-3596832.275390625,-1261052.966117859,4097903.251647949,1442709.5651626587,-7828585.624694824,33307041.16821289,17612232.208251953,13797122.955322266,9453368.186950684,2340009.6893310547,4034498.2147216797,4612216.949462891,6341813.564300537,-3394718.647003174,20980133.056640625,14576148.986816406,13966128.3493042,3607036.590576172,6694504.261016846,6435818.672180176,10796888.35144043,7570653.915405273,10118389.129638672,16560247.421264648,13774990.08178711,11285576.820373535,6268387.317657471,14530882.835388184,15004275.32196045,17943260.192871094,20155687.33215332,14369840.621948242,11446497.917175293,13840400.695800781,14419373.512268066
0.055,69501556.39648438,21413362.503051758,3076416.015625,16246143.341064453,-2454654.6936035156,64089500.427246094,33694618.225097656,24082544.326782227,12388436.317443848,1392994.999885559,-4070786.952972412,-5993935.585021973,-6733089.923858643,-5127008.91494751,60761028.28979492,41812683.10546875,20857299.8046875,14720899.58190918,1112687.7069473267,1782145.0233459473,844093.382358551,-5150339.126586914,12595.39183229208,43142982.482910156,28320674.896240234,8407417.297363281,2980026.0066986084,-1225576.5199661255,2357511.9972229004,5625345.230102539,8093725.204467773,-2703447.5803375244,37751205.44433594,21473608.016967773,15215603.828430176,8332452.774047852,2391530.2753448486,5650982.856750488,6113655.567169189,9616533.279418945,190459.5047235489,26047555.923461914,17233629.22668457,16524374.008178711,3146929.5024871826,6463568.687438965,7173069.477081299,12292318.344116211,9010917.663574219,13809378.623962402,21075181.96105957,18141380.310058594,14430730.819702148,5857027.053833008,17125743.865966797,17534492.49267578,21311918.258666992,25403545.379638672,18811447.143554688,12149742.126464844,16416721.34399414,16967969.89440918
0.06,70974227.90527344,24403482.43713379,9057256.698608398,18489675.521850586,1240161.5381240845,63851062.7746582,33669883.728027344,25667888.641357422,13610096.93145752,4198202.133178711,-2203304.2907714844,-4424513.816833496,-5179794.788360596,-3742572.546005249,61270664.21508789,42009578.704833984,21527040.481567383,15777276.992797852,3879863.977432251,4457411.289215088,3290995.5978393555,-3911153.793334961,682203.471660614,42344112.396240234,26654186.248779297,7535305.976867676,4345822.811126709,181720.67403793335,2915480.375289917,4878631.591796875,8399322.509765625,-3192588.8061523438,37387493.13354492,21384614.944458008,15912172.317504883,8354302.406311035,2430597.5437164307,4959034.442901611,5387182.712554932,8836536.407470703,-24580.927565693855,26741905.212402344,18339483.2611084,17887655.25817871,5456877.708435059,6110376.834869385,6490194.797515869,12095270.156860352,7873044.013977051,13571072.578430176,23202768.325805664,21173908.233642578,17904523.849487305,5357256.4125061035,17378940.58227539,17749790.19165039,21665920.25756836,29308187.48474121,22524528.50341797,11282708.168029785,16722656.25,17324279.78515625
0.065,65123832.70263672,20765798.568725586,6667540.550231934,13332859.992980957,-2404256.582260132,57615226.74560547,28323589.324951172,21268541.33605957,9638872.146606445,1475821.9718933105,-6340595.245361328,-8345788.955688477,-9062792.778015137,-7823169.708251953,55870353.69873047,38114616.39404297,19143140.79284668,12696587.562561035,1102679.1334152222,1567794.0845489502,177625.22399425507,-7938456.058502197,-2776348.829269409,38065361.02294922,22215644.83642578,7465679.168701172,6071233.27255249,264020.9496021271,1108896.8515396118,3511434.555053711,5088666.915893555,-6341886.043548584,35231704.71191406,19082788.467407227,17724279.403686523,10082087.516784668,2373028.039932251,3531617.8798675537,4145407.6766967773,7268260.0021362305,-1582742.2142028809,24982259.75036621,19536239.624023438,19528339.385986328,9892176.628112793,7530525.684356689,6273611.545562744,12717700.004577637,7329162.120819092,13027552.604675293,23979166.03088379,23323673.248291016,22031646.728515625,6809798.240661621,18188011.169433594,18600759.506225586,22996824.264526367,31793291.091918945,25726190.5670166,12022954.940795898,17702737.80822754,18362932.205200195
0.07,58396656.03637695,14034838.676452637,835829.1387557983,6562696.933746338,-7170465.94619751,51497817.99316406,22060194.01550293,15620294.570922852,5562763.214111328,-123165.65960645676,-9603050.231933594,-10941699.028015137,-11666889.190673828,-10428094.863891602,49802440.64331055,34065719.60449219,15670581.817626953,9155790.328979492,-2117878.198623657,-1635468.3637619019,-3059772.01461792,-10358067.512512207,-3791743.755340576,32067882.537841797,18155874.252319336,8511696.815490723,7289082.5271606445,-283667.1471595764,375805.6163787842,3791932.5828552246,4445953.845977783,-6613841.0568237305,33822811.126708984,16227231.979370117,19018033.981323242,11158992.767333984,2215850.1148223877,3626413.106918335,4542472.839355469,8550691.604614258,-795674.6816635132,23187549.591064453,20019401.55029297,20413719.177246094,11973234.176635742,9179426.193237305,7276334.762573242,15792640.686035156,9577502.250671387,15354151.725769043,24568351.74560547,24599630.35583496,25743095.39794922,8543885.231018066,21059091.567993164,21479724.884033203,26666433.334350586,34362323.76098633,28628562.927246094,14085102.081298828,20707189.559936523,21418420.791625977
0.075,56532073.974609375,9876722.33581543,-1747935.6527328491,5314095.497131348,-7282240.867614746,48534095.764160156,19506340.02685547,13840214.729309082,5644340.991973877,2732651.2336730957,-8478180.885314941,-9649071.69342041,-10445681.57196045,-9119668.960571289,45510509.4909668,31409950.256347656,12976278.305053711,8282932.281494141,-1748015.4037475586,-1103860.4974746704,-2520305.633544922,-8852898.597717285,-2202566.8621063232,26301677.703857422,14502224.922180176,7196113.109588623,6546083.927154541,-949102.9977798462,1145964.6224975586,4524355.888366699,5970610.618591309,-5454020.977020264,31044582.36694336,11757028.579711914,15867944.717407227,8957537.651062012,2118748.426437378,4143973.3505249023,5218541.622161865,9750817.29888916,-123042.23328828812,19723314.28527832,15891481.399536133,16589952.46887207,8014349.937438965,6889101.505279541,6998263.835906982,17546854.01916504,10956066.131591797,16412488.93737793,22334032.05871582,21947576.52282715,24739032.745361328,6217382.431030273,21650505.06591797,21962528.228759766,27123298.64501953,34731090.5456543,28004930.49621582,12703055.381774902,21238441.467285156,22004898.071289062
0.08,57772098.541259766,9103870.391845703,-1892832.636833191,8596636.772155762,-5111745.834350586,46363185.88256836,20468673.706054688,15122783.660888672,8201257.705688477,4820826.053619385,-7303471.088409424,-9237695.693969727,-10046543.12133789,-8747282.028198242,41500614.166259766,28755283.35571289,11686123.847961426,9277967.45300293,-162769.71995830536,594115.4956817627,-978987.9322052002,-8391712.188720703,-3528168.201446533,22433942.794799805,10466463.088989258,2365477.5619506836,4041705.60836792,-1850853.3239364624,393074.6912956238,2941571.9509124756,3875784.6355438232,-8441014.289855957,25511220.932006836,5724362.373352051,8867036.819458008,4468437.671661377,2267961.025238037,2458635.8070373535,3436653.1372070312,5870704.650878906,-4273355.960845947,13628785.133361816,7242090.702056885,8202045.440673828,757695.4364776611,578198.9097595215,3738393.545150757,13839091.300964355,7141621.5896606445,11128891.944885254,16143684.387207031,14980669.021606445,18007978.439331055,-174562.03699111938,16496227.264404297,16701820.373535156,20572212.21923828,30551589.965820312,22476966.857910156,6454645.156860352,15890068.054199219,16731353.759765625
0.085,57008174.896240234,8457649.230957031,-4251745.700836182,9656041.145324707,-6487702.369689941,43560108.18481445,21606330.87158203,15277777.671813965,8525021.55303955,680887.5799179077,-10723875.999450684,-13505891.799926758,-14169837.951660156,-13033971.786499023,38148841.857910156,26364345.55053711,11727887.153625488,9521327.97241211,-2035248.041152954,-1306229.829788208,-3104580.6407928467,-12737294.19708252,-9347933.769226074,22365591.049194336,8383774.757385254,-948495.3284263611,2462508.201599121,-2990488.052368164,-3101123.094558716,-452933.1624507904,-2639514.207839966,-15346076.011657715,22204366.68395996,2521451.711654663,4876615.047454834,2098081.588745117,2602332.11517334,-878053.6651611328,-104935.50449609756,-1307227.0154953003,-11128082.275390625,10106599.807739258,1442350.0299453735,2580043.077468872,-2168905.258178711,-3713247.299194336,273703.36651802063,7494916.915893555,659419.7154045105,3065471.887588501,11583666.801452637,10222781.18133545,12403765.678405762,-4363487.243652344,10399221.420288086,10655428.886413574,12871728.897094727,26055767.059326172,17708242.416381836,1433663.4874343872,9656949.996948242,10596618.65234375
0.09,53837051.39160156,6570686.340332031,-8341622.352600098,6098926.067352295,-11441905.02166748,43146499.63378906,21458261.489868164,13518612.8616333,5384133.815765381,-6378063.678741455,-16114969.253540039,-18839113.235473633,-19281566.619873047,-18337238.311767578,39352828.97949219,27279151.916503906,12930762.29095459,8591499.328613281,-7132457.256317139,-6385586.261749268,-8206488.609313965,-18127071.380615234,-14145905.494689941,27097795.486450195,11694224.35760498,2645992.0406341553,4208946.704864502,-3903942.584991455,-6372745.990753174,-1871610.5222702026,-6931997.299194336,-19344793.31970215,27378255.84411621,6544791.221618652,9205857.276916504,4669742.584228516,2806525.945663452,-2178910.970687866,-1516288.8765335083,-4392391.681671143,-13010685.920715332,15508837.699890137,5252951.622009277,6351524.829864502,3259255.1708221436,-964874.5059967041,846678.0185699463,6001475.3341674805,-1371316.7905807495,1138779.2825698853,15372101.783752441,14378656.387329102,15440385.818481445,-1337797.6417541504,11508178.7109375,11925783.157348633,13111211.776733398,28507272.720336914,20683317.184448242,3944627.523422241,10769928.932189941,11792091.369628906
0.095,52702728.271484375,5883845.329284668,-8944650.650024414,2617732.286453247,-14248106.956481934,47191822.05200195,21334438.32397461,12964287.757873535,2121216.297149658,-8691307.067871094,-17282112.12158203,-19176012.03918457,-19495941.162109375,-18682266.235351562,46106246.94824219,32257457.733154297,14706520.080566406,8207906.723022461,-10504513.74053955,-9540775.299072266,-11142270.0881958,-18426038.74206543,-12953885.078430176,34391716.00341797,19057575.225830078,10839776.992797852,8022536.277770996,-4240943.908691406,-6507496.356964111,659444.6897506714,-4123244.7624206543,-16528947.830200195,38934276.58081055,15572515.487670898,18311084.747314453,9534863.471984863,2657047.748565674,400794.95310783386,1088817.1195983887,-262368.381023407,-7421990.394592285,27809671.40197754,15828864.097595215,16677062.98828125,12313845.63446045,6183346.748352051,5513614.654541016,11858019.828796387,3490073.6808776855,7560209.75112915,26062307.357788086,25204145.431518555,25272628.784179688,5928256.511688232,20166906.356811523,20684076.3092041,21579738.61694336,37978725.43334961,30141222.00012207,11875942.23022461,19497417.449951172,20503334.045410156
0.1,55826519.01245117,8330714.225769043,-4237514.019012451,3187103.271484375,-11864133.834838867,51911029.81567383,21728538.513183594,14747128.4866333,1574141.3831710815,-5125137.3291015625,-13208231.925964355,-14321699.142456055,-14671783.447265625,-13879379.272460938,52699932.09838867,36735645.29418945,15816060.066223145,8784934.997558594,-9224117.279052734,-8038393.020629883,-9420639.991760254,-13490723.609924316,-7728829.860687256,39419216.15600586,24055818.557739258,15554495.811462402,9966625.213623047,-4078603.2676696777,-4643947.601318359,4583086.013793945,2299056.2915802,-10834747.314453125,47319965.36254883,21990934.371948242,23640001.29699707,11442917.823791504,2290355.682373047,4287035.4652404785,5021486.282348633,6099469.184875488,-565961.0629081726,37420707.70263672,23705383.30078125,24335527.420043945,16936742.782592773,10818011.283874512,9954825.401306152,19157354.3548584,10046616.554260254,15125961.303710938,35123107.91015625,33797676.08642578,32932979.583740234,10285788.536071777,28076309.204101562,28577207.565307617,29712230.682373047,46356296.53930664,37840614.318847656,17419977.18811035,27468051.91040039,28330059.051513672
0.105,59592597.96142578,12008574.485778809,1612356.6627502441,5656080.722808838,-7631722.450256348,52239360.80932617,20952243.80493164,15747965.812683105,2668001.174926758,-1883636.9514465332,-8780071.258544922,-9468173.98071289,-9877226.829528809,-8983514.785766602,53388992.30957031,35952808.38012695,15348947.525024414,8581515.312194824,-5763094.902038574,-4651714.324951172,-5993930.339813232,-8611824.035644531,-3577455.759048462,39538982.39135742,22597434.997558594,13032449.722290039,8090218.544006348,-3537927.6275634766,-3814428.5678863525,6164047.2412109375,5956439.971923828,-7503735.065460205,47262935.638427734,21391119.0032959,21944925.30822754,9129607.200622559,2057432.8899383545,5805993.08013916,6505987.167358398,8808537.483215332,1767488.956451416,38614742.279052734,24082397.4609375,24755874.633789062,15233763.694763184,10253456.115722656,10740532.875061035,20917654.037475586,12357247.352600098,17346542.358398438,37147880.55419922,35370651.24511719,33950336.45629883,9298011.779785156,29140052.795410156,29600442.88635254,31462135.314941406,47989124.2980957,39218933.10546875,16964349.7467041,28601682.662963867,29299499.51171875
0.11,59622272.49145508,13714328.76586914,4730518.817901611,6025911.331176758,-5779360.294342041,48952545.166015625,18141725.540161133,13459369.659423828,2753930.5686950684,-3013038.396835327,-7579051.494598389,-7874643.802642822,-8248571.395874023,-7203690.528869629,50079998.01635742,31219873.428344727,13687870.979309082,6706508.159637451,-4041521.0723876953,-3255060.6727600098,-4658113.956451416,-7069317.817687988,-1781586.4086151123,37028430.9387207,17827062.606811523,7947731.494903564,4574690.341949463,-2722845.0775146484,-4593120.098114014,4991526.126861572,5992685.794830322,-6072184.5626831055,43634761.810302734,16920776.3671875,18058980.94177246,6761776.924133301,2166402.3399353027,4554386.138916016,5178195.476531982,8167606.353759766,1659391.6416168213,35382511.138916016,20884046.55456543,21783147.81188965,12570368.766784668,7961003.303527832,8859094.619750977,17139612.197875977,10391332.626342773,16055551.528930664,34659679.4128418,33232158.660888672,32488929.748535156,6912379.741668701,26383699.417114258,26845796.585083008,29658687.591552734,46217319.48852539,37805282.59277344,14049664.497375488,25938100.814819336,26603523.25439453
0.115,56440647.12524414,12899637.222290039,5945836.544036865,3931163.3110046387,-6258557.319641113,46543056.48803711,14858901.023864746,9602187.156677246,953308.7015151978,-5968624.114990234,-8224509.239196777,-7976418.972015381,-8271907.806396484,-7135415.554046631,48454151.15356445,27441814.422607422,11744275.093078613,4686122.417449951,-4827820.301055908,-4268874.168395996,-5684909.820556641,-7204598.426818848,-88196.00194692612,34972335.81542969,14993019.104003906,5998478.412628174,2435959.815979004,-2216626.8825531006,-5212205.410003662,3818213.701248169,6137875.080108643,-3319277.52494812,42926620.48339844,13834251.403808594,17062591.552734375,7784452.438354492,2517663.4788513184,3260645.1511383057,3892798.900604248,8233456.611633301,4026225.5668640137,34025032.04345703,19356876.373291016,20372871.39892578,13341096.878051758,7640461.9216918945,7688005.447387695,13652647.972106934,8380145.072937012,16477731.704711914,32456535.33935547,32123641.967773438,33312934.87548828,6919707.775115967,26024497.985839844,26506126.403808594,29919235.229492188,46684326.171875,38162139.892578125,12707264.90020752,25638811.111450195,26401283.264160156
0.12,53703899.38354492,11592453.956604004,7764784.336090088,1143109.679222107,-6620219.707489014,45118827.81982422,12205289.840698242,6827138.423919678,-2083559.513092041,-7580647.945404053,-8068518.63861084,-7193107.128143311,-7519177.9136657715,-6338393.211364746,48151069.64111328,25593358.993530273,9623513.221740723,3942604.0649414062,-6356403.827667236,-5756459.712982178,-7140652.656555176,-6359278.202056885,2443479.7763824463,32114387.51220703,13937239.646911621,6496313.095092773,1813032.5078964233,-2895622.0149993896,-4909999.370574951,4720832.347869873,7926399.707794189,414571.97070121765,43633579.25415039,12715191.841125488,17843833.923339844,10059702.87322998,2830254.7931671143,4098759.174346924,4867676.258087158,10305882.453918457,8407470.703125,34540592.193603516,19287008.28552246,20190784.454345703,15628327.369689941,8891144.752502441,8953500.747680664,14555296.897888184,8942442.893981934,19118717.193603516,31727270.126342773,32395328.521728516,35184974.670410156,8498934.745788574,28777378.08227539,29263635.635375977,32787166.595458984,48955913.54370117,39527214.05029297,12264329.91027832,28376049.041748047,29196311.950683594
0.125,52272415.16113281,11459845.542907715,10648191.452026367,-2180693.3879852295,-5645115.852355957,39243083.95385742,8433292.388916016,4308189.392089844,-5879154.682159424,-9083543.77746582,-6553827.76260376,-4757528.305053711,-5250190.258026123,-3947181.463241577,42480495.45288086,21727851.86767578,6867086.410522461,3510386.7053985596,-7420873.165130615,-6694435.119628906,-8098626.136779785,-3844604.4921875,5049824.237823486,24704633.712768555,10317983.627319336,5184708.595275879,915056.3478469849,-4759206.295013428,-4721905.23147583,6658581.733703613,9320086.479187012,2325013.6375427246,39717544.55566406,10495723.724365234,16469942.092895508,9509400.367736816,2870420.455932617,6206858.158111572,7120403.76663208,11845858.573913574,10371735.572814941,32683658.599853516,17589176.177978516,18348634.719848633,15587455.749511719,9373625.755310059,11180437.088012695,17725717.544555664,10637555.122375488,20170364.379882812,31103855.13305664,31951221.466064453,34484020.2331543,8931929.588317871,30256620.407104492,30720441.818237305,34281799.31640625,48598907.470703125,38692546.84448242,10076819.41986084,29815698.623657227,30559589.385986328
0.13,49172138.21411133,12450085.639953613,14145130.157470703,-6483803.272247314,-3020663.261413574,25878166.19873047,1560359.1203689575,-570049.6435165405,-9812306.40411377,-12207679.748535156,-3632235.527038574,-268604.7554016113,-895491.1231994629,610148.012638092,28531770.706176758,13814630.508422852,3791773.3192443848,1823419.213294983,-7813529.968261719,-7083855.628967285,-8557527.542114258,594371.9744682312,8796106.338500977,12663066.864013672,3000054.121017456,1453220.248222351,-656695.7831382751,-6433035.373687744,-5121197.700500488,7056889.057159424,9577149.391174316,2839892.864227295,30648807.525634766,5855150.6996154785,12581686.019897461,6611719.608306885,2617859.363555908,6983770.847320557,7892691.612243652,10829046.249389648,8953544.616699219,27175558.09020996,13855504.035949707,14663981.437683105,13620628.356933594,8391179.084777832,11552515.983581543,18097051.6204834,10531973.838806152,17866970.06225586,29767051.696777344,30006807.327270508,31081266.403198242,7648499.488830566,27854475.021362305,28241937.6373291,31799736.02294922,44464550.01831055,35352741.24145508,6075118.064880371,27427679.06188965,28087245.94116211
0.135,42323467.25463867,13432540.893554688,18211725.23498535,-10332385.063171387,1566398.5013961792,9308866.500854492,-6979075.4318237305,-7658493.518829346,-12381467.819213867,-14635122.299194336,1352629.6615600586,6602708.339691162,6030050.277709961,7620103.83605957,12041509.628295898,5213803.768157959,1409179.449081421,-612283.1106185913,-7036545.753479004,-6402167.797088623,-7861357.688903809,7293252.468109131,15658506.393432617,136212.7959728241,-4381193.6378479,-1659263.014793396,-1755239.2482757568,-6478781.223297119,-5140169.143676758,5212907.791137695,11009314.53704834,5251374.7215271,21956197.73864746,224653.58674526215,8828708.64868164,5385797.500610352,2281584.9781036377,5396353.721618652,6143496.513366699,8486115.455627441,7830711.364746094,20360622.40600586,9845513.343811035,10856953.620910645,12710913.65814209,6751847.267150879,9131720.542907715,14289844.512939453,7937311.172485352,14737827.30102539,27095413.208007812,26650306.701660156,27149713.51623535,5847719.192504883,23652616.500854492,23919286.727905273,26923910.14099121,39291381.8359375,31337429.04663086,2196249.485015869,23276578.903198242,24009120.94116211
0.14,33806503.29589844,12702994.346618652,21188776.01623535,-12386026.382446289,6165602.207183838,-3677088.737487793,-13812628.746032715,-14124512.672424316,-12876406.6696167,-13425132.751464844,6900532.245635986,13326839.447021484,12918604.850769043,14348864.555358887,216165.57240486145,-264153.54013442993,-176274.374127388,-2277327.299118042,-4950157.642364502,-4379195.690155029,-5650175.57144165,13881681.442260742,23379995.346069336,-9917610.168457031,-9293261.528015137,-3198241.710662842,-2249681.9496154785,-5117975.234985352,-4275253.772735596,3511403.3222198486,14767348.289489746,9746802.33001709,16797275.54321289,-5425952.911376953,5995222.091674805,6805049.896240234,2142345.190048218,3562368.392944336,4132357.597351074,7562799.93057251,9457857.131958008,13670644.760131836,5782305.717468262,6953696.250915527,13077108.383178711,5169100.761413574,6456912.040710449,10921029.090881348,5568321.704864502,14003885.269165039,22174236.297607422,21732629.776000977,23420413.970947266,4365880.012512207,21186992.645263672,21404554.36706543,23439210.891723633,34982051.849365234,27400314.331054688,-556553.6022186279,20815809.24987793,21731321.334838867
0.145,27583734.5123291,9014252.662658691,19928079.60510254,-13941597.938537598,6354217.529296875,-10330768.585205078,-17742698.669433594,-18171722.412109375,-12885110.855102539,-10247776.985168457,8713523.864746094,15012826.919555664,14650296.211242676,15849053.382873535,-5614191.53213501,-2985674.1428375244,-1923405.2896499634,-3281524.896621704,-3168532.8483581543,-2586841.821670532,-3604739.4275665283,15539290.428161621,25872793.197631836,-17611804.962158203,-13029971.1227417,-5315393.447875977,-3226473.569869995,-4102962.4938964844,-3543119.192123413,4620295.04776001,18112611.770629883,12179731.369018555,13223886.489868164,-11149770.736694336,2761206.3884735107,7593150.615692139,2321404.6955108643,4333584.308624268,4829359.531402588,9062305.450439453,11868689.53704834,7098278.045654297,876907.467842102,2094856.9774627686,12593126.29699707,4279396.057128906,7038034.439086914,13237437.24822998,6605420.112609863,15893000.602722168,16113092.422485352,16448822.021484375,20123697.28088379,3624982.3570251465,21765377.044677734,22109436.03515625,23723665.237426758,31536279.678344727,23874000.549316406,-2329179.7637939453,21340343.475341797,22356040.954589844
0.15,25644336.700439453,3909280.0617218018,14945790.29083252,-16007637.023925781,1037788.8679504395,-11638102.531433105,-19634437.561035156,-19760152.81677246,-13938607.215881348,-8798472.40447998,5108401.775360107,10537604.331970215,10028426.170349121,11168781.280517578,-7435729.98046875,-4585462.0933532715,-3740615.6063079834,-4599164.4859313965,-3492269.277572632,-2843143.4631347656,-3766273.021697998,11041995.04852295,21226902.00805664,-22001831.0546875,-16195852.279663086,-8284214.019775391,-4273019.313812256,-4714174.270629883,-3839031.457901001,7636393.5470581055,17905763.626098633,10052559.852600098,10522535.32409668,-15493511.199951172,-220007.92622566223,6283133.506774902,2678934.5741271973,7239949.703216553,7765751.361846924,10947275.161743164,11995101.928710938,2428764.1048431396,-3420049.1905212402,-2193317.651748657,11522525.787353516,4673430.919647217,10556480.407714844,19764598.846435547,10096044.540405273,17444160.46142578,12536767.00592041,13632744.789123535,19139015.197753906,4038935.661315918,23757863.998413086,24297142.028808594,26098398.208618164,29650648.11706543,22348304.748535156,-3121234.41696167,23297945.022583008,24267457.962036133
0.155,26938320.15991211,1706493.4968948364,12065834.999084473,-16109918.594360352,-3918601.9897460938,-8951292.991638184,-19390138.626098633,-18652387.619018555,-14674329.75769043,-9069970.13092041,626499.354839325,5438647.747039795,4786942.481994629,5997069.358825684,-5553213.119506836,-4120640.277862549,-3899967.908859253,-5524381.160736084,-5131395.33996582,-4376631.259918213,-5427046.775817871,5875078.201293945,15481606.483459473,-20238941.192626953,-16278484.344482422,-9176302.909851074,-3229839.324951172,-6311719.4175720215,-4576528.549194336,8519066.81060791,14684269.905090332,5997704.982757568,11746434.211730957,-16101814.270019531,-332553.59530448914,5838768.95904541,2939965.7249450684,8354101.181030273,8961832.046508789,9907076.835632324,9300987.243652344,2262270.450592041,-4483378.887176514,-3267198.085784912,12320844.650268555,5534591.6748046875,12226209.64050293,22873695.373535156,10763869.285583496,15007016.1819458,13116832.733154297,14126347.541809082,21223159.790039062,4843784.809112549,24036230.087280273,24600833.892822266,25582063.674926758,30068048.47717285,23339841.842651367,-3249688.6253356934,23607038.497924805,24504283.905029297
0.16,29216882.705688477,4934453.010559082,15405791.282653809,-11983153.343200684,-2264098.882675171,-3989805.9368133545,-16131620.407104492,-14796371.459960938,-12915921.211242676,-8571078.300476074,649675.7864952087,5490457.057952881,4911448.955535889,6070129.871368408,-351949.5129585266,-761593.9974784851,-1765534.1625213623,-4550759.792327881,-5711568.832397461,-4886588.573455811,-6085824.012756348,5942155.361175537,15237181.663513184,-13121116.638183594,-12494730.949401855,-7100585.9375,136192.4409866333,-7315284.252166748,-4886695.861816406,5203570.84274292,11413678.169250488,3617843.3895111084,17360849.380493164,-13701275.825500488,2231539.9646759033,8231387.138366699,2916259.288787842,5270365.7150268555,5971485.614776611,4938247.6806640625,5469152.927398682,5414633.750915527,-2825288.0573272705,-1721969.2468643188,14540134.42993164,4720527.648925781,8695077.896118164,18106018.06640625,5355204.5822143555,7873787.879943848,14667800.903320312,14942610.740661621,22964443.20678711,3986568.9277648926,20703983.306884766,21071090.698242188,19244644.165039062,30796247.482299805,24035760.8795166,-4040406.2271118164,20318849.563598633,21212093.353271484
0.165,31277446.746826172,10706582.069396973,21369623.1842041,-6779466.152191162,3922411.9186401367,111352.06371545792,-11351844.787597656,-10539193.153381348,-10058234.214782715,-7954810.619354248,4087050.437927246,9379787.44506836,9031164.169311523,9977995.872497559,4324916.839599609,2384627.5806427,309667.4084663391,-2662506.8187713623,-5173713.207244873,-4395151.138305664,-5578533.172607422,10015997.886657715,19392719.268798828,-7144393.9208984375,-9128273.010253906,-5787918.0908203125,2536427.7362823486,-7314792.633056641,-5151404.857635498,715224.5044708252,9662716.86553955,2935657.739639282,21881179.809570312,-12353734.016418457,3437118.2918548584,10553560.256958008,2638795.3758239746,717051.1484146118,1467484.712600708,-851958.9304924011,2528291.940689087,7308707.237243652,-2083691.120147705,-1208379.7454833984,14386169.43359375,1590978.980064392,2977111.339569092,10327490.80657959,-2134898.900985718,255857.13982582092,13455095.291137695,13387523.651123047,20636611.938476562,801143.0501937866,15535255.432128906,15714771.270751953,10944628.715515137,28960666.65649414,21728277.2064209,-6304882.049560547,15147979.736328125,16068843.841552734
0.17,33579547.88208008,14077502.250671387,23957405.09033203,-5662989.616394043,7085806.846618652,1307034.4924926758,-8633152.961730957,-9315386.772155762,-10167247.772216797,-10316958.4274292,5446205.139160156,11354889.869689941,11145416.259765625,11975162.506103516,4616759.777069092,1532760.8585357666,-374695.71828842163,-2893062.114715576,-6144305.229187012,-5444511.890411377,-6563872.337341309,12161865.234375,21909023.28491211,-7454416.275024414,-10279009.819030762,-8242147.445678711,1318883.1806182861,-7487074.851989746,-6264609.813690186,-691569.3879127502,8878803.253173828,2084380.1498413086,20851011.276245117,-14355237.96081543,826381.6833496094,9844611.167907715,2320877.3136138916,-912591.1593437195,-222420.5732345581,-3222047.805786133,1829740.7627105713,5899725.437164307,-4104222.7745056152,-3448803.663253784,10698928.833007812,-1606533.6465835571,629264.5931243896,7497777.938842773,-4790323.734283447,-2027674.1981506348,10585058.212280273,11059646.606445312,16084051.132202148,-2483153.1047821045,12602375.030517578,12820475.578308105,7775761.127471924,25542860.03112793,18249740.600585938,-8888309.478759766,12202966.690063477,13145129.203796387
0.175,36568710.32714844,13907435.417175293,23277254.104614258,-8296219.825744629,4905726.909637451,772156.298160553,-9481922.149658203,-11633474.349975586,-14259234.428405762,-15039603.233337402,3109410.047531128,9570655.822753906,9284405.708312988,10263213.157653809,1623644.471168518,-2260195.732116699,-3260301.5899658203,-5984691.143035889,-9552443.504333496,-8769466.400146484,-10009909.629821777,10281359.672546387,20496713.638305664,-12077990.531921387,-14272999.76348877,-12059605.598449707,-1688762.7840042114,-8779228.210449219,-7853244.304656982,849185.4667663574,8394515.037536621,859611.5112304688,16910728.454589844,-17677389.14489746,-3226587.2955322266,8229470.252990723,2181307.792663574,558132.9464912415,1101735.9495162964,-1734264.9698257446,3126609.3254089355,3443017.2443389893,-7084474.086761475,-6508988.380432129,7235695.838928223,-2721209.2876434326,2186366.558074951,10318480.491638184,-1775835.8716964722,1832238.793373108,9623895.645141602,10799886.703491211,14311909.675598145,-3623927.593231201,13291597.366333008,13700285.911560059,11035161.018371582,24212747.57385254,17289566.040039062,-10294885.635375977,12949565.887451172,13926210.403442383
0.18,38399444.580078125,12332267.761230469,23455858.23059082,-9947150.230407715,2358923.6736297607,-179085.06095409393,-12088977.813720703,-14895284.652709961,-18579292.29736328,-17393236.16027832,819563.2100105286,7342714.309692383,6881671.905517578,8117527.008056641,-1374463.438987732,-5056139.945983887,-5560957.908630371,-9095083.236694336,-12442323.684692383,-11429031.372070312,-12897145.27130127,7739841.938018799,17924926.7578125,-16599933.624267578,-17227001.190185547,-13267948.150634766,-2912318.229675293,-10430424.690246582,-8377134.323120117,1778599.8582839966,8077670.097351074,-182623.78871440887,14488709.449768066,-20042612.075805664,-5629206.657409668,9216845.512390137,2255970.239639282,1600172.8773117065,2040998.935699463,-134662.98580169678,4151857.852935791,1356098.1750488281,-9382384.300231934,-8698297.500610352,6924692.153930664,-2572968.4829711914,3273049.3545532227,12646825.790405273,935934.3647956848,6100677.013397217,10253368.377685547,11446601.867675781,15698387.145996094,-3384876.012802124,14341426.849365234,14870932.579040527,14245331.764221191,25033363.342285156,18214439.392089844,-10827242.851257324,14122491.836547852,15093324.661254883
0.185,35476383.209228516,9256709.098815918,23811809.539794922,-9950683.59375,2326499.4621276855,-3529869.0795898438,-15032722.473144531,-17644596.099853516,-19955905.91430664,-15643521.308898926,610433.8765144348,6407295.703887939,5840883.731842041,7192168.712615967,-4941396.713256836,-6523060.321807861,-6355769.634246826,-9975032.806396484,-12039182.662963867,-10934662.818908691,-12391537.6663208,6598052.978515625,15666584.014892578,-21068635.940551758,-19553136.825561523,-12400171.279907227,-2206461.4295959473,-10934464.454650879,-7118774.890899658,972262.2036933899,7356737.6136779785,-2283005.475997925,12300697.326660156,-22560829.162597656,-6960627.555847168,11586283.683776855,2378976.583480835,897827.2080421448,1360657.5727462769,-1353351.11618042,2586511.6119384766,-2407038.927078247,-11923167.22869873,-10955292.701721191,7628584.384918213,-2920957.565307617,2076843.7385559082,11512270.9274292,-601594.090461731,5276249.885559082,8550820.350646973,9380469.32220459,15430740.356445312,-3636291.265487671,12607058.52508545,13128651.61895752,11971147.537231445,23739229.202270508,16773319.244384766,-11413625.717163086,12476068.496704102,13273699.760437012
0.19,27040357.58972168,2092326.8795013428,19122146.606445312,-12889514.923095703,737548.1128692627,-11055707.931518555,-18953504.56237793,-20883047.103881836,-19900775.909423828,-13871741.29486084,-533329.0696144104,4131448.745727539,3555468.797683716,4861067.295074463,-11402547.836303711,-9456870.079040527,-7164175.510406494,-9901885.032653809,-9929975.509643555,-9022441.864013672,-10169596.672058105,4420641.4222717285,11763339.99633789,-27366537.09411621,-23857442.85583496,-12775670.051574707,-2275653.36227417,-10024832.725524902,-5258791.923522949,1087936.282157898,5593763.35144043,-6789933.204650879,7086966.991424561,-26576496.124267578,-8898765.563964844,11822515.487670898,2392933.6071014404,1072069.8833465576,1599367.4993515015,-4120047.5692749023,-1131711.3637924194,-8244704.246520996,-14922347.068786621,-13590325.355529785,6605243.682861328,-3016827.5833129883,2009949.4457244873,11032118.797302246,-3227640.390396118,617446.3629722595,3881759.1667175293,4916913.986206055,11624442.100524902,-3766387.701034546,9897982.597351074,10404311.180114746,6952876.091003418,19038900.37536621,12347874.641418457,-11223792.07611084,9740146.63696289,10235891.342163086
0.195,18241130.828857422,-7815562.2482299805,9560621.26159668,-19578035.354614258,-5422588.82522583,-18624046.325683594,-23138731.002807617,-24304962.158203125,-21004610.061645508,-15464922.904968262,-4708864.688873291,-839844.5844650269,-1398564.9347305298,-142131.4924955368,-17852748.87084961,-13154146.194458008,-8381285.667419434,-10737445.831298828,-9609572.410583496,-8939348.220825195,-9874133.110046387,-289014.7268772125,6004597.6638793945,-32570686.34033203,-28154687.881469727,-14416162.490844727,-3601968.288421631,-8820059.776306152,-4631962.776184082,3342933.8932037354,3563795.0897216797,-11703816.413879395,1976337.194442749,-29571035.385131836,-10000383.377075195,10777173.042297363,2340649.366378784,3469691.038131714,3973131.8950653076,-5829786.30065918,-4327288.1507873535,-11409259.796142578,-15551602.363586426,-14002304.077148438,5477074.62310791,-1115928.292274475,5149351.119995117,14350695.610046387,-2821787.5957489014,-2686876.2969970703,983480.7515144348,2880367.5174713135,8724534.98840332,-1982622.8618621826,9947570.80078125,10505882.263183594,4975090.026855469,16013483.047485352,9805772.78137207,-8911315.91796875,9688131.332397461,10031592.36907959
0.2,15953436.851501465,-13317654.609680176,3352978.7063598633,-23121887.20703125,-10806061.744689941,-19208824.157714844,-23933984.756469727,-24787908.55407715,-21828079.223632812,-17979883.193969727,-8168995.8572387695,-4578577.041625977,-5119290.828704834,-3834859.1327667236,-17619817.73376465,-12989543.914794922,-7961781.024932861,-11452009.201049805,-11205931.663513184,-10521786.6897583,-11615864.753723145,-3854132.4138641357,2505911.111831665,-31331317.901611328,-27214574.813842773,-14222195.625305176,-3574663.4006500244,-8186583.518981934,-5812298.29788208,4642271.995544434,2984470.1290130615,-12979411.125183105,3738461.0176086426,-28038570.404052734,-7949650.764465332,12361248.970031738,2353314.8765563965,4959371.566772461,5336853.02734375,-6599265.098571777,-5464466.571807861,-7802291.393280029,-12012984.275817871,-10601231.575012207,6644111.156463623,1255540.132522583,7545421.123504639,17061923.98071289,-1343554.139137268,-3072196.0067749023,3224303.2455444336,5656871.795654297,10145336.151123047,373476.5648841858,11951221.466064453,12582201.00402832,5938837.051391602,18850021.362304688,12168599.128723145,-5954897.403717041,11644806.861877441,12167241.096496582
0.205,21473741.53137207,-9239888.191223145,6636768.817901611,-17778327.94189453,-7985230.445861816,-12160614.967346191,-19261116.02783203,-20631999.969482422,-18763109.20715332,-17361898.42224121,-6058726.3107299805,-2712122.2019195557,-3211507.797241211,-1875463.2472991943,-9817339.897155762,-7945977.687835693,-4738901.615142822,-9980337.142944336,-11577549.934387207,-10733470.916748047,-12067647.933959961,-1976828.2175064087,4636821.269989014,-24322305.67932129,-20848922.729492188,-11736080.169677734,-1156770.8253860474,-7920121.669769287,-7716598.5107421875,2148673.0575561523,4306154.727935791,-9357707.023620605,11973291.397094727,-23299606.323242188,-4504555.225372314,16204208.374023438,2376365.900039673,2464576.244354248,2717864.2749786377,-8137689.590454102,-5294970.0355529785,-897872.2095489502,-7788644.790649414,-6775639.057159424,7566416.7404174805,-40618.46807599068,4668627.2621154785,13185327.529907227,-3512924.909591675,-3584737.0624542236,7267828.464508057,9182194.709777832,12052795.41015625,-764745.6526756287,11204980.850219727,11902046.203613281,5044658.660888672,23716609.954833984,15381474.494934082,-6114249.706268311,10990512.84790039,11831851.0055542
0.21,29671361.923217773,716395.3185081482,15791065.216064453,-7419453.6209106445,1618734.2405319214,-4650304.317474365,-12623421.669006348,-14784456.253051758,-12141009.330749512,-13951725.006103516,342967.83804893494,3274157.762527466,2826285.6006622314,4182880.401611328,-1759244.7996139526,-3234176.1589050293,-918185.2340698242,-7144855.976104736,-9405155.181884766,-8569738.388061523,-9806213.37890625,3938413.8584136963,10349445.343017578,-18443334.579467773,-15198383.331298828,-10132755.279541016,1010843.1577682495,-7704578.399658203,-8871543.884277344,-1905748.2481002808,6189303.398132324,-3678447.484970093,18078353.881835938,-20533300.399780273,-3891142.8451538086,17616640.090942383,2197970.151901245,-1852099.061012268,-1609068.6321258545,-9914325.714111328,-4544535.160064697,1914434.790611267,-7993363.380432129,-7246231.0791015625,4123429.298400879,-5898242.473602295,-1288238.4061813354,4933532.238006592,-8714944.839477539,-5677523.612976074,7630036.8309021,8379225.730895996,9099262.237548828,-6440183.162689209,6487587.451934814,7283780.574798584,1485630.6314468384,23645606.994628906,13918501.853942871,-10588638.305664062,6428995.609283447,7416497.707366943
0.215,35672130.5847168,8265098.571777344,23346035.00366211,-548315.2270317078,8863132.47680664,-2013375.0438690186,-9229435.920715332,-11241798.400878906,-6907791.614532471,-10866114.616394043,5077603.340148926,7949060.440063477,7509676.456451416,8854167.938232422,819753.5872459412,-2521885.1566314697,641167.7002906799,-5859128.475189209,-7179728.5079956055,-6529313.564300537,-7434467.315673828,8525334.358215332,15125433.921813965,-17501308.44116211,-14029653.549194336,-10588519.096374512,787612.3189926147,-7880726.337432861,-8740142.822265625,-2965395.212173462,7538224.220275879,862151.3843536377,17138158.798217773,-21690298.080444336,-6266695.976257324,15756676.67388916,1806009.292602539,-3192725.896835327,-2784087.1810913086,-9391363.143920898,-2534884.9296569824,-735277.533531189,-12084328.651428223,-11172816.276550293,-1386471.6291427612,-11493413.925170898,-3868210.0772857666,1081401.7057418823,-11102803.230285645,-6227748.394012451,4646827.697753906,4462084.770202637,3682922.601699829,-12022643.089294434,2780047.1782684326,3680191.7552948,393403.0830860138,18862413.40637207,9266048.431396484,-15549182.891845703,2746724.6055603027,3700195.789337158
0.22,39366882.32421875,9980530.738830566,27101249.69482422,247986.0782623291,8489208.221435547,-1273342.9670333862,-9345141.410827637,-10161225.318908691,-6613509.178161621,-8946037.292480469,5161953.449249268,8739172.93548584,8255412.1017456055,9558606.147766113,1005119.3237304688,-2427192.211151123,163131.7287683487,-6902029.991149902,-7325737.953186035,-6739619.255065918,-7527565.479278564,9230646.133422852,17309391.021728516,-17892749.786376953,-13920656.204223633,-10166806.2210083,-128071.8445777893,-8712490.08178711,-7867693.4242248535,-318471.61054611206,8689126.014709473,3528466.4630889893,14568345.069885254,-23164924.62158203,-7177655.6968688965,15732550.621032715,1524812.5791549683,-642960.4291915894,80126.0694861412,-6136946.201324463,857105.4935455322,-2669005.3939819336,-14314043.998718262,-12937755.584716797,-1759159.5649719238,-11638848.304748535,-951155.7817459106,5688604.354858398,-7729434.013366699,-2531673.6698150635,4087594.0322875977,3498717.0696258545,3662009.9544525146,-12329660.415649414,4699291.706085205,5576407.909393311,5081805.229187012,16839704.513549805,8375514.984130859,-16086494.445800781,4450535.774230957,5428030.967712402
0.225,42277988.43383789,9132846.83227539,29285978.317260742,-966272.9501724243,4517018.3181762695,2658252.477645874,-8993490.219116211,-9285623.550415039,-9407551.765441895,-7112586.02142334,3228700.876235962,7749918.9376831055,7230178.356170654,8474658.966064453,4447338.104248047,1261903.0475616455,16683.01783502102,-8048254.013061523,-8808697.700500488,-8045988.082885742,-9025836.944580078,8201125.144958496,18126279.830932617,-15414937.019348145,-10874523.162841797,-7279291.62979126,715881.8244934082,-9620567.321777344,-7091965.198516846,2447238.9221191406,10055700.302124023,4831745.624542236,17313154.220581055,-21719535.82763672,-4532218.933105469,20108879.08935547,1626625.7762908936,2112841.844558716,3122530.460357666,-3094713.9263153076,3750161.1709594727,662328.7796974182,-11892275.8102417,-10162181.854248047,4637847.423553467,-7029482.841491699,3135986.328125,12880219.459533691,-2485079.288482666,2754673.719406128,8913044.929504395,8147515.296936035,10921839.714050293,-7869079.113006592,10152661.323547363,10830465.316772461,11810793.87664795,21484390.258789062,13856702.80456543,-11786584.854125977,9603107.452392578,10698575.973510742
0.23,43653415.67993164,9528504.371643066,30539978.02734375,-981055.1404953003,3565762.996673584,8323447.227478027,-6383861.064910889,-8276846.885681152,-10958942.413330078,-5739497.184753418,2888266.3249969482,7708715.438842773,7212783.8134765625,8429471.969604492,9924873.352050781,5923946.857452393,1167047.7390289307,-7406301.021575928,-8984808.921813965,-8016551.971435547,-9162634.84954834,8197484.016418457,18455465.31677246,-11817270.278930664,-7151543.617248535,-5265837.669372559,2444093.704223633,-9786125.183105469,-6826764.5835876465,2631263.494491577,10985085.487365723,4849588.394165039,23367956.161499023,-19364734.649658203,-2006928.4439086914,23955554.962158203,1945389.6284103394,2223810.4343414307,3256958.9614868164,-2879054.307937622,4280032.634735107,5778696.537017822,-8720479.965209961,-7010846.138000488,10531203.269958496,-3110730.6480407715,4016292.095184326,14392610.549926758,-760007.0834159851,4442143.91708374,14824646.949768066,13881130.21850586,17630954.74243164,-3941392.660140991,13115462.303161621,13567821.502685547,14544668.197631836,27101202.0111084,19735324.85961914,-7002463.817596436,12489301.681518555,13543233.871459961
0.235,42222858.42895508,11137728.691101074,29706310.272216797,-660136.2228393555,6799455.165863037,10013295.17364502,-4192038.059234619,-8557054.51965332,-9590339.660644531,-5890914.9169921875,4539102.077484131,8924293.518066406,8479658.126831055,9718534.469604492,11320165.634155273,5857146.263122559,2545130.2528381348,-5549036.502838135,-7228453.159332275,-6202653.884887695,-7316821.098327637,9476379.39453125,18245443.34411621,-11491736.41204834,-7376245.498657227,-7411978.721618652,2542850.0175476074,-9123318.672180176,-6999527.931213379,1227168.083190918,10861175.537109375,3743795.156478882,25211124.420166016,-19954677.58178711,-3290609.121322632,22496530.532836914,2093711.6146087646,758234.5008850098,1545416.235923767,-4759214.401245117,2886610.0311279297,6344385.147094727,-9224122.047424316,-7806730.270385742,9521775.245666504,-3527636.0511779785,2104306.697845459,9216140.747070312,-3209000.825881958,1129184.603691101,15619386.672973633,14590690.612792969,16067037.582397461,-4267405.986785889,10996758.460998535,11373676.300048828,11976408.004760742,25823642.73071289,18719579.696655273,-5858117.10357666,10623424.530029297,11365713.119506836
0.24,39515316.009521484,11824791.90826416,27755495.071411133,-1368663.3110046387,10274346.351623535,6590754.508972168,-5091548.442840576,-10021368.026733398,-7370553.493499756,-6565571.7849731445,6289006.71005249,10213361.740112305,9770759.582519531,11009227.752685547,7068888.187408447,1317178.1301498413,3256828.3081054688,-4115487.575531006,-5239748.954772949,-4234412.670135498,-5320727.348327637,10766892.433166504,17919614.791870117,-14828704.833984375,-10975144.386291504,-11344950.675964355,1012881.5174102783,-8192074.775695801,-7363700.866699219,409269.45209503174,10335952.758789062,2364028.9306640625,20922330.856323242,-23143575.66833496,-6264675.617218018,19229692.459106445,1985717.7734375,-574.5542584918439,588668.8232421875,-6295216.5603637695,1315406.7993164062,1908051.1331558228,-11767285.346984863,-10605924.606323242,4656589.508056641,-6497406.959533691,327751.93452835083,3514793.872833252,-6355520.248413086,-3578392.505645752,11162556.648254395,10227451.32446289,8585103.034973145,-7240057.468414307,6802775.3829956055,7233830.92880249,7681445.598602295,18153217.315673828,11466553.688049316,-7919600.009918213,6740688.323974609,7181540.489196777
0.245,38144157.40966797,10542583.465576172,27232929.229736328,-2754337.5492095947,10558857.917785645,2785404.682159424,-8104575.157165527,-11072768.211364746,-7087395.191192627,-6184861.183166504,6624793.529510498,10493714.332580566,9988447.189331055,11135662.078857422,2250041.0079956055,-1826257.9441070557,3405470.609664917,-3935475.3494262695,-4599428.653717041,-3646430.253982544,-4812528.133392334,10993390.083312988,17829788.208007812,-18263458.251953125,-13234395.027160645,-12069411.277770996,40511.06795668602,-7484460.353851318,-7719566.345214844,659229.3977737427,10346732.139587402,1234588.623046875,16365438.461303711,-24858516.693115234,-6208454.608917236,20963417.053222656,1885359.4064712524,291620.3737258911,1006838.4408950806,-6491403.102874756,285260.23030281067,-1834515.09475708,-11425921.440124512,-10294449.806213379,3345187.187194824,-7736320.972442627,67588.77635002136,2661370.7542419434,-7306612.014770508,-5614974.021911621,7686208.724975586,6837532.520294189,4401358.604431152,-8591882.705688477,4842519.760131836,5303784.370422363,5448032.855987549,12411209.106445312,5984250.545501709,-9156039.237976074,4791944.0269470215,5260080.814361572
0.25,38093051.91040039,7965138.912200928,28389734.268188477,-4484555.721282959,7829850.196838379,1968623.0421066284,-10685163.497924805,-11582022.666931152,-9376225.471496582,-5674537.181854248,5174776.077270508,9048261.642456055,8483223.915100098,9508545.875549316,1188388.705253601,-658280.3726196289,2857822.1797943115,-4952390.670776367,-5422279.834747314,-4703481.197357178,-5807564.735412598,9526892.66204834,16929471.969604492,-19279029.846191406,-12354781.150817871,-8754431.72454834,474953.91964912415,-7266699.79095459,-7935098.171234131,1286342.3824310303,10507362.365722656,-172679.78191375732,16775066.375732422,-23097555.16052246,-2658964.6339416504,27598592.75817871,1959140.658378601,752153.5754203796,1773145.079612732,-6141533.851623535,-634244.5015907288,-568375.5278587341,-7328434.467315674,-6091388.22555542,7122844.219207764,-5431447.505950928,964029.3121337891,6189093.589782715,-6009943.962097168,-4338401.317596436,10354321.479797363,9265550.61340332,8333453.178405762,-6355497.83706665,6567809.581756592,6976332.664489746,6517890.930175781,14463305.473327637,8290688.514709473,-6677673.33984375,6206790.924072266,6955507.278442383
0.255,37815891.26586914,5768827.438354492,29606287.002563477,-6592546.9398498535,4629329.204559326,2488214.4927978516,-11950190.544128418,-12704776.763916016,-12490475.65460205,-6589308.261871338,2513335.2279663086,6054726.123809814,5483229.637145996,6475155.353546143,2536026.4778137207,1886537.6710891724,1186087.727546692,-6582115.650177002,-6959624.767303467,-6680611.610412598,-7422142.505645752,6578164.100646973,14257208.824157715,-18444398.880004883,-10862186.431884766,-4771224.021911621,1373992.4430847168,-7757085.800170898,-7963922.023773193,2051198.959350586,9788257.598876953,-2249020.0996398926,20783470.153808594,-20363264.083862305,618302.7625083923,32771022.79663086,2059542.179107666,1255390.7632827759,2400457.1437835693,-5932707.786560059,-1445579.4095993042,3858955.8601379395,-3536247.2534179688,-2277487.03956604,11266653.060913086,-1598811.5072250366,2670614.9578094482,10458389.282226562,-3922125.816345215,-1780238.7475967407,17338712.692260742,15591414.451599121,16247226.71508789,-2487512.1116638184,10508062.362670898,10855781.555175781,10028272.62878418,21306354.522705078,15886154.174804688,-1886917.3526763916,9839456.558227539,10793751.71661377
0.26,37997402.19116211,5948444.843292236,30908538.818359375,-7391455.65032959,3433885.8127593994,2236868.6199188232,-12040460.586547852,-13619075.775146484,-13962278.366088867,-7341787.815093994,251898.854970932,3352993.965148926,2791990.7569885254,3842531.91947937,3118117.8092956543,3055577.7549743652,-723695.2781677246,-7541459.560394287,-8174539.566040039,-8200414.657592773,-8575208.66394043,3927356.719970703,11347294.807434082,-17203271.865844727,-10388578.414916992,-2187722.2061157227,2475980.281829834,-8771122.932434082,-7852701.187133789,3001084.804534912,8528144.836425781,-4134057.9986572266,23843421.936035156,-19712820.053100586,1511331.6774368286,33335193.634033203,2019418.9548492432,2135121.3455200195,3164296.865463257,-5671145.439147949,-1534724.9507904053,6756143.569946289,-2979629.5166015625,-1836654.3054580688,12651031.494140625,620349.2283821106,4806754.112243652,13370615.95916748,-2367607.593536377,59328.47037911415,22316196.44165039,19857105.255126953,21301055.908203125,-268635.48159599304,14202138.900756836,14529870.03326416,13821683.883666992,25681844.71130371,21316297.53112793,1284200.668334961,13499223.709106445,14462067.604064941
0.265,40379032.135009766,9091892.24243164,33295436.85913086,-4873661.994934082,4883558.27331543,2367618.5607910156,-10477165.222167969,-11916592.597961426,-12765579.223632812,-5554924.964904785,89535.39282083511,3106405.49659729,2534352.3025512695,3614719.3908691406,2811314.582824707,3824093.5802459717,-1014037.013053894,-6724568.843841553,-7969851.016998291,-7855797.290802002,-8234436.03515625,3707991.361618042,10885482.788085938,-16106510.162353516,-9654512.405395508,-390882.58147239685,4217121.601104736,-9456474.304199219,-7706592.559814453,3629000.425338745,8356505.393981934,-4593935.012817383,23945289.611816406,-20799713.134765625,1525061.1305236816,32210311.889648438,1887531.3997268677,2899152.7557373047,3851874.589920044,-5165247.440338135,-801828.5036087036,6331885.33782959,-4154230.1177978516,-3091743.4692382812,12707764.625549316,40991.51864647865,6166193.48526001,14830333.709716797,-2109441.9956207275,402298.86770248413,21630308.151245117,19058691.024780273,21244562.14904785,-956538.6176109314,15645316.123962402,15966649.055480957,15310622.215270996,24481687.545776367,20582628.25012207,777547.4190711975,15126867.294311523,16066911.697387695
0.27,43396423.33984375,13085747.718811035,35408061.98120117,-1015475.3923416138,7464101.791381836,4081211.566925049,-7292618.274688721,-7954660.892486572,-10289442.06237793,-3200704.81300354,2017242.9084777832,5303363.32321167,4763255.596160889,5774773.597717285,3275644.302368164,5017798.42376709,467121.80972099304,-4828078.269958496,-6054733.2763671875,-5575909.13772583,-6251126.289367676,5976372.241973877,13221856.117248535,-14969461.441040039,-8142410.2783203125,421947.2110271454,5571521.282196045,-9055763.244628906,-7638073.444366455,3388521.432876587,10047907.829284668,-3153919.219970703,22403945.922851562,-21075294.494628906,2038740.3964996338,31981039.04724121,1748770.3561782837,2730410.099029541,3783353.805541992,-4610283.374786377,396334.61833000183,4915641.307830811,-4365524.2919921875,-3220740.0798797607,13010979.652404785,-1946819.4246292114,5754128.456115723,14536798.477172852,-3145084.6195220947,-387030.9591293335,17793798.446655273,16014080.047607422,18840747.833251953,-2972538.709640503,14487501.14440918,14840597.152709961,13700979.232788086,20999752.044677734,16672807.693481445,-1608668.6849594116,14157137.870788574,15145283.699035645
0.275,43219749.450683594,14907555.58013916,35148273.46801758,-1009806.3945770264,9193182.945251465,5362503.0517578125,-4614690.30380249,-5600793.361663818,-9065817.832946777,-4313884.258270264,4375056.743621826,7944614.410400391,7562959.19418335,8477239.608764648,4502236.843109131,4903664.588928223,1510353.5652160645,-3967465.400695801,-3686634.302139282,-3138352.870941162,-4011290.5502319336,8784626.007080078,16320068.359375,-13273243.90411377,-7543678.760528564,-1014653.3250808716,4859700.679779053,-7910017.967224121,-7672217.36907959,2774369.716644287,12724893.569946289,175832.71861076355,21398836.135864258,-19467489.24255371,2302476.167678833,31755229.949951172,1572980.0462722778,2008836.269378662,3142218.1129455566,-3878925.8003234863,2371997.833251953,5513607.501983643,-3228924.27444458,-1967262.3872756958,13026838.302612305,-3020730.2570343018,4449004.650115967,12299901.008605957,-4413228.988647461,-898784.2202186584,16150110.244750977,15501914.024353027,17792097.091674805,-3812125.6828308105,12735132.217407227,13239207.26776123,11394061.088562012,20132942.19970703,15292910.5758667,-2616687.774658203,12494338.989257812,13475316.047668457
0.28,40455085.75439453,14596882.820129395,34856601.71508789,-6068460.464477539,10095462.799072266,4479870.796203613,-4528021.812438965,-6803182.601928711,-10164367.67578125,-7343003.273010254,6311343.669891357,10159255.027770996,9971916.198730469,10867888.450622559,5858870.983123779,3534450.7694244385,750327.6467323303,-4985440.254211426,-2536294.937133789,-2332615.852355957,-3136434.0782165527,11176914.21508789,19347064.971923828,-10227265.357971191,-7820543.28918457,-2886829.8530578613,3035223.960876465,-7077051.162719727,-7530669.689178467,3120739.459991455,15706904.411315918,5507967.948913574,22790939.331054688,-17123924.255371094,2194050.7888793945,31780374.52697754,1410686.96975708,2250215.768814087,3322681.188583374,-2146001.3389587402,6091114.044189453,8815753.936767578,-1488599.419593811,-257766.0083770752,13336422.92022705,-1764883.1605911255,4484766.483306885,10444440.841674805,-4209453.582763672,890893.9361572266,19484506.607055664,19287702.560424805,20169149.39880371,-2224231.004714966,13545832.633972168,14250714.302062988,11941121.101379395,23648319.244384766,19013505.935668945,-839133.5606575012,13304872.512817383,14138469.696044922
0.285,41288955.68847656,15674754.14276123,39989921.56982422,-10336825.370788574,12258732.795715332,4215731.620788574,-5663371.0861206055,-8184328.079223633,-11924063.682556152,-5512037.754058838,9069858.55102539,13502132.415771484,13315523.147583008,14287308.692932129,8849514.961242676,5123249.053955078,73394.71578598022,-6169261.455535889,-2500732.183456421,-2611624.002456665,-3265892.98248291,14557098.388671875,23869581.22253418,-5565138.816833496,-5703400.135040283,-542277.5745391846,3132697.820663452,-6884997.367858887,-6621021.270751953,5235687.255859375,19807229.99572754,12463756.561279297,27604406.356811523,-15111079.216003418,3561026.3347625732,35120765.686035156,1487937.9272460938,4381412.506103516,5463200.569152832,1320906.639099121,11811642.64678955,13389564.514160156,1046700.0007629395,2169862.5087738037,16385934.829711914,1637536.883354187,7076247.215270996,12716577.529907227,-1411753.1776428223,6051474.094390869,26138874.053955078,25408561.70654297,25995626.44958496,1286741.2567138672,18328901.290893555,19029581.06994629,16486589.431762695,29883852.005004883,25960359.573364258,2839899.3015289307,17982408.52355957,18689983.367919922
0.29,48623104.095458984,20304130.55419922,50375259.39941406,-8194072.723388672,16733842.849731445,7831576.824188232,-4604375.36239624,-5863852.024078369,-11697575.569152832,2933336.4963531494,13672475.814819336,18938972.47314453,18488464.35546875,19557764.053344727,14732300.758361816,11602387.428283691,1982676.1484146118,-5578489.303588867,-1695237.7557754517,-1697864.7708892822,-2328039.8845672607,19847560.88256836,30224626.541137695,-812029.3617248535,-253728.0023097992,6393102.169036865,5453480.7205200195,-6527726.650238037,-4692879.676818848,8371104.2404174805,25317272.186279297,19002332.68737793,34011604.30908203,-13484986.305236816,6539535.999298096,41435909.271240234,1860655.426979065,7525589.466094971,8839543.342590332,5793910.503387451,17960676.193237305,17072349.548339844,3907370.5673217773,5041528.701782227,21504339.21813965,5483750.343322754,10912760.734558105,18991979.598999023,3226493.8354492188,12743009.567260742,31720718.383789062,30376018.524169922,32494731.903076172,5017027.378082275,24701248.168945312,25076379.776000977,22482057.571411133,35505237.5793457,32087806.701660156,6671916.484832764,24150733.947753906,24912517.547607422
0.295,55467830.657958984,24988956.451416016,56864669.79980469,-2577119.1120147705,20898590.087890625,12063724.517822266,-1211804.3899536133,-1796385.2882385254,-8925709.72442627,9943148.612976074,17951673.50769043,23616491.317749023,22876674.65209961,23987104.415893555,19826093.673706055,16926496.505737305,5434773.921966553,-3763182.1632385254,671231.3294410706,1045216.0835266113,307725.2507209778,24299118.041992188,34486583.7097168,1054193.4967041016,3208233.8333129883,11011105.53741455,6361936.569213867,-5378970.623016357,-2681414.6041870117,10489457.130432129,29386039.73388672,21607555.389404297,36898574.82910156,-12729157.447814941,7389792.442321777,44215847.01538086,2163218.9750671387,9569643.020629883,11059728.622436523,8651551.246643066,21447858.810424805,17690364.837646484,4289846.420288086,5513556.480407715,23123062.133789062,7203895.568847656,13038437.843322754,23297214.50805664,6877458.572387695,16387004.852294922,31886533.737182617,30933235.16845703,34357353.21044922,6692717.552185059,27729810.71472168,27725706.100463867,25658931.732177734,36641757.96508789,33342155.45654297,8688383.102416992,27038694.381713867,27878948.211669922
0.3,52478557.58666992,23689889.907836914,51194770.81298828,-1509582.1619033813,20422868.728637695,9865081.787109375,456003.21888923645,-1361397.0279693604,-5911327.362060547,7560140.132904053,17756896.97265625,22804260.25390625,22032039.642333984,23098899.841308594,18048765.182495117,13796714.782714844,6809957.981109619,-2824882.2689056396,2465807.6763153076,3053418.3979034424,2169592.85736084,23312631.607055664,31600225.4486084,-1785494.8043823242,-605234.0865135193,7591565.6089782715,3789296.1502075195,-4037690.1626586914,-2222458.839416504,9832887.649536133,27748481.75048828,17498649.59716797,32707542.419433594,-13998046.875,3390466.2132263184,39316986.083984375,2023555.040359497,8918691.635131836,10196319.580078125,7127310.276031494,19435005.18798828,14150196.075439453,279953.89699935913,1449079.7519683838,17818983.07800293,5119712.829589844,11371730.80444336,20171537.399291992,6556677.81829834,13323076.248168945,25410858.154296875,25753181.45751953,28199180.603027344,4720912.933349609,24165334.701538086,24098445.892333984,23308021.545410156,30918388.36669922,27726629.25720215,7130894.184112549,23587354.66003418,24258358.001708984
0.305,41098865.5090332,15708485.60333252,37443462.37182617,-7044885.635375977,14311140.060424805,1156419.3964004517,-2066437.005996704,-5310189.247131348,-5250071.048736572,-966981.8878173828,11716255.187988281,15413661.003112793,14842248.916625977,15823189.735412598,9878367.42401123,4827086.448669434,4967390.537261963,-3354393.95904541,1024909.8539352417,1510921.835899353,527362.5254631042,15854036.331176758,21579893.112182617,-7293676.376342773,-8341547.966003418,527916.2526130676,1089569.6878433228,-3523561.954498291,-3799562.931060791,6590645.313262939,19896617.889404297,7443983.554840088,25068204.879760742,-16879476.54724121,-1919055.2234649658,32602252.960205078,1609826.8032073975,5864117.14553833,6731132.030487061,1177277.5650024414,11804514.88494873,8280048.370361328,-5069796.562194824,-4087411.403656006,10459011.07788086,424647.5100517273,6726659.297943115,11958534.240722656,1996599.3165969849,4830142.498016357,16254590.98815918,17598543.167114258,17690021.514892578,33005.57658076286,15966197.01385498,16153860.092163086,16426275.253295898,20699832.916259766,17846216.201782227,2257032.871246338,15694550.514221191,16019367.218017578
0.31,33018543.243408203,7769832.134246826,28441663.74206543,-12590126.037597656,6642903.804779053,-4948153.972625732,-5694957.733154297,-8467392.921447754,-7114814.281463623,-5482101.4404296875,3523742.437362671,6026105.880737305,5620829.5822143555,6564888.000488281,4203945.636749268,582494.0204620361,2749156.4750671387,-3901722.4311828613,-3095174.0741729736,-2828338.384628296,-3790503.740310669,6502895.355224609,10668123.245239258,-10362712.860107422,-11018694.877624512,-510813.5938644409,2515757.3223114014,-3869414.0911102295,-5943681.716918945,2836074.5906829834,10895111.083984375,-3561715.3644561768,22429105.758666992,-18534717.559814453,-2297644.61517334,33099441.528320312,1429509.4013214111,2296662.3306274414,3046580.3146362305,-5753331.184387207,2408874.034881592,4615347.385406494,-6155487.060546875,-5215469.3603515625,8964471.817016602,-3122612.237930298,2343365.9076690674,6473528.3851623535,-3697333.812713623,-3373496.2940216064,11524116.516113281,12748409.271240234,11671567.916870117,-3741056.9190979004,9216100.692749023,9635818.481445312,9287796.974182129,13162540.435791016,10724803.924560547,-2413494.110107422,9148941.040039062,9341455.459594727
0.315,35146415.71044922,6282851.696014404,30516323.08959961,-12651306.15234375,2199915.647506714,-2171380.043029785,-6330698.013305664,-7612658.500671387,-9786341.667175293,-2618724.1077423096,-1691642.5228118896,346030.71212768555,-67895.91163396835,950571.8946456909,7389737.129211426,5317212.104797363,2420331.9549560547,-3630299.3297576904,-6418105.125427246,-6299793.243408203,-7129465.579986572,956879.6157836914,5244653.224945068,-7990833.759307861,-6214181.423187256,6238685.607910156,6755481.719970703,-4234109.878540039,-6956087.589263916,518942.53492355347,6476055.145263672,-9637429.237365723,28106790.54260254,-17047279.357910156,2661738.157272339,40403095.24536133,1630744.218826294,10687.854140996933,977751.8510818481,-9754428.86352539,-3202280.9982299805,6281649.112701416,-1840310.6927871704,-737245.0828552246,14168475.151062012,-2594156.9805145264,993649.0654945374,7525196.075439453,-6972474.575042725,-6507846.832275391,14952668.190002441,15391098.976135254,15119253.158569336,-3388878.583908081,8685076.713562012,9108046.531677246,6192947.3876953125,14179769.515991211,12002286.911010742,-2719552.993774414,8557205.200195312,8988291.74041748
0.32,41118362.42675781,9649026.870727539,36792186.73706055,-10371662.139892578,1446756.6013336182,3934174.2992401123,-5182248.592376709,-6415283.679962158,-12194456.100463867,882127.1657943726,-2518653.392791748,-341521.2631225586,-808094.7995185852,356326.4310359955,14194722.175598145,11143613.815307617,2202015.3999328613,-3803887.6056671143,-6734211.9216918945,-6698225.975036621,-7446282.863616943,472656.36920928955,5746779.918670654,-3341759.9201202393,-1709226.8466949463,12123905.181884766,8562189.102172852,-4166327.953338623,-6871068.954467773,-145355.686545372,7180609.703063965,-9115669.250488281,35477355.95703125,-14516083.717346191,6650742.530822754,45344558.71582031,1850857.2578430176,-594417.0951843262,421580.4636478424,-10190249.4430542,-2594224.9298095703,11304429.054260254,3026602.9834747314,4173302.65045166,19370046.615600586,1226927.5188446045,2556135.654449463,11134060.859680176,-7176658.630371094,-5120664.119720459,22766294.479370117,22772150.03967285,23766952.514648438,569562.1371269226,13472985.26763916,13790205.001831055,7831808.090209961,22094991.68395996,19945049.285888672,1781947.9703903198,13185056.686401367,13889115.333557129
0.325,41398036.95678711,11323309.898376465,37872615.814208984,-11814175.605773926,1442225.9330749512,4005407.8102111816,-6702134.132385254,-9496670.722961426,-14514430.99975586,-848136.1865997314,-1425970.7927703857,1079327.2256851196,665125.6084442139,1937891.125679016,14784391.403198242,9509616.85180664,-561615.4074668884,-5703833.58001709,-5283691.40625,-5310487.747192383,-6169568.061828613,2075036.0488891602,7878601.551055908,-2542665.958404541,-4536747.455596924,10221059.799194336,6120884.418487549,-3916834.831237793,-6762502.670288086,43432.61569738388,8987122.535705566,-5753901.958465576,35970718.38378906,-14590301.513671875,5280913.352966309,43150756.8359375,1795042.9916381836,-99452.48067378998,514909.565448761,-9535316.467285156,1418009.0427398682,14830903.053283691,4150937.557220459,5025080.680847168,19896045.684814453,5171917.915344238,4816349.029541016,12049155.235290527,-6249979.019165039,-3319643.259048462,27988004.684448242,28298681.259155273,29676919.93713379,4762868.881225586,18654478.073120117,18883975.982666016,11101201.057434082,29661376.953125,27375890.731811523,7496624.46975708,18339582.443237305,18989835.739135742
0.33,36974700.927734375,9422878.26538086,34608837.12768555,-16240890.502929688,1091632.9622268677,-1674906.2538146973,-11151696.20513916,-14711152.076721191,-16305030.822753906,-4325598.71673584,-263724.1780757904,2462360.143661499,2144762.0391845703,3421327.590942383,8440690.994262695,2959509.1342926025,-4595911.502838135,-8239838.600158691,-4009493.350982666,-4045576.0955810547,-5092834.949493408,3503496.4084625244,8840834.617614746,-7070221.900939941,-11234045.98236084,4567760.467529297,3160904.1690826416,-3508537.0540618896,-6520502.56729126,951682.2695732117,9168980.598449707,-4017375.4692077637,29824954.986572266,-17428262.71057129,1725467.8010940552,39328544.61669922,1626507.043838501,1160658.2403182983,1313418.3883666992,-9530591.96472168,4346662.0445251465,14878036.499023438,2867253.303527832,3462634.325027466,18480245.59020996,7501955.986022949,6378332.614898682,10652013.778686523,-5466838.359832764,-3298439.7411346436,28333148.956298828,29285612.106323242,30467107.77282715,7090673.923492432,20983991.622924805,21057941.436767578,13022267.34161377,32282512.664794922,29893299.102783203,11238746.643066406,20745721.8170166,21150682.44934082
0.335,36139698.02856445,8581801.414489746,35038169.860839844,-17584245.681762695,2640084.2666625977,-5022769.927978516,-14143586.158752441,-16120880.126953125,-16176012.03918457,-2775960.683822632,1944781.1841964722,4577666.759490967,4241976.737976074,5455435.276031494,3411650.4192352295,-200638.16010951996,-6197063.92288208,-9194357.872009277,-2587528.944015503,-2555746.31690979,-3607335.5674743652,5491183.757781982,9822024.34539795,-12228402.137756348,-13707901.954650879,3421389.102935791,3182929.039001465,-2543968.915939331,-4885403.633117676,2962382.5550079346,9083347.32055664,-4280055.522918701,24614883.422851562,-19791130.06591797,1178903.6989212036,40228519.439697266,1643688.440322876,3165717.840194702,3305702.6863098145,-9197374.34387207,4909681.32019043,13628834.72442627,2548394.203186035,3245109.796524048,19439510.345458984,8909996.98638916,7703786.849975586,10859018.325805664,-4108906.7459106445,-3475587.6064300537,27199457.1685791,28650039.672851562,29903036.11755371,8300155.6396484375,21470994.94934082,21292703.62854004,13778182.983398438,31750543.59436035,29480838.775634766,13132952.690124512,21228784.561157227,21605501.174926758
0.34,40201858.52050781,11169631.958007812,40744785.30883789,-14506759.643554688,6826315.879821777,-3912006.616592407,-14089358.32977295,-13283804.893493652,-14402778.625488281,3023543.119430542,5689396.858215332,7816017.627716064,7335620.403289795,8500623.70300293,3466808.795928955,1032857.5372695923,-4855139.73236084,-8404730.796813965,-87516.96348190308,23844.867944717407,-808513.9393806458,8521399.49798584,11981380.462646484,-14346273.422241211,-11298319.816589355,7410968.780517578,4962810.516357422,-1385080.4567337036,-1897882.580757141,5444924.354553223,10651295.66192627,-4210721.015930176,24083297.729492188,-20207065.58227539,3091242.3133850098,43781120.30029297,1865245.9383010864,5290681.838989258,5798725.128173828,-7310575.96206665,5152406.692504883,12934063.911437988,2834887.5045776367,3900428.056716919,21795488.357543945,9883654.594421387,9268058.776855469,13638311.386108398,-1594883.5611343384,-2000980.3771972656,27226526.260375977,28873834.60998535,30533775.329589844,9252445.220947266,22207359.313964844,21937339.782714844,15137446.403503418,31356929.779052734,29375133.514404297,14395833.969116211,21877614.974975586,22498088.836669922
0.345,40729610.443115234,12030734.062194824,43283683.77685547,-12940188.40789795,9360022.54486084,-5417042.255401611,-15081354.141235352,-12241145.133972168,-13987728.118896484,5036290.645599365,7771628.856658936,9271865.844726562,8671141.624450684,9827956.199645996,2736529.82711792,43335.41914820671,-4053722.858428955,-8034003.257751465,1773435.115814209,1915269.136428833,1279837.6083374023,9832945.823669434,12829640.38848877,-15745309.829711914,-10584328.651428223,9953770.637512207,5387900.352478027,-1424911.9758605957,201981.8276166916,6693171.02432251,12465754.508972168,-3591060.4000091553,24053152.084350586,-20805816.650390625,3065751.552581787,43946620.94116211,2120753.526687622,6279140.949249268,7058470.726013184,-5202317.237854004,6394673.3474731445,11593619.346618652,1104008.3169937134,2386886.3582611084,21655050.27770996,9241565.704345703,10057143.211364746,15910577.774047852,713158.369064331,-2601.2519374489784,26741367.34008789,28275039.672851562,30185880.661010742,8844435.691833496,22708126.068115234,22720916.748046875,17023971.557617188,30673812.866210938,28898433.685302734,14470738.410949707,22384437.561035156,23156942.36755371
0.35,32734096.52709961,6085066.318511963,36254444.12231445,-16968114.852905273,5426679.611206055,-13335094.451904297,-19840457.916259766,-16309614.181518555,-16980104.446411133,-1178091.8836593628,4306098.937988281,5646116.256713867,5062773.22769165,6201310.157775879,-3183202.2666931152,-5548221.588134766,-5893516.540527344,-9453223.22845459,-34532.494843006134,118908.3382487297,-525212.6455307007,6191926.002502441,9101666.450500488,-19516717.9107666,-14175151.824951172,7826035.022735596,4150959.014892578,-3196759.7007751465,-571931.8985939026,5729235.1722717285,11329093.933105469,-4890673.637390137,20776258.46862793,-22957635.8795166,644893.8250541687,40432189.94140625,2339007.1392059326,5415049.076080322,6172396.659851074,-5517081.260681152,7097653.388977051,8536016.464233398,-1893486.738204956,-666293.3230400085,18941848.754882812,6325861.930847168,8760228.157043457,15165169.715881348,858174.3240356445,-180087.3577594757,23843294.143676758,24955587.38708496,26724691.39099121,6061944.007873535,20927833.557128906,21358966.827392578,17252923.9654541,27458889.00756836,25733612.060546875,12237528.800964355,20738737.106323242,21349086.76147461
0.355,23002193.450927734,-2764524.6982574463,24877777.099609375,-22538949.966430664,-3468236.9232177734,-20682079.315185547,-24216665.267944336,-20948173.52294922,-20926610.946655273,-10530904.769897461,-3767900.228500366,-2001865.3869628906,-2478176.1169433594,-1427244.3056106567,-8825452.80456543,-9688388.82446289,-8149645.805358887,-11490236.282348633,-5246103.286743164,-5046648.025512695,-5806308.269500732,-1402523.8752365112,1687951.5647888184,-22939723.96850586,-16823663.71154785,5109240.0550842285,3134855.5088043213,-5007351.875305176,-3644822.120666504,3259858.1314086914,6510113.716125488,-9162937.16430664,17587705.612182617,-24260982.513427734,164199.87380504608,38278125.76293945,2514877.0809173584,3156415.9393310547,3833614.5877838135,-8932472.229003906,5156564.712524414,5940485.954284668,-2174955.6064605713,-1064421.6537475586,17491764.068603516,2932102.4417877197,5627995.491027832,12115002.632141113,-1506644.2489624023,-3491299.629211426,20453401.565551758,21026025.772094727,22336000.442504883,2460550.06980896,16612144.470214844,17143344.87915039,14364305.49621582,22359510.42175293,20788791.65649414,8681542.39654541,16486715.316772461,16841653.82385254
0.36,20790239.334106445,-5914605.140686035,19207874.298095703,-23502428.05480957,-10321367.263793945,-19510288.23852539,-23023082.733154297,-20605440.139770508,-21635944.366455078,-14912277.221679688,-10797435.760498047,-8730850.219726562,-9138932.228088379,-8238129.615783691,-7282439.231872559,-7552975.654602051,-8190735.816955566,-12506944.65637207,-9652188.301086426,-9380376.815795898,-10205061.912536621,-8115505.218505859,-4887641.429901123,-21161119.46105957,-14432933.807373047,5983278.274536133,2810886.6214752197,-4829537.391662598,-6805866.241455078,674581.0508728027,687286.3173484802,-14073946.952819824,19250326.15661621,-22476787.567138672,3538702.964782715,39592384.338378906,2545691.2517547607,576966.9413566589,1298119.306564331,-13499758.72039795,926666.3193702698,6421706.676483154,1296544.075012207,2331861.2575531006,19129283.905029297,1344329.2379379272,2328716.516494751,8996093.75,-5015803.337097168,-8321398.735046387,19482463.836669922,19803964.614868164,20525173.18725586,571207.4041366577,11886452.674865723,12151103.973388672,9496446.60949707,18582069.396972656,17478212.356567383,6098430.633544922,11642424.583435059,11945158.004760742
0.365,25344057.083129883,-1820466.39919281,21260396.95739746,-20089332.580566406,-10576992.03491211,-12496375.08392334,-18106122.970581055,-16664112.091064453,-18867923.736572266,-12844552.040100098,-12554258.346557617,-10997356.414794922,-11430911.06414795,-10677718.162536621,-1502872.7054595947,-2934703.588485718,-6986981.8687438965,-12630180.358886719,-10005987.167358398,-9670259.475708008,-10536852.836608887,-10444755.554199219,-7623694.41986084,-15630829.811096191,-10866005.897521973,8717999.458312988,1946670.5322265625,-3200297.8324890137,-8518757.820129395,-1108201.3845443726,-3071390.6288146973,-16968086.24267578,23726058.959960938,-20002695.083618164,6736092.090606689,40930683.13598633,2344918.2510375977,-1313033.938407898,-568512.2609138489,-17047603.607177734,-3005467.8916931152,8639854.431152344,4278852.462768555,5198902.130126953,21211273.193359375,1291984.3196868896,256314.7246837616,7322023.868560791,-8088777.542114258,-12425206.184387207,20009845.733642578,20638402.938842773,21014902.114868164,503756.5231323242,8659065.246582031,8717186.92779541,5058547.019958496,17456853.86657715,16886108.3984375,5022353.172302246,8303577.423095703,8725223.541259766
0.37,28868017.196655273,2685009.717941284,24772628.784179688,-16868757.247924805,-6273996.353149414,-8014266.9677734375,-15348122.596740723,-14299678.802490234,-16203561.782836914,-9547988.891601562,-9934413.90991211,-9304275.512695312,-9793697.357177734,-9132062.911987305,566961.4672660828,-1660896.7781066895,-6689634.799957275,-12591637.61138916,-7523717.880249023,-7143669.128417969,-8095019.340515137,-8836178.77960205,-7016301.155090332,-12798324.584960938,-11579973.220825195,9590141.296386719,536620.3188896179,-2700779.1996002197,-8419327.735900879,-1627553.8206100464,-3737056.7321777344,-17423261.642456055,25224567.413330078,-20877941.131591797,5631882.667541504,39391685.485839844,2065277.338027954,-1765926.718711853,-1168936.7294311523,-18936235.427856445,-4343991.279602051,8920442.581176758,2846065.044403076,3669084.7873687744,20843614.57824707,770478.7850379944,-349434.85260009766,7561351.299285889,-9766606.330871582,-14545602.798461914,18742927.55126953,20021926.879882812,20752817.153930664,240799.38232898712,7031402.587890625,7239325.046539307,2590444.564819336,17300901.412963867,16842041.015625,4129647.731781006,6785779.4761657715,7280999.660491943
0.375,28883516.311645508,3033021.2116241455,26096534.729003906,-14771698.951721191,-1617825.8657455444,-7344723.701477051,-15398859.024047852,-14024327.278137207,-15147150.039672852,-8706212.043762207,-5927275.657653809,-5589266.777038574,-6078758.716583252,-5449060.916900635,-1110307.5742721558,-2493278.980255127,-6400345.802307129,-11596652.030944824,-5253730.297088623,-4864999.771118164,-5822851.657867432,-5144535.541534424,-4106562.1376037598,-14474944.114685059,-14851805.686950684,8946563.720703125,441916.1081314087,-4401929.3785095215,-6594153.40423584,-799388.4086608887,-1962449.073791504,-15786650.657653809,23376016.61682129,-24556943.893432617,1942516.565322876,36848739.62402344,1974431.3955307007,-727701.4851570129,-274420.91703414917,-19469907.760620117,-2731094.1219329834,6717913.627624512,-1428284.0490341187,-509425.3420829773,18760160.446166992,-528417.1104431152,-20066.844299435616,9073412.895202637,-9752463.340759277,-14522329.330444336,15424734.115600586,17085689.544677734,18918127.059936523,-880440.8311843872,6388841.152191162,6878882.40814209,2326160.430908203,16835458.755493164,15880142.211914062,3170676.9466400146,6357701.301574707,6833829.402923584
0.38,30580114.364624023,2872743.844985962,28973979.949951172,-10453031.539916992,2580897.808074951,-4590696.811676025,-13281191.8258667,-11548499.10736084,-12970205.307006836,-7793361.663818359,-1434406.5189361572,-521900.7730484009,-966456.2344551086,-309178.08413505554,654001.8916130066,-91131.20287656784,-3667951.822280884,-8379075.050354004,-3878879.7855377197,-3547971.487045288,-4287889.9574279785,-30928.796157240868,1283036.470413208,-15616915.702819824,-14781992.91229248,9745587.348937988,2588963.9854431152,-6435134.410858154,-3851814.9852752686,532860.2194786072,1023178.9350509644,-11735149.383544922,23244018.5546875,-26552047.729492188,264593.80984306335,36533401.48925781,2100503.2062530518,620544.0163612366,1216586.2321853638,-19050558.09020996,437392.62223243713,5316310.405731201,-4118196.964263916,-2999896.0494995117,17567754.7454834,-737994.0748214722,400010.04934310913,9931975.364685059,-8750451.08795166,-13012911.796569824,13498041.152954102,14767963.409423828,18002071.380615234,-1207713.8423919678,6555353.64151001,7070548.057556152,3829252.9582977295,17129131.317138672,15448196.411132812,3689188.9572143555,6537623.882293701,7016532.421112061
0.385,36913524.62768555,6756381.511688232,36559753.41796875,-3447067.4991607666,7695670.127868652,1799360.2752685547,-7735387.802124023,-5953471.1837768555,-8169996.26159668,-3005957.1266174316,3817629.57572937,5196942.329406738,4742403.030395508,5519545.078277588,7095228.19519043,5345849.03717041,475624.5017051697,-4199076.175689697,-2154556.7512512207,-1912715.3158187866,-2358120.918273926,5720925.807952881,7972662.925720215,-13360140.800476074,-10995822.90649414,12022639.274597168,5222945.690155029,-6766225.814819336,-2126934.051513672,921219.5873260498,3640800.4760742188,-6365395.069122314,26215229.034423828,-25264585.494995117,1302831.530570984,38344005.5847168,2176435.708999634,688189.5065307617,1677776.4558792114,-18441358.56628418,2979611.396789551,6483342.64755249,-3992470.7412719727,-2862173.318862915,18029407.501220703,875522.3751068115,99832.34852552414,8546491.622924805,-8332020.7595825195,-11351843.83392334,14881925.582885742,15129825.592041016,19650606.155395508,145885.25891304016,7162621.49810791,7415720.9396362305,6047592.639923096,18906789.779663086,16992118.83544922,5976025.581359863,6917519.569396973,7446387.29095459
0.39,42571861.267089844,11800399.780273438,44114765.16723633,1111809.7305297852,12502908.706665039,5263816.356658936,-4825234.889984131,-2736781.120300293,-4643972.396850586,3753144.9794769287,7934931.755065918,8871466.636657715,8318759.918212891,9296474.45678711,9969126.70135498,7487142.562866211,1576080.9183120728,-2596002.5787353516,-270473.6292362213,-38877.59521603584,-447759.2408657074,9351719.856262207,11879748.344421387,-12017829.895019531,-9401345.252990723,12661444.664001465,5908699.989318848,-5949078.08303833,-2989085.912704468,7367.460057139397,4402294.635772705,-3452241.4207458496,27194986.34338379,-24117671.966552734,1685526.728630066,39688476.5625,2001293.659210205,-584994.2564964294,686645.9846496582,-18628511.428833008,3221450.090408325,7683299.0646362305,-3609563.112258911,-2634518.3849334717,18879976.272583008,2348005.2947998047,-925622.820854187,6065686.7027282715,-9253781.31866455,-10722970.962524414,17077417.373657227,16497119.903564453,22044805.5267334,1494329.571723938,7227114.200592041,7230854.511260986,7541660.785675049,20193462.371826172,19019445.419311523,7543614.864349365,6822456.359863281,7356273.651123047
0.395,40812149.04785156,11269190.788269043,43923763.275146484,-1228950.1428604126,13021727.561950684,976726.770401001,-9465345.38269043,-6628651.142120361,-7144245.624542236,5766996.383666992,7446459.770202637,7585543.155670166,6967604.637145996,8097022.05657959,3975841.283798218,3020335.912704468,-2381150.245666504,-5399237.155914307,-349741.6079044342,-19111.208617687225,-707441.6279792786,8010631.561279297,9709712.028503418,-15645997.047424316,-13116966.247558594,10217870.712280273,4245242.595672607,-5929294.109344482,-5748064.994812012,-917817.8906440735,3007628.6792755127,-5790928.840637207,22917005.53894043,-25689786.911010742,-256491.69087409973,39247753.14331055,1714704.3943405151,-1514395.5945968628,-353950.26206970215,-19761079.788208008,1108967.1850204468,6125762.939453125,-4661826.133728027,-3688807.0106506348,19225252.151489258,1842965.7220840454,-1658413.5293960571,5289009.094238281,-10368061.065673828,-11302827.835083008,16609760.284423828,16191532.135009766,22309934.616088867,1084662.675857544,6148460.388183594,6120029.449462891,7356468.200683594,18490013.122558594,18658485.412597656,6223451.614379883,5873909.950256348,6341354.846954346
0.4,32602252.960205078,4287448.883056641,35625965.1184082,-8175930.976867676,7786503.791809082,-6517290.5921936035,-17771316.528320312,-14775045.394897461,-14290996.551513672,-324283.57005119324,1801426.5298843384,1996018.2905197144,1460771.7990875244,2565501.2130737305,-4494156.360626221,-3432244.300842285,-7989264.011383057,-10468421.936035156,-3483601.5701293945,-3080969.81048584,-4024944.305419922,2480309.48638916,3511204.242706299,-20694478.98864746,-17824325.561523438,6889025.2113342285,1792071.7000961304,-7162375.450134277,-8178401.947021484,-664588.987827301,901033.2822799683,-10877672.19543457,17782236.099243164,-27627483.367919922,-2166108.6082458496,38110160.82763672,1605441.8087005615,-894544.4822311401,-133128.1065940857,-20646141.052246094,-1619487.0471954346,3159179.210662842,-5640713.214874268,-4569653.511047363,19459226.608276367,533725.7981300354,-1147974.4911193848,6931100.368499756,-10125589.370727539,-12241712.57019043,13660204.887390137,14275805.473327637,20321542.739868164,-51944.442093372345,4739759.44519043,4820177.07824707,5912739.7537231445,14600904.46472168,15612768.173217773,3589457.0350646973,4705060.005187988,5111169.815063477
0.405,25731647.491455078,-2537671.3275909424,27511138.916015625,-13250881.19506836,963809.4305992126,-9361952.781677246,-21902317.04711914,-19995439.529418945,-19723579.40673828,-9678383.827209473,-4804859.161376953,-3428797.960281372,-3827899.45602417,-2863070.7263946533,-6021756.172180176,-5290091.037750244,-10666534.423828125,-14238753.318786621,-7952602.386474609,-7633500.099182129,-8511610.03112793,-2785531.520843506,-854919.6720123291,-21114011.764526367,-18178106.3079834,5159920.692443848,92316.26987457275,-8335334.777832031,-9145922.660827637,231559.20207500458,117466.64345264435,-13094470.977783203,17608697.89123535,-26977809.90600586,-1828837.513923645,37831676.4831543,1714048.5048294067,372582.94224739075,798319.935798645,-20055509.567260742,-2871832.1323394775,2203299.7608184814,-4835787.773132324,-4120038.9862060547,19880037.307739258,823124.0510940552,226995.15521526337,8687698.364257812,-8902150.15411377,-12544375.4196167,11502672.19543457,12991048.812866211,18751174.926757812,306327.8794288635,4398428.440093994,4570611.000061035,4549078.464508057,12315530.776977539,12944722.175598145,3163584.7091674805,4389427.661895752,4788087.844848633
0.41,25729267.120361328,-3487897.8729248047,26772068.02368164,-12953518.867492676,-1701930.4037094116,-6369041.919708252,-20091791.1529541,-19237747.192382812,-20002534.866333008,-14416639.32800293,-7637080.192565918,-4923243.999481201,-5337002.754211426,-4432017.3263549805,-730539.3218994141,-1749512.1955871582,-9900646.209716797,-15487271.308898926,-11040570.259094238,-10880996.704101562,-11489793.77746582,-4211941.242218018,-281875.46133995056,-17344514.846801758,-14945532.79876709,4934059.143066406,-412311.3453388214,-8501109.12322998,-9409564.018249512,439791.7091846466,1314128.2796859741,-10706855.773925781,21350118.63708496,-25313673.01940918,-445297.89686203003,38814014.43481445,1773478.8656234741,645684.3018531799,1019262.5522613525,-18349239.349365234,-2157374.858856201,3942456.4838409424,-3087694.1680908203,-3336318.254470825,20102001.190185547,2712714.672088623,1201340.7945632935,8700654.983520508,-8607437.133789062,-11915764.808654785,12492265.701293945,13869563.102722168,20004047.393798828,2110576.391220093,5485926.628112793,5682786.94152832,4173576.831817627,14100126.266479492,13823003.768920898,5791625.499725342,5267521.381378174,5692061.424255371
0.415,30317209.243774414,-379133.4331035614,31310909.271240234,-9664491.653442383,422928.5418987274,-2894575.1190185547,-17639974.59411621,-16026584.62524414,-18094812.393188477,-12582121.849060059,-6686791.41998291,-3491701.602935791,-4073224.0676879883,-3096878.2901763916,3498230.218887329,2536246.2997436523,-8569119.453430176,-15561975.479125977,-11659959.79309082,-11565032.005310059,-12015060.424804688,-2925950.765609741,2150036.573410034,-14819168.090820312,-12839999.198913574,4855766.296386719,-55939.39870595932,-8022323.6083984375,-9766644.477844238,-175747.97570705414,3053116.3215637207,-8141139.030456543,23573829.650878906,-25928213.119506836,-212827.3844718933,40253223.41918945,1591415.7629013062,-134553.38776111603,379591.166973114,-17099164.962768555,-972312.3908042908,6157618.999481201,-2216917.5148010254,-3255457.4012756348,20025342.94128418,3972285.032272339,1302787.0655059814,8158384.323120117,-9851271.629333496,-10874067.306518555,15942260.7421875,16567613.60168457,23867313.385009766,3237873.7926483154,7283826.82800293,7464530.944824219,4881742.95425415,18486408.233642578,18220190.048217773,8885619.163513184,6922265.529632568,7373335.361480713
0.42,33234661.102294922,756794.9891090393,33125041.961669922,-8027239.799499512,2140144.3481445312,-2772373.914718628,-18803506.85119629,-15032490.730285645,-18354516.983032227,-9539417.266845703,-6205731.8687438965,-3433762.550354004,-4097056.3888549805,-3095439.1956329346,2634420.394897461,3622271.5377807617,-8513050.079345703,-15776882.17163086,-10709510.803222656,-10593152.046203613,-11061681.747436523,-3081904.172897339,1242669.701576233,-15408926.963806152,-13749525.07019043,4662296.772003174,635203.6595344543,-7391003.608703613,-9684996.604919434,-452952.5935649872,3245124.340057373,-10119118.690490723,22887147.903442383,-27916131.9732666,-905000.0309944153,40937156.677246094,1356943.4881210327,-503846.28772735596,102268.06253194809,-17061605.45349121,-1019003.6296844482,7511416.912078857,-2264689.4454956055,-3099224.56741333,20174892.42553711,3617552.9956817627,1404537.558555603,9246162.414550781,-10852542.877197266,-10143912.315368652,19453929.901123047,19686328.887939453,27868591.30859375,2862168.073654175,9266217.231750488,9399575.233459473,6683890.342712402,22153793.334960938,23036727.905273438,10259674.072265625,9044913.291931152,9483105.659484863
0.425,31613285.064697266,-2513673.3055114746,28244516.372680664,-9872886.657714844,-1159212.9468917847,-4345752.239227295,-21740516.662597656,-16771093.368530273,-20969808.57849121,-10617153.16772461,-9102341.651916504,-6983097.553253174,-7507119.178771973,-6654121.875762939,415388.7331485748,1987888.216972351,-8925230.979919434,-15987401.008605957,-9654218.673706055,-9585668.563842773,-10067132.949829102,-6678441.524505615,-3896723.0319976807,-15668254.852294922,-15348730.087280273,4912742.137908936,1151372.1942901611,-6438839.912414551,-8413742.065429688,512873.94762039185,1483425.8556365967,-15345322.608947754,23134595.87097168,-27066328.048706055,-736255.5861473083,40183509.826660156,1406028.0323028564,557312.1309280396,1095214.4861221313,-17061536.78894043,-2067633.1520080566,9023134.231567383,-1689869.8806762695,-1632575.6311416626,20700586.318969727,3336616.277694702,2598101.3774871826,12041736.602783203,-9697172.164916992,-9758952.140808105,21376184.463500977,21900484.085083008,29668176.651000977,2722199.6784210205,11674017.906188965,11720653.533935547,9768023.490905762,23726987.838745117,25356468.200683594,10806205.749511719,11729484.558105469,12074115.753173828
0.43,28360057.830810547,-6669664.38293457,20733177.185058594,-12941298.484802246,-7746282.10067749,-4361829.2808532715,-22360603.33251953,-18359632.49206543,-23058828.353881836,-14879780.769348145,-13356307.983398438,-11559889.793395996,-11906570.434570312,-11232023.239135742,1167778.6111831665,713435.4114532471,-8606525.421142578,-15599260.330200195,-9278403.282165527,-9337012.29095459,-9754693.984985352,-11139047.622680664,-8914036.750793457,-13231081.008911133,-15466703.414916992,5440096.855163574,1182221.2934494019,-5145541.667938232,-6489193.439483643,2499745.1305389404,-284600.1982688904,-18115543.365478516,26617195.12939453,-22397569.65637207,614785.8500480652,38469875.33569336,1734745.740890503,2633151.2928009033,3046580.5530548096,-15433519.36340332,-2164795.6371307373,11515941.619873047,273936.33127212524,841002.2258758545,20779918.670654297,4826826.095581055,4971379.280090332,14896800.04119873,-6754569.053649902,-8917782.7835083,21981758.11767578,22772853.85131836,29167079.92553711,4386473.655700684,14580192.565917969,14509589.195251465,13597966.194152832,24487024.307250977,25221715.927124023,12417950.630187988,14723951.33972168,14953727.722167969
0.435,27375980.377197266,-7528898.7159729,16613599.77722168,-14025207.51953125,-11822026.252746582,-2701700.9258270264,-20316534.0423584,-17927974.700927734,-23308423.99597168,-17572275.161743164,-14933155.059814453,-13075126.647949219,-13430660.247802734,-12747886.657714844,3827106.237411499,1497904.896736145,-7831342.697143555,-14791979.789733887,-9438704.490661621,-9517671.585083008,-9953218.460083008,-12589711.18927002,-9645833.969116211,-10251290.321350098,-14823380.470275879,5434106.349945068,786500.0367164612,-4212330.8181762695,-5286073.207855225,4604498.863220215,135697.97575473785,-15588135.719299316,30476974.487304688,-18045114.517211914,1796847.1050262451,37053623.19946289,1985761.284828186,4633923.053741455,5015941.619873047,-12364954.948425293,-172347.69463539124,13735402.10723877,2715979.814529419,2990260.8394622803,19643085.479736328,7238358.974456787,7529799.938201904,16792524.337768555,-4085499.2866516113,-7113229.751586914,22666149.139404297,23009660.720825195,28246828.079223633,6816567.897796631,17020879.7454834,16845283.50830078,16493438.720703125,25614194.869995117,24844566.345214844,14773138.046264648,16955862.045288086,17218320.846557617
0.44,28474750.518798828,-5551425.457000732,16819404.60205078,-12699164.390563965,-10656649.589538574,-1855558.8722229004,-19090354.919433594,-16728998.184204102,-23224014.282226562,-16363904.95300293,-13012677.192687988,-10977312.088012695,-11456669.807434082,-10608805.656433105,4746579.170227051,3191035.270690918,-7516088.485717773,-14282300.94909668,-9508556.365966797,-9426352.500915527,-10072634.69696045,-10555503.845214844,-6843778.610229492,-9654975.891113281,-14999769.21081543,4940107.345581055,426307.88683891296,-4132868.766784668,-5376735.210418701,5899967.193603516,2657336.711883545,-11000526.428222656,31027530.670166016,-17826204.299926758,2085325.7179260254,37038082.122802734,1976481.9145202637,5752035.617828369,6193643.093109131,-10021663.665771484,2497808.2180023193,13958996.772766113,4320508.95690918,4147142.8871154785,17896341.32385254,8513977.05078125,9046817.779541016,18002407.07397461,-3001188.9934539795,-5109077.930450439,24127733.23059082,23608570.098876953,28643459.32006836,7920484.54284668,17870485.305786133,17668729.782104492,17080894.470214844,26410099.029541016,25643846.51184082,15923439.025878906,17526672.36328125,18016946.79260254
0.445,28322433.471679688,-4622249.603271484,17732280.731201172,-11455058.097839355,-7292074.680328369,-3732598.7815856934,-21404623.03161621,-17194890.97595215,-24319332.122802734,-12953797.340393066,-10631694.793701172,-8587058.067321777,-9076227.188110352,-8133974.075317383,2677207.9467773438,3428804.1591644287,-7964164.733886719,-14438569.068908691,-9083671.569824219,-8845485.68725586,-9756463.050842285,-8189454.078674316,-4641539.573669434,-11884799.003601074,-16297229.766845703,4960370.063781738,636322.2599029541,-4279065.132141113,-5995982.646942139,5843427.658081055,5033118.24798584,-9315350.532531738,28153091.430664062,-21042167.66357422,1848601.9372940063,38483974.45678711,1959834.9332809448,5714808.940887451,6168330.669403076,-10162149.429321289,3298355.1025390625,11900241.85180664,4302080.6312561035,4196236.133575439,16858709.33532715,8066315.650939941,8952735.900878906,18851718.90258789,-3183360.0997924805,-4400058.746337891,24999073.028564453,24083480.834960938,29895748.138427734,7293665.885925293,17117048.263549805,17013599.395751953,15648387.908935547,25565431.594848633,26513984.68017578,15136716.842651367,16715459.823608398,17402812.957763672
0.45,25381364.822387695,-6826290.607452393,16717403.411865234,-12253404.61730957,-5892611.503601074,-8005873.680114746,-26175148.010253906,-19881042.48046875,-25939805.98449707,-9683599.472045898,-10399175.643920898,-8654171.94366455,-9032235.145568848,-8168527.603149414,-986523.9858627319,1173160.433769226,-8970900.535583496,-14988020.896911621,-8347569.465637207,-8125968.933105469,-9142305.374145508,-8143199.920654297,-5419146.537780762,-16043174.743652344,-18387748.71826172,5897499.561309814,1498913.1689071655,-3599710.464477539,-6100205.421447754,4715025.901794434,5461955.0704956055,-11643609.046936035,23963447.57080078,-24759174.346923828,940707.1471214294,40054557.80029297,2153826.7135620117,4835429.1915893555,5178184.986114502,-12263168.334960938,1373988.5091781616,8225151.062011719,2270666.5992736816,2605060.577392578,16665084.838867188,6719748.020172119,7663863.182067871,19043502.807617188,-3920144.79637146,-5793536.66305542,22852544.7845459,22338274.002075195,29585571.2890625,5959332.9429626465,15402460.098266602,15480212.211608887,13192275.047302246,22906370.162963867,25132492.065429688,13333500.862121582,15193033.218383789,15813561.43951416
0.455,21640829.08630371,-10292887.687683105,14237728.118896484,-13960228.91998291,-6731437.206268311,-12495237.350463867,-29701156.616210938,-22736238.479614258,-26180425.6439209,-7412823.677062988,-11562636.375427246,-10398710.250854492,-10748142.24243164,-10015979.766845703,-4472187.9959106445,-2332435.8463287354,-10106978.416442871,-15242074.012756348,-7698251.724243164,-7564485.549926758,-8490835.189819336,-9805207.252502441,-7887265.682220459,-20740543.365478516,-21061635.971069336,6797851.085662842,2424893.379211426,-1944101.2144088745,-5616130.828857422,3440066.09916687,4275796.890258789,-15292061.805725098,19931711.196899414,-27227275.848388672,-1241602.4208068848,39633865.35644531,2276812.3149871826,3780247.211456299,4000449.1806030273,-14524838.4475708,-1706312.894821167,3795335.7696533203,-1300787.5680923462,-648256.5402984619,16001129.150390625,4820356.369018555,5997128.963470459,17870840.072631836,-5202076.435089111,-8949110.03112793,17352842.330932617,17466829.299926758,25938591.00341797,4236550.331115723,12649938.583374023,12870665.550231934,9806842.803955078,19078479.766845703,20664886.474609375,11111645.698547363,12651473.045349121,13052906.99005127
0.46,19388238.90686035,-12376315.116882324,11317366.600036621,-14218908.309936523,-7392548.084259033,-14445958.137512207,-29282299.041748047,-23366722.106933594,-24344139.099121094,-6590288.162231445,-12128420.82977295,-11638504.981994629,-12084482.192993164,-11432030.67779541,-6121236.801147461,-4814640.998840332,-10538102.149963379,-14674680.709838867,-7299355.983734131,-7158102.512359619,-7926756.381988525,-11157408.714294434,-9989637.37487793,-23084550.857543945,-23170021.057128906,6733240.127563477,2746487.855911255,-190284.01374816895,-5497613.430023193,2539606.0943603516,2870292.901992798,-17998422.622680664,17169517.517089844,-27600519.18029785,-3707229.1374206543,36371017.45605469,1929958.462715149,2884769.2012786865,3132338.285446167,-15973220.825195312,-3842056.7512512207,241010.6062889099,-4333376.884460449,-3573282.00340271,14215581.893920898,2199072.3609924316,4314678.192138672,14879302.024841309,-7156788.349151611,-12809940.338134766,11848275.184631348,12072267.532348633,20255586.624145508,1738915.8010482788,8540122.032165527,8794269.561767578,5553728.103637695,14540671.348571777,14962994.575500488,8293991.0888671875,8593578.338623047,8938029.289245605
0.465,18677938.46130371,-12655407.905578613,8530045.509338379,-12775005.340576172,-6888788.70010376,-12115702.629089355,-25666896.82006836,-21548702.239990234,-22054452.896118164,-7448606.967926025,-11900474.548339844,-11821576.118469238,-12280896.186828613,-11704019.546508789,-4085955.6198120117,-4674739.837646484,-9427837.371826172,-13557621.002197266,-7190943.241119385,-7018836.02142334,-7678879.261016846,-11515896.797180176,-11278759.956359863,-20234201.431274414,-22235004.425048828,6450844.764709473,2749935.8654022217,803292.7513122559,-6434537.410736084,1794088.60206604,2151021.2421417236,-19626054.763793945,17497512.817382812,-24968965.530395508,-3820801.7349243164,32536808.013916016,1310158.9679718018,2056353.3306121826,2463463.068008423,-16456668.853759766,-3981621.503829956,-106516.16752147675,-4314830.780029297,-3456839.5614624023,12852100.372314453,-6517.913192510605,2799942.7318573,11256080.627441406,-8859818.458557129,-15563237.190246582,10609890.937805176,10297920.227050781,16494459.15222168,-518526.8521308899,4775693.893432617,5025377.27355957,2654350.2807617188,10393886.56616211,11370804.786682129,5862583.160400391,4806661.128997803,5309869.289398193
0.47,18990383.14819336,-11937511.444091797,7623240.4708862305,-11210673.332214355,-6154721.260070801,-6362740.516662598,-21932197.57080078,-18995872.497558594,-21677371.978759766,-8502002.716064453,-11771974.563598633,-11433238.02947998,-11705956.45904541,-11245246.887207031,2026986.3605499268,-1729513.2875442505,-7002369.8806762695,-12857574.462890625,-7542520.046234131,-7490402.2216796875,-8116732.597351074,-11124306.678771973,-11582279.205322266,-13280385.01739502,-17046092.987060547,7639149.188995361,3625566.244125366,942749.6790885925,-7666925.90713501,1336360.8121871948,2607202.0530700684,-19914846.420288086,21667047.50061035,-20123428.344726562,-510179.0428161621,31961048.126220703,1079537.5108718872,1635406.732559204,2121911.5257263184,-15227949.142456055,-1904774.0697860718,3547928.57170105,-1067596.673965454,-160973.01244735718,13951336.860656738,507752.2397041321,2395500.1831054688,10276015.281677246,-8631290.435791016,-14895305.633544922,14379384.994506836,13393279.075622559,17821725.845336914,-93918.10745000839,4911754.608154297,5236604.690551758,4346379.280090332,9310510.635375977,12264142.036437988,6304984.092712402,5024291.9921875,5622263.431549072
0.475,20850942.611694336,-10315168.380737305,10572311.401367188,-10139622.688293457,-5455796.241760254,-498364.9551868439,-20196792.602539062,-17135120.391845703,-23671083.450317383,-7650141.716003418,-11403443.336486816,-10001872.062683105,-10068616.86706543,-9667511.940002441,9431128.50189209,2695926.1894226074,-4636222.362518311,-13280735.969543457,-8496607.780456543,-8650675.773620605,-9268875.122070312,-9532320.022583008,-9638208.389282227,-6907783.508300781,-10168098.449707031,10430082.321166992,5780497.074127197,559786.856174469,-7692602.634429932,2140429.735183716,4663167.476654053,-17493144.989013672,27323490.142822266,-16395830.154418945,3754779.100418091,35570804.595947266,1467559.814453125,2539992.094039917,2893116.7125701904,-11460112.571716309,2073300.838470459,8959992.408752441,2613823.890686035,3299997.329711914,17099740.982055664,4271897.792816162,4222366.3330078125,14273087.501525879,-5919507.026672363,-10080615.043640137,19652263.641357422,18411245.346069336,23287796.020507812,3748906.8508148193,10160028.457641602,10633398.056030273,10526176.452636719,13195028.305053711,17010181.427001953,10585252.76184082,10445411.682128906,10894432.067871094
0.48,24289813.995361328,-7677622.318267822,16059991.836547852,-8618443.489074707,-3834348.440170288,2479788.064956665,-19770162.58239746,-15868099.212646484,-25911531.448364258,-5609603.8818359375,-9661970.138549805,-6811879.1580200195,-6873291.015625,-6356449.604034424,14052236.557006836,6280505.657196045,-3315475.4638671875,-14489945.411682129,-9778404.235839844,-9973839.75982666,-10517211.9140625,-6256856.918334961,-4881191.730499268,-3861300.7068634033,-5955249.786376953,12795407.29522705,7719905.376434326,-183101.8030643463,-6256264.209747314,4492297.649383545,7920480.728149414,-12275280.952453613,31009130.477905273,-16034048.080444336,5796032.905578613,39873798.37036133,1953882.2174072266,4803966.522216797,4983759.40322876,-6401273.727416992,6570456.981658936,13122729.301452637,4226658.821105957,4476756.0958862305,19608047.485351562,8729887.962341309,7612454.414367676,20713842.391967773,-2375160.2172851562,-3799589.6339416504,22982845.306396484,22011156.08215332,28748247.146606445,8429144.859313965,16705944.061279297,17262184.143066406,16698511.123657227,19971376.419067383,22448938.369750977,16164796.829223633,17071805.953979492,17293260.57434082
0.485,27847251.892089844,-4624089.71786499,20354415.893554688,-6290319.442749023,-1084556.221961975,2962324.619293213,-18787141.799926758,-14524904.251098633,-26071725.845336914,-5429762.840270996,-6806529.521942139,-2852527.618408203,-3081744.67086792,-2316507.577896118,14725306.510925293,7541680.812835693,-2464148.52142334,-15465503.692626953,-10635102.272033691,-10653665.542602539,-11016643.524169922,-2370357.9902648926,732693.1953430176,-2461011.8865966797,-5715928.077697754,13243056.297302246,7718496.322631836,-1150950.1934051514,-4748391.151428223,6903043.746948242,10870043.754577637,-6890804.767608643,31999420.166015625,-16971427.91748047,5622726.917266846,41333789.82543945,2030515.432357788,6875429.153442383,7148175.239562988,-2988256.9313049316,9576505.661010742,15431428.909301758,4484488.487243652,4395582.675933838,19836339.950561523,11126464.84375,10114532.470703125,24041713.71459961,-227650.38907527924,93948.3717083931,24644971.84753418,24101079.9407959,31359207.153320312,10942188.262939453,19650377.27355957,20133108.139038086,19183248.51989746,24919488.90686035,25841739.654541016,19718456.268310547,19938106.536865234,20070598.602294922
0.49,30393177.032470703,-1746239.3045425415,22398015.97595215,-4221495.151519775,1602760.1957321167,4142744.0643310547,-16824331.283569336,-13157595.63446045,-24198560.71472168,-7529502.391815186,-4453198.432922363,-142314.76187705994,-536079.7047615051,429219.2757129669,14291667.938232422,7528395.175933838,-925211.3103866577,-15475995.063781738,-10352231.0256958,-10213176.727294922,-10415015.22064209,256201.1182308197,4463120.460510254,-698533.1773757935,-6492492.67578125,13054636.001586914,6366504.192352295,-1746222.1384048462,-4262023.92578125,7729992.866516113,12368212.699890137,-4124395.8473205566,32447872.161865234,-15763713.836669922,5791571.140289307,40841579.43725586,1873566.8659210205,7371215.8203125,8040801.048278809,-2435056.209564209,10437116.622924805,17258897.78137207,5711084.842681885,5509337.425231934,18899456.024169922,11631217.956542969,10359774.589538574,22454093.93310547,131974.57790374756,893968.6417579651,26796646.118164062,26400241.85180664,32092445.373535156,11311466.217041016,18909736.63330078,19243539.810180664,19499185.56213379,25851457.595825195,27149499.893188477,20909246.44470215,19114261.627197266,19265554.428100586
0.495,32295089.721679688,944308.2213401794,24653102.87475586,-3110032.081604004,3330156.3262939453,7742931.365966797,-14979246.139526367,-12312685.012817383,-22098363.876342773,-8282710.075378418,-3316887.378692627,829346.1799621582,366786.9567871094,1345090.9852981567,15734292.030334473,8573099.136352539,1259907.2456359863,-14459617.614746094,-8881801.60522461,-8790121.078491211,-9044043.54095459,1248917.1028137207,5808408.737182617,299795.9554195404,-5407794.952392578,14374312.400817871,6021197.79586792,-1192121.7441558838,-4152292.7284240723,7307077.884674072,13047264.099121094,-3997641.086578369,33740562.438964844,-12913438.79699707,7252264.022827148,41615707.39746094,1928415.7752990723,6888995.64743042,7933962.821960449,-2728060.722351074,10625018.119812012,18821243.286132812,7914610.385894775,7668680.191040039,18368705.74951172,12036773.681640625,9692935.943603516,19981260.299682617,124434.60524082184,1294377.6845932007,29106336.59362793,28477115.631103516,32971935.272216797,11506680.488586426,18422885.89477539,18686822.89123535,21247419.357299805,24881284.713745117,27776433.94470215,21581710.815429688,18667226.791381836,18822187.423706055
0.5,33811008.45336914,3011635.3034973145,27888191.22314453,-2179754.0187835693,4461888.313293457,11754511.833190918,-13762879.371643066,-11955822.944641113,-20687143.325805664,-5513317.108154297,-2481996.774673462,1473574.3999481201,1044364.2139434814,1874760.2701187134,18701402.66418457,11239617.347717285,2905877.8285980225,-12767364.501953125,-7068144.798278809,-7136701.583862305,-7635380.744934082,1978866.5771484375,6451161.861419678,-652141.273021698,-3231080.0552368164,16976772.30834961,7606768.1312561035,373623.251914978,-3351722.002029419,7262785.4347229,14468452.453613281,-4651347.637176514,34886802.673339844,-11926795.00579834,8296627.998352051,44069252.014160156,2148285.150527954,6991986.7515563965,8081179.618835449,-1462386.131286621,11808522.22442627,18911600.11291504,8801414.489746094,8474474.906921387,18073638.916015625,12583299.63684082,9942232.131958008,20306488.037109375,795424.4017601013,3174545.5265045166,29081758.499145508,28121820.4498291,33779067.99316406,12068846.702575684,20030422.21069336,20348823.54736328,24482990.264892578,24778123.85559082,28193494.79675293,22260574.340820312,20339387.893676758,20528057.098388672
0.505,34227733.61206055,3490421.5335845947,29228185.653686523,-752892.3153877258,5474309.44442749,13468166.35131836,-12364733.695983887,-11394930.839538574,-19451631.546020508,-2438598.6328125,-1142707.2286605835,2890950.918197632,2598888.158798218,3290512.800216675,20968494.415283203,13849214.553833008,3388066.053390503,-11040601.73034668,-6122355.937957764,-6286327.838897705,-6937349.319458008,3489686.4891052246,7796011.447906494,-1184720.0393676758,-2117793.560028076,18842929.84008789,9424443.244934082,1568534.016609192,-2213111.400604248,8232822.418212891,17225519.18029785,-5050089.8361206055,35168560.02807617,-13233755.111694336,8108401.298522949,45788864.13574219,2107338.6669158936,8023513.7939453125,8886687.278747559,1248101.7112731934,14008131.02722168,18034702.30102539,7934991.836547852,7589533.805847168,17593729.01916504,12336875.915527344,10949253.08227539,21829954.147338867,1875836.1339569092,5493024.3492126465,27031581.87866211,25929868.698120117,33604305.267333984,12117107.391357422,21733762.741088867,22125642.776489258,26563362.12158203,26088609.69543457,28433233.2611084,22062223.434448242,21967424.392700195,22324829.1015625
