time,Fp1,Fpz,Fp2,AF3,AF4,F7,F5,F3,F1,Fz,F2,F4,F6,F8,FT7,FC5,FC3,FC1,FCz,FC2,FC4,FC6,FT8,T7,C5,C3,C1,Cz,C2,C4,C6,T8,TP7,CP5,CP3,CP1,CPz,CP2,CP4,CP6,TP8,P7,P5,P3,P1,Pz,P2,P4,P6,P8,PO7,PO5,PO3,POz,PO4,PO6,PO8,CB1,O1,Oz,O2,CB2
0.0,9682739.2578125,12294617.652893066,11911601.066589355,4077987.1940612793,5075687.885284424,-1192589.7598266602,1239003.6582946777,1253077.9838562012,1961775.6605148315,1817502.9754638672,1951265.4542922974,3288837.671279907,3995319.8432922363,3932268.6195373535,-2190551.7578125,-841532.826423645,224993.55673789978,179473.69813919067,662809.3719482422,766905.3673744202,1092114.806175232,2788962.1257781982,3925106.7638397217,-2143577.3372650146,-1562251.4486312866,-749801.9337654114,-462881.80351257324,-8673.463016748428,165085.5988264084,563662.8866195679,651455.1639556885,1541021.466255188,-2127949.4762420654,-2142487.7643585205,-510885.0598335266,-506932.0797920227,30117.755755782127,-598559.4391822815,545220.8518981934,325755.0299167633,-806216.6571617126,-2131510.4961395264,-2495876.0738372803,-1284032.702445984,-1024422.287940979,-1029056.9067001343,-567250.5497932434,-699750.1850128174,-674156.5465927124,-725182.8908920288,-2306350.4695892334,-2203531.265258789,-2234038.1145477295,-1045762.8965377808,-1951540.231704712,-1616634.726524353,-1628458.2614898682,-2651635.6468200684,-2274501.085281372,-2376329.183578491,-1971161.2462997437,-2010528.802871704
0.005,9598893.165588379,15051977.157592773,5395911.693572998,1679920.6733703613,-5200668.3349609375,2034818.6492919922,8801607.131958008,8420313.835144043,3444917.678833008,2360309.839248657,3152706.6230773926,2248478.651046753,-1721084.8331451416,-2465626.001358032,4839595.794677734,7164554.119110107,3739063.024520874,2642730.236053467,3273838.520050049,555559.3967437744,-467999.48811531067,-4888133.525848389,-1439144.9689865112,5517525.196075439,9991491.317749023,3531024.932861328,3100575.6855010986,72530.16531467438,808405.9357643127,940263.2713317871,4310576.438903809,24246612.548828125,6240686.893463135,4639062.881469727,6129487.991333008,4397912.979125977,651237.9050254822,2610839.605331421,8558243.751525879,9217226.028442383,2566106.3194274902,5288536.548614502,-19024585.723876953,1806999.4449615479,1361337.7809524536,2702503.442764282,1372196.7935562134,1807010.293006897,2546744.3466186523,1875240.3259277344,2638121.6049194336,2182997.226715088,1564071.0592269897,3005393.5050964355,5374441.623687744,6202802.1812438965,6030641.078948975,3644791.3646698,919963.5982513428,3690446.138381958,5223881.244659424,4843936.443328857
0.01,8001254.081726074,14955381.393432617,3696322.202682495,-207375.09429454803,-9438519.477844238,2771829.605102539,10138459.205627441,9680597.305297852,2664808.988571167,2489231.586456299,3918286.8003845215,2735548.0194091797,-2047761.6786956787,-3058589.220046997,8736714.363098145,10182210.922241211,4703857.898712158,3254174.4709014893,4422066.688537598,1190768.1226730347,915594.220161438,-5887712.001800537,-1654462.9335403442,9728248.596191406,14643980.979919434,4923556.327819824,4251735.210418701,-70175.1634478569,1426711.2016677856,2373906.373977661,7389523.506164551,35429653.16772461,10510386.46697998,8373579.025268555,8576860.427856445,6121656.894683838,690476.5367507935,4075012.683868408,12489058.494567871,14044214.248657227,4865466.594696045,9419908.52355957,-23871021.270751953,3111633.30078125,2864381.0749053955,4806177.616119385,2280205.726623535,3334443.5691833496,4301561.8324279785,3717899.3225097656,5972726.345062256,5108986.854553223,4148580.0743103027,5153644.561767578,9447211.265563965,9658465.385437012,9476536.750793457,7730163.57421875,3330394.983291626,7041350.364685059,9322799.682617188,8810747.146606445
0.015,13058765.411376953,21223951.33972168,13891174.31640625,2250209.331512451,-3916641.2353515625,1760150.3133773804,8064273.834228516,7859158.992767334,1836748.3615875244,3270558.8340759277,5346942.901611328,6260423.66027832,4151126.8615722656,3233493.5665130615,8120882.034301758,9132276.53503418,3721431.255340576,2545703.649520874,4281964.302062988,1843775.2723693848,4025852.680206299,-679237.1273040771,4437018.871307373,9114697.456359863,12674122.81036377,3738234.043121338,3157064.914703369,-335502.86293029785,1332134.72366333,3427070.140838623,8601356.506347656,35167633.056640625,9495266.914367676,7766585.350036621,7490589.618682861,4969114.780426025,384690.91057777405,3176893.2342529297,12314575.1953125,14111521.72088623,4664022.445678711,8855013.847351074,-18978927.612304688,2990932.4645996094,3768246.650695801,5229652.404785156,2181223.8693237305,3372145.414352417,4108026.9813537598,3983281.135559082,6728314.399719238,5745990.27633667,4797989.368438721,5400415.420532227,8599925.994873047,8399603.843688965,8283501.625061035,7550063.610076904,4126026.153564453,5628595.82901001,8519676.208496094,8024000.16784668
0.02,30786041.259765625,41029731.75048828,35693229.67529297,11002461.433410645,8610941.886901855,2034220.4570770264,9674135.208129883,9726891.51763916,4664317.1310424805,6079003.33404541,8728325.843811035,12517315.864562988,13025144.577026367,12215869.903564453,4793889.999389648,8706800.46081543,3577642.2023773193,2747306.8237304688,4479542.7322387695,1667984.4856262207,5945429.32510376,5007755.756378174,13184578.895568848,5732759.952545166,10086553.573608398,2871588.4685516357,2174277.0671844482,-422157.55581855774,531715.989112854,2773963.212966919,7818517.684936523,32682201.385498047,5919957.160949707,4602557.182312012,6747568.130493164,3700744.390487671,401789.51621055603,1165136.218070984,11326292.037963867,12376521.110534668,2240314.00680542,5515408.992767334,-15376530.647277832,2978016.3764953613,4650478.363037109,5124303.340911865,1946792.1257019043,2472251.8920898438,2902510.88142395,2833022.5944519043,5343928.813934326,4569955.348968506,3855481.3861846924,5158298.015594482,4760288.715362549,5757805.347442627,5620812.41607666,4033029.556274414,3226954.221725464,1016239.7623062134,4554813.385009766,4056955.8143615723
0.025,48533264.16015625,60059616.08886719,53076107.025146484,19730684.280395508,18081661.224365234,4929116.725921631,15116273.880004883,15126697.540283203,9979235.649108887,9977495.193481445,12807668.685913086,17796676.635742188,18546421.05102539,17727130.889892578,2824381.3514709473,10609586.715698242,5424525.260925293,4736668.109893799,6041297.912597656,1628087.5205993652,6453423.500061035,7145011.901855469,18687280.654907227,3794188.4994506836,11143038.749694824,4141584.3963623047,2998797.655105591,-188843.54829788208,590304.9111366272,2140663.8622283936,7296986.103057861,34359848.02246094,4214060.7833862305,2772937.774658203,8120203.018188477,3858103.5137176514,877171.516418457,424841.58277511597,11841325.759887695,12304281.234741211,759943.425655365,3601785.659790039,-17862295.150756836,3593169.927597046,5318795.204162598,5460762.977600098,2349761.0092163086,2219045.877456665,2509613.7523651123,2110630.2738189697,4019400.5966186523,3597467.8993225098,3040582.8952789307,5526400.089263916,2952455.759048462,5293628.692626953,5061583.042144775,2235707.998275757,2218267.4407958984,-1205867.1712875366,2587120.294570923,2071716.30859375
0.03,45361061.096191406,55295345.306396484,47776481.62841797,19101869.583129883,15680466.651916504,8292296.409606934,17244279.861450195,17016090.393066406,12131606.101989746,11811004.638671875,14296372.413635254,17803924.560546875,17195211.41052246,16396705.627441406,4642294.883728027,11873334.884643555,7240810.871124268,6609151.840209961,7934940.338134766,2889798.164367676,7304878.234863281,6338684.08203125,17404985.427856445,5596136.569976807,14357397.079467773,6086045.742034912,4747166.633605957,227980.94153404236,2613815.3076171875,3798152.6851654053,9166625.9765625,38171840.66772461,6306668.758392334,4525824.069976807,9716898.918151855,4459595.680236816,1294566.3928985596,2111632.1086883545,13016529.083251953,14586115.837097168,3053051.710128784,5529000.282287598,-20653984.06982422,4212624.549865723,5510236.740112305,6392992.01965332,3477473.020553589,3844601.1543273926,4124656.2004089355,3698763.847351074,5162679.195404053,4903204.441070557,4243527.412414551,6580978.870391846,6408307.5523376465,8025336.265563965,7767511.84463501,6133219.242095947,3237490.653991699,2588065.1473999023,6117856.502532959,5667991.638183594
0.035,20036298.751831055,26808851.24206543,22044664.38293457,8742328.643798828,3960659.2655181885,9254868.507385254,12380054.473876953,12130319.595336914,8302263.259887695,9716164.588928223,11877671.241760254,12813817.977905273,11003471.374511719,10335156.440734863,8320991.516113281,10053036.6897583,6611055.850982666,6005785.4652404785,8304336.5478515625,4501690.864562988,8577532.768249512,5056029.319763184,11314375.877380371,9069025.039672852,15967397.689819336,6032498.836517334,5258822.917938232,593376.3384819031,5130368.232727051,6529874.801635742,12449619.29321289,39657695.77026367,9843296.05102539,7984473.705291748,9521270.751953125,4161097.526550293,1275901.198387146,4564002.03704834,13046045.303344727,17184362.411499023,7790357.1128845215,9254066.467285156,-17949129.104614258,4601330.280303955,5806842.803955078,7525141.716003418,4757343.769073486,6777310.371398926,7104088.306427002,7131787.300109863,8794567.108154297,8328048.7060546875,7438068.389892578,7826015.472412109,12397087.097167969,12190517.42553711,11983658.790588379,12824974.060058594,6458405.017852783,8709783.554077148,12346945.762634277,11999603.271484375
0.04,-3943916.5592193604,1393965.3635025024,-1098604.5598983765,-1349579.2150497437,-5254838.943481445,7769190.311431885,5798712.253570557,5907887.4588012695,2393136.501312256,5650541.305541992,8345599.174499512,8201236.724853516,5871470.928192139,5293852.806091309,10046008.110046387,7191085.8154296875,4026305.1986694336,3317857.503890991,6951995.849609375,4683866.024017334,8754788.398742676,4736678.123474121,6287352.561950684,10550677.299499512,15158629.417419434,3773997.0684051514,3868836.8797302246,750121.3550567627,5631539.344787598,7122472.763061523,14390084.266662598,38838790.89355469,11293226.24206543,9592799.186706543,8283834.457397461,3205150.604248047,1039978.02734375,4865557.670593262,11971581.45904541,18191806.79321289,11007254.600524902,10952676.773071289,-12392844.200134277,5234572.410583496,6691599.8458862305,8217542.64831543,5312089.920043945,9013505.935668945,9419734.954833984,9790287.017822266,12106338.500976562,11248157.501220703,10294177.055358887,8588494.300842285,15132428.169250488,14862474.44152832,14630771.63696289,15351032.257080078,9470420.837402344,10401194.57244873,15125141.143798828,14799748.420715332
0.045,-6817795.753479004,-370338.88697624207,-4022502.4223327637,-3190598.726272583,-4765229.70199585,5965472.221374512,4119130.1345825195,4600080.490112305,-234286.96393966675,3055576.5628814697,7135770.797729492,8209036.827087402,5662686.824798584,4998043.537139893,8753262.519836426,6714959.144592285,2113522.529602051,1223659.1577529907,5448465.347290039,3548328.399658203,7641556.739807129,5500352.85949707,6157904.148101807,9294053.077697754,14212021.827697754,1806626.319885254,1998691.7972564697,657195.2700614929,3835664.2723083496,5076359.272003174,14154157.638549805,38723510.7421875,10069764.137268066,8449543.952941895,7883156.299591064,2589632.511138916,959550.0826835632,2240334.2723846436,11198524.475097656,17747119.903564453,11121016.502380371,9705086.708068848,-10187906.265258789,6067785.263061523,7314463.6154174805,7931000.232696533,4695374.965667725,9239056.587219238,9655632.972717285,9896759.033203125,12373029.708862305,11293071.746826172,10532532.691955566,8296594.619750977,12865203.857421875,14398963.928222656,14031228.065490723,11464166.641235352,9846941.947937012,6673123.836517334,12598033.905029297,12267796.516418457
0.05,5182445.049285889,13476880.073547363,7877993.106842041,522634.50622558594,507281.5418243408,4847350.597381592,6640020.847320557,7062028.884887695,645338.6545181274,2756999.2542266846,7910151.958465576,11036458.015441895,8585759.162902832,7725618.839263916,6635025.0244140625,8314532.279968262,2028549.9095916748,1081557.5122833252,4736278.057098389,2589566.707611084,6595621.585845947,6931309.223175049,9108555.793762207,7537348.27041626,14557752.60925293,1820535.1829528809,1015018.3439254761,382599.92003440857,1863196.2537765503,3074420.213699341,13478264.808654785,39888233.18481445,8314885.139465332,6621116.161346436,8379942.893981934,2308999.3000030518,1005384.6836090088,-919389.7247314453,11210685.729980469,17164947.509765625,10317824.363708496,7776458.263397217,-12121498.107910156,6206681.251525879,6523752.212524414,6820489.406585693,3572830.91545105,8313553.810119629,8552731.51397705,8619235.99243164,9936564.445495605,8940963.745117188,8404913.902282715,7089293.956756592,9678748.13079834,12047827.72064209,11618548.393249512,6318686.962127686,7813081.741333008,3097112.6556396484,9191855.430603027,8973712.921142578
0.055,14679127.69317627,24703161.239624023,19624946.59423828,3451342.5827026367,2835227.7278900146,3642170.4292297363,8148165.702819824,8172793.388366699,1611300.1108169556,3014585.018157959,7912415.027618408,12573018.074035645,10904860.496520996,9898091.316223145,5311868.667602539,8715128.898620605,2335939.1689300537,1452879.1904449463,4113713.264465332,2193147.897720337,6363673.686981201,8873312.950134277,11391709.327697754,6555148.601531982,14853627.20489502,2569517.135620117,642104.3276786804,73788.37466239929,1326506.9723129272,3102773.904800415,13976937.294006348,40289520.263671875,7220580.101013184,5495211.124420166,8299170.49407959,1486549.6158599854,881336.5697860718,-1934545.636177063,11289855.003356934,17250648.498535156,10813480.377197266,6624372.0054626465,-13982724.1897583,5169281.959533691,4714715.480804443,5732436.180114746,3209012.746810913,8151670.455932617,8117060.661315918,8424691.200256348,7349094.390869141,6593524.932861328,6053784.8472595215,5898481.845855713,9405428.886413574,10498693.466186523,10206178.665161133,5282666.206359863,5516939.640045166,3491375.9231567383,9042068.481445312,8981450.080871582
0.06,18804552.07824707,31038833.618164062,27427873.611450195,5616888.046264648,2986825.2277374268,2363537.073135376,7326481.342315674,7131381.511688232,1646087.5272750854,3031114.101409912,6818708.419799805,12844559.669494629,12533891.677856445,11497257.232666016,3985182.046890259,6993099.212646484,1727284.0738296509,794892.6091194153,3103255.5103302,1649704.4563293457,6744583.606719971,11750368.118286133,12905551.91040039,5228446.483612061,13631194.114685059,2177959.91897583,97827.19612121582,-128403.79774570465,1754637.9566192627,4525180.339813232,15445253.372192383,39389217.376708984,5826966.285705566,4221569.061279297,7294344.902038574,36987.144500017166,542618.989944458,-928241.7297363281,11166485.786437988,17899328.231811523,11881233.215332031,5257457.733154297,-13616735.458374023,3814003.7059783936,3478552.3414611816,5322038.650512695,3983669.9962615967,9380268.096923828,9222190.856933594,9911185.264587402,6136818.885803223,5627405.643463135,4874782.562255859,5501757.1449279785,10651855.46875,10648670.196533203,10531393.051147461,7104044.9142456055,4314896.583557129,5109990.59677124,10590940.475463867,10487373.352050781
0.065,26542575.83618164,40722179.4128418,36439437.86621094,10644098.281860352,6562368.869781494,2711354.7325134277,7721919.536590576,7729693.412780762,3017506.1225891113,4125265.121459961,7337398.529052734,15196154.594421387,16166715.621948242,15201799.392700195,2191315.6509399414,6130327.224731445,1238282.4420928955,78121.73664569855,2885425.806045532,1334314.9423599243,7963315.963745117,15798490.524291992,16362367.630004883,3184942.4839019775,12118980.407714844,1177746.4151382446,-220442.87621974945,-147068.5452222824,2105466.365814209,6030864.238739014,17008674.62158203,39301765.44189453,3901079.6546936035,2443890.333175659,6779344.55871582,-895123.9585876465,315697.8487968445,-162061.61677837372,11449136.734008789,18690282.821655273,11864042.282104492,3278647.8996276855,-12893856.048583984,3456908.4644317627,3475091.9342041016,5370552.062988281,4826792.240142822,10753582.000732422,10689054.489135742,11330153.465270996,5787764.072418213,5509765.625,4573229.3128967285,5663613.319396973,10030886.65008545,10898901.93939209,10774648.666381836,6834304.332733154,3928481.340408325,4014860.6300354004,10081661.224365234,9715515.13671875
0.07,36780765.533447266,50614856.7199707,44647411.34643555,16602724.075317383,12723052.978515625,5350496.768951416,11204799.65209961,11513818.740844727,6623764.514923096,7099362.850189209,10726729.393005371,20006328.582763672,21629369.735717773,20801084.518432617,1822976.5892028809,8508752.822875977,2700093.0309295654,1378324.8662948608,4772920.608520508,2758231.1630249023,10314805.030822754,19880138.397216797,21724697.11303711,2633562.8032684326,12844464.302062988,1617958.3072662354,666054.1296005249,44565.65901637077,2402487.03956604,7274913.311004639,18494680.404663086,41431152.34375,3517636.775970459,2079662.3229980469,7621599.197387695,-498347.9678630829,494117.25997924805,-908357.7990531921,12222614.288330078,19300191.87927246,11394699.096679688,2825522.6612091064,-13106698.036193848,4325668.811798096,3726305.0079345703,5166374.683380127,4458757.400512695,10963402.74810791,11011556.625366211,11213532.447814941,5587332.248687744,5434537.410736084,4493067.741394043,5525330.066680908,8027504.920959473,10134030.34210205,9877326.965332031,3590125.560760498,3802420.139312744,1513058.6624145508,7943262.577056885,7407780.647277832
0.075,36627983.09326172,48205665.588378906,43148353.576660156,17067556.381225586,14376049.995422363,7831011.2953186035,14736112.594604492,15036962.509155273,10011782.6461792,10527010.917663574,14551742.553710938,23344118.118286133,24795116.424560547,24088359.832763672,4119224.0715026855,12024866.104125977,5842434.883117676,4613239.765167236,8159567.832946777,6082668.304443359,12655043.601989746,21957113.26599121,25039239.88342285,4906108.379364014,15699221.61102295,3657596.5881347656,2421236.038208008,414325.2670764923,3212715.6257629395,8153192.520141602,19927450.18005371,44035678.86352539,5830006.122589111,4287480.354309082,8483862.87689209,379814.62478637695,982100.9635925293,-2234679.698944092,12542828.559875488,19521667.48046875,12356269.836425781,5218449.592590332,-12834496.49810791,5145282.745361328,3052039.623260498,4197503.566741943,2749338.150024414,10155768.394470215,10209596.633911133,10165379.524230957,5484021.186828613,5148446.083068848,4309334.754943848,4510199.546813965,7775749.206542969,9413165.092468262,9153303.146362305,1384837.7466201782,3637124.0615844727,1362764.0008926392,7575025.55847168,7177728.652954102
0.08,23587623.596191406,34302574.157714844,32604927.06298828,11407104.4921875,9939682.006835938,6599741.9357299805,14642847.061157227,14674649.238586426,11041443.824768066,12820902.824401855,16316360.473632812,22838479.99572754,23261672.973632812,22548847.198486328,6071412.086486816,12445872.30682373,8314167.9763793945,7297288.89465332,11252614.974975586,9301145.553588867,13287399.291992188,21258773.803710938,23841161.727905273,6824969.76852417,17021203.994750977,5001626.491546631,3432460.308074951,811757.2665214539,4369936.466217041,8166126.251220703,20497617.721557617,43947711.94458008,7731410.026550293,6116041.18347168,7440253.257751465,162630.55801391602,1414391.5176391602,-2919245.958328247,11754613.876342773,19130521.774291992,13963020.324707031,7289052.486419678,-11949341.773986816,4119160.1753234863,1235060.453414917,2158194.5419311523,396631.65807724,8876070.976257324,8971439.361572266,9120536.804199219,4482576.847076416,3693722.96333313,2929187.774658203,2400723.695755005,8628753.662109375,9113098.14453125,9047809.600830078,1944660.3059768677,2241950.273513794,2528575.897216797,8481513.977050781,8313085.556030273
0.085,12347994.804382324,25160058.975219727,25534469.604492188,6355084.8960876465,6316766.738891602,664783.5373878479,10879891.395568848,10753991.12701416,10338829.040527344,13980526.9241333,16558021.545410156,20588563.919067383,19370012.283325195,18511907.57751465,3128437.280654907,8622387.886047363,8310287.4755859375,7394637.584686279,13047472.00012207,10384472.846984863,12183848.38104248,18711120.60546875,20128515.243530273,3777435.541152954,13693854.331970215,4114202.9762268066,2883644.1040039062,1018044.114112854,4995243.072509766,7129351.615905762,18997179.03137207,39686222.076416016,4765861.511230469,3260614.1567230225,4697083.473205566,-1313908.2193374634,1549872.0407485962,-3092704.2961120605,10373744.010925293,17725852.966308594,12685194.969177246,4373566.150665283,-13709192.276000977,658197.9990005493,-1071426.510810852,-848556.637763977,-1953930.2587509155,6742157.936096191,7038703.918457031,7398792.743682861,684617.6981925964,-395626.12771987915,-1125589.8475646973,-640682.04164505,5854454.517364502,6886813.640594482,6996367.454528809,1313217.9975509644,-1890507.9364776611,-149546.0718870163,5784441.947937012,5590037.822723389
0.09,14112466.812133789,29392211.9140625,29232641.220092773,6350986.003875732,8372025.489807129,-7092639.923095703,6202085.018157959,6190174.102783203,9270513.534545898,14411220.55053711,16921800.61340332,19312620.162963867,16668624.877929688,15675125.122070312,-4275897.026062012,3812668.800354004,6326529.026031494,5366994.857788086,13567875.862121582,9310868.263244629,10988185.88256836,15559017.181396484,17220819.4732666,-3633697.509765625,7414124.488830566,2434918.165206909,1725711.464881897,935246.2291717529,4596745.491027832,5705030.918121338,15641086.57836914,32955905.91430664,-2526116.8479919434,-3746802.568435669,2683789.7300720215,-2397956.8481445312,1451766.014099121,-3478225.4695892334,9291126.251220703,15146290.77911377,7302997.11227417,-3003171.682357788,-19819438.934326172,-3460576.295852661,-2711771.249771118,-3692627.9067993164,-3778594.970703125,3488695.3830718994,3965446.710586548,4134865.2839660645,-5519186.496734619,-6373205.661773682,-7027626.991271973,-3576927.423477173,-1917869.9254989624,1087802.767753601,1181434.7505569458,-4009361.2670898438,-7811463.356018066,-7818552.9708862305,-2054784.0595245361,-2508535.623550415
0.095,21792385.10131836,36934597.01538086,36628662.109375,8483418.464660645,12294816.970825195,-11695890.426635742,3415868.7591552734,3571846.7235565186,8104198.455810547,13794372.55859375,17362102.508544922,19134187.698364258,16332307.815551758,15364460.945129395,-9625650.405883789,2123764.5149230957,4329420.08972168,3279357.1949005127,12840148.92578125,7608873.36730957,10944645.881652832,13136286.735534668,16519960.403442383,-8812771.797180176,3663955.6884765625,2480508.56590271,1209408.7600708008,686068.1176185608,3719483.3755493164,4998182.29675293,13079588.890075684,27985849.380493164,-7718509.197235107,-8676972.389221191,3418023.109436035,-1610435.128211975,1301141.2620544434,-3958091.4974212646,9038300.514221191,12616327.285766602,2153377.056121826,-8249428.749084473,-25566118.240356445,-4985527.038574219,-2384892.463684082,-4581246.852874756,-4413091.18270874,959834.8140716553,1349165.2011871338,1146724.7009277344,-9922674.179077148,-10267089.84375,-10799617.767333984,-4690760.135650635,-8778033.256530762,-4918977.2605896,-4909837.245941162,-10504150.390625,-11477345.46661377,-14397792.81616211,-9073143.95904541,-9681929.588317871
0.1,22508857.72705078,35258754.73022461,37165920.25756836,8877503.395080566,12287041.664123535,-9468919.75402832,4286504.26864624,4408002.853393555,7253808.498382568,12246203.422546387,16982667.922973633,19449195.861816406,17999738.693237305,17192855.834960938,-6961405.277252197,4915608.882904053,3854717.016220093,2721815.347671509,10876904.487609863,6593942.165374756,11865129.470825195,13360033.988952637,18095617.294311523,-6002503.871917725,6400390.148162842,4858458.995819092,1455606.5797805786,472690.07563591003,3367500.5435943604,5876996.040344238,14506879.806518555,28734252.9296875,-5033191.680908203,-5951157.093048096,6722106.456756592,713415.5035018921,1160145.9980010986,-3715829.1339874268,10028455.73425293,12688625.33569336,2899483.6807250977,-5539943.695068359,-23799659.729003906,-1895939.1117095947,504118.32332611084,-2735880.8517456055,-3462538.480758667,2072249.8893737793,2209026.098251343,1985791.9216156006,-8230156.898498535,-8356091.499328613,-8842178.344726562,-3067451.238632202,-8055885.314941406,-5291646.0037231445,-5211975.09765625,-10978906.631469727,-9415693.283081055,-13545271.873474121,-8449233.055114746,-8938340.187072754
0.105,15831007.957458496,26006217.95654297,29816444.396972656,8736533.164978027,8971082.68737793,-1353652.4772644043,8853807.44934082,8762779.235839844,7943984.031677246,11133690.83404541,16122955.322265625,20937538.146972656,21422674.17907715,20754795.07446289,2547674.6559143066,10481017.112731934,4937280.178070068,3768274.3072509766,8408267.974853516,6373528.003692627,12914652.824401855,17136789.321899414,21774909.97314453,3433910.131454468,14315001.487731934,8078251.838684082,1973011.1360549927,375023.5140323639,3798768.5203552246,8250688.552856445,20109485.626220703,35160633.0871582,4321128.368377686,3257598.400115967,11001248.359680176,3124591.827392578,996561.5272521973,-2453843.355178833,12474784.851074219,16638946.533203125,9265121.459960938,3794194.459915161,-14091829.299926758,4362000.465393066,4949286.460876465,670052.5879859924,-1255479.2165756226,6962484.359741211,7038951.873779297,7186291.694641113,-1167859.5542907715,-1570414.0663146973,-2180550.3368377686,345968.96171569824,-746360.1231575012,959685.206413269,1257359.7431182861,-4177716.2551879883,-2771458.148956299,-6387943.267822266,-1134970.4265594482,-1422819.3759918213
0.11,9852331.161499023,17991222.381591797,20023406.982421875,10071055.41229248,6338325.500488281,6653927.803039551,14199219.703674316,13944281.578063965,9859486.57989502,11143577.575683594,15436544.418334961,23222459.79309082,25032539.36767578,24382976.531982422,11863207.817077637,15790262.222290039,6327980.995178223,5248568.058013916,6495839.595794678,6087031.841278076,13229420.66192627,21702438.354492188,25634939.193725586,12570056.915283203,22179161.071777344,10458600.997924805,2663573.2650756836,343380.3617954254,4128992.5575256348,10524847.984313965,25910625.457763672,42373172.760009766,13434509.27734375,12263179.779052734,14539097.785949707,4694949.626922607,852359.8909378052,-744671.4043617249,15497275.352478027,21904153.82385254,14570494.651794434,12791314.125061035,-4888808.727264404,9588640.213012695,8725300.788879395,3683592.0810699463,1501686.692237854,11788492.202758789,12096625.328063965,12437734.603881836,5689245.700836182,4851008.415222168,4052438.735961914,3606063.6043548584,5974819.183349609,8131116.86706543,8555287.36114502,3176294.5652008057,3419087.4099731445,423580.43789863586,5654356.479644775,5421218.8720703125
0.115,7830679.416656494,14553636.55090332,12276515.96069336,10773882.865905762,5369035.720825195,7978524.208068848,15793439.865112305,15567229.270935059,10635097.50366211,11288496.017456055,14622238.159179688,23941389.083862305,26075229.64477539,25358564.376831055,14658941.268920898,18090696.334838867,6744525.909423828,5866267.204284668,5726748.943328857,5263725.757598877,12489807.12890625,22670804.977416992,26632297.51586914,15316511.154174805,25114450.454711914,11112876.892089844,3478065.013885498,338229.5370101929,3626197.8149414062,10833535.194396973,27487134.93347168,44957252.502441406,16124404.907226562,14984858.512878418,15546337.127685547,5161237.2398376465,843489.408493042,549952.7454376221,17422422.409057617,23887264.251708984,13169857.025146484,15365858.07800293,-4919337.749481201,10064349.174499512,9837707.51953125,5098286.6287231445,4052788.734436035,12635703.086853027,13156999.588012695,13087321.281433105,7143500.328063965,6064946.174621582,5250793.45703125,5248103.618621826,7207115.650177002,10141635.89477539,10437566.757202148,4568626.403808594,4697934.150695801,2452758.0738067627,7000638.961791992,6712067.127227783
0.12,7813960.075378418,15088459.968566895,10230187.41607666,8338454.246520996,5077028.274536133,1307958.8413238525,11864059.448242188,11796294.212341309,9457444.190979004,11228404.04510498,13909249.305725098,22429340.362548828,24165525.436401367,23377029.418945312,9703348.159790039,15971524.238586426,6194402.694702148,5438357.830047607,6476690.292358398,5086957.4546813965,11863383.293151855,19567995.071411133,24488540.649414062,10452019.691467285,21650861.740112305,9710317.611694336,3803448.9154815674,400005.84721565247,3188935.7566833496,9508378.982543945,24540367.126464844,41889892.578125,11221301.078796387,10112843.51348877,12488267.89855957,4123740.6730651855,994763.1359100342,718373.715877533,17494232.177734375,20732002.25830078,5972119.331359863,10412985.801696777,-14055353.164672852,5357434.7496032715,7590706.825256348,4348565.578460693,5140801.906585693,9499901.77154541,9943925.857543945,9167095.184326172,2534182.31010437,1427833.7955474854,853167.8915023804,4485037.803649902,3877567.768096924,6331281.661987305,6356712.818145752,472266.4952278137,422376.5730857849,351758.8675022125,3790226.2210845947,3485748.767852783
0.125,10282929.420471191,21166652.67944336,17253582.000732422,5134122.371673584,6647683.620452881,-9064791.679382324,5376154.899597168,5443972.587585449,8826399.803161621,12628046.989440918,15147668.838500977,21740934.371948242,22531503.677368164,21694852.828979492,-57872.15009331703,9971095.085144043,5766900.539398193,4896795.272827148,9055867.195129395,7344908.714294434,13335093.49822998,16586212.158203125,22672174.45373535,753914.5946502686,13939400.672912598,6571982.860565186,3129672.5273132324,560769.4983482361,4396448.612213135,9004177.09350586,20525928.497314453,36077274.322509766,1655622.4822998047,476848.93012046814,5940192.699432373,1414156.6753387451,1191142.0822143555,-641593.8138961792,16447347.640991211,14994995.1171875,-2543201.9233703613,828462.3026847839,-24574565.887451172,-1672208.1899642944,2863968.61076355,1106595.9930419922,3298167.7055358887,5134662.15133667,5348746.776580811,4238752.365112305,-5019124.507904053,-6022305.488586426,-6316396.713256836,1060230.8511734009,-1556703.805923462,-78073.47178459167,-208591.0439491272,-5051529.407501221,-6797146.797180176,-4075609.2071533203,-1640348.3152389526,-1951717.734336853
0.13,14713981.628417969,30305139.541625977,28547065.73486328,4312879.0855407715,10540226.936340332,-18644001.007080078,270131.26015663147,378589.09368515015,10163754.4631958,15690506.935119629,18589645.385742188,23741624.83215332,23076082.229614258,22198047.637939453,-10038517.951965332,2461284.1606140137,5798563.480377197,4696890.830993652,12252583.503723145,11311034.202575684,16625209.80834961,16327817.916870117,23115568.161010742,-9236168.86138916,6152013.301849365,3091501.235961914,1958788.3949279785,735966.8016433716,6810919.284820557,10339584.350585938,18134365.08178711,30176200.86669922,-8071902.275085449,-9253472.328186035,-361493.7663078308,-1671807.7659606934,1313936.2335205078,-3087035.4175567627,15127345.085144043,10284964.561462402,-9846108.436584473,-8877842.903137207,-29756124.49645996,-6906766.891479492,-1768247.6043701172,-3488963.6039733887,-1064510.2262496948,1422356.7247390747,1558236.9565963745,697336.2565040588,-11452679.634094238,-12159048.080444336,-12403810.501098633,-3647841.453552246,-8101618.766784668,-6182089.805603027,-6234389.781951904,-10409065.246582031,-13096812.24822998,-10146069.526672363,-8353677.749633789,-8817178.726196289
0.135,13887286.186218262,31738286.9720459,30692140.579223633,3663983.106613159,12445762.634277344,-26187086.10534668,-2749728.4412384033,-2645944.118499756,10370884.895324707,16586053.848266602,20363580.70373535,25156412.12463379,23170578.002929688,22253313.064575195,-15705213.54675293,-3356920.9575653076,5092091.083526611,3909919.261932373,12887968.063354492,13062144.27947998,18165964.126586914,16263025.283813477,23105112.075805664,-14871542.930603027,2266072.5116729736,1093180.6564331055,1233972.7878570557,739881.9327354431,7633671.283721924,11132493.019104004,17008531.57043457,25365987.77770996,-13541711.807250977,-14460573.196411133,-2121241.807937622,-2881046.2951660156,1318621.9930648804,-5243660.449981689,13618364.334106445,7819796.085357666,-15403808.59375,-14209790.229797363,-28975673.67553711,-7407450.6759643555,-3021251.678466797,-6200154.781341553,-4693954.4677734375,-1222283.124923706,-998659.8491668701,-1447608.232498169,-13725645.065307617,-13957957.26776123,-14382252.69317627,-6311035.633087158,-13748563.766479492,-10043722.152709961,-9924524.307250977,-15545313.835144043,-15183715.8203125,-15727601.051330566,-14187771.797180176,-14923846.244812012
0.14,3401029.348373413,20415597.915649414,18857940.673828125,-438567.4297809601,8603956.22253418,-31420440.673828125,-5075312.614440918,-4956766.128540039,6429977.893829346,12185069.08416748,16958196.64001465,22563472.747802734,20621389.389038086,19699047.088623047,-14658817.291259766,-5135874.271392822,2782844.7818756104,1744553.0891418457,9099207.878112793,9849371.910095215,15397868.156433105,13946310.043334961,20519311.904907227,-13727070.808410645,3650752.067565918,1260008.9311599731,1059744.8348999023,453135.1923942566,5199789.047241211,8998504.638671875,16176971.435546875,23500820.15991211,-12399050.71258545,-12935955.047607422,1256287.693977356,-1454905.9867858887,1175056.3383102417,-5984992.504119873,12253742.218017578,7068154.811859131,-17636726.37939453,-12839710.235595703,-25100641.25061035,-3179004.669189453,345031.14223480225,-4490492.343902588,-4502323.150634766,-1908286.5715026855,-1694350.4810333252,-1981643.557548523,-10979239.463806152,-10864672.660827637,-11446704.864501953,-4533790.111541748,-14500053.405761719,-9815959.930419922,-9682379.722595215,-17607051.849365234,-12106470.108032227,-16435621.26159668,-14934534.072875977,-15817168.235778809
0.145,-5480961.322784424,10673964.500427246,9263151.168823242,-4733221.530914307,3976120.710372925,-32820812.225341797,-6553647.518157959,-6419713.497161865,1543452.262878418,6245202.541351318,11553370.475769043,19347270.965576172,19353164.672851562,18497259.14001465,-9246274.948120117,-3084492.9218292236,199451.37202739716,-679289.4005775452,3721066.951751709,4384335.994720459,11136326.789855957,12580238.342285156,19430242.53845215,-8269681.930541992,7779837.131500244,2467742.2046661377,754047.8110313416,-4064.350388944149,1656600.5945205688,5585600.852966309,16395715.713500977,26798547.744750977,-6921968.936920166,-7339385.032653809,5879354.476928711,691717.5054550171,876592.3976898193,-5693781.852722168,12116055.488586426,7873515.605926514,-14948346.138000488,-7216216.087341309,-20504251.48010254,2463554.620742798,5501520.156860352,-157726.988196373,-1505609.7507476807,340540.0812625885,333218.2765007019,14561.28153949976,-5561350.8224487305,-5505205.6312561035,-6077531.337738037,-254086.73286437988,-9454874.992370605,-5721117.973327637,-5817885.398864746,-13401524.543762207,-6542600.631713867,-10856942.176818848,-9714813.232421875,-10466901.779174805
0.15,3815306.9019317627,21829519.271850586,21749656.677246094,-1417489.5286560059,8385150.909423828,-30007999.420166016,-5397891.521453857,-5310121.536254883,2303086.042404175,6527165.88973999,11724637.031555176,22615140.914916992,25447784.423828125,24726099.014282227,-5462885.37979126,76622.27749824524,-296081.7217826843,-1211709.0225219727,2102071.762084961,2481937.885284424,10883462.905883789,17261596.6796875,25844047.54638672,-4546648.5023498535,10254064.559936523,3054053.783416748,120159.90167856216,-309905.9760570526,599133.7299346924,4899233.818054199,18864702.224731445,34366424.560546875,-3037315.845489502,-3722563.9820098877,7417385.101318359,1041491.5084838867,562063.0383491516,-5708577.1560668945,13609851.837158203,10295616.149902344,-9330051.42211914,-3371349.096298218,-16842939.376831055,5018021.583557129,7749902.725219727,1929339.1704559326,118043.81012916565,4142108.44039917,3921093.463897705,3623566.6275024414,-2033731.460571289,-2298581.838607788,-2816454.8873901367,1709445.2381134033,-4119441.032409668,-1687272.071838379,-2074022.2930908203,-6104966.640472412,-3299909.5916748047,-4419619.083404541,-4274450.302124023,-4785971.164703369
0.155,28983146.66748047,50828392.028808594,51805873.87084961,10492664.337158203,23347850.799560547,-26054891.58630371,-1410723.4477996826,-1421949.028968811,9794152.25982666,15053682.327270508,19992574.69177246,33503856.658935547,38316020.96557617,37731700.8972168,-6926613.330841064,1760013.9379501343,1837686.1810684204,732337.5344276428,6054903.984069824,6378317.356109619,16077724.45678711,27311609.268188477,38874275.20751953,-6074916.362762451,9117549.896240234,2605207.4432373047,-183330.92331886292,-225481.0780286789,2714314.4607543945,8255739.212036133,23209505.081176758,41940387.72583008,-4420551.776885986,-5463459.014892578,5283647.060394287,-746365.9644126892,482716.3517475128,-6552507.400512695,15647474.28894043,13472082.138061523,-4973031.997680664,-4904080.867767334,-16096355.438232422,2586128.4732818604,5412667.274475098,-435881.19745254517,-1669858.9324951172,6308843.13583374,6132608.413696289,5910480.02243042,-3305352.4494171143,-3754935.9798431396,-4318704.128265381,-700347.7811813354,-4515467.166900635,-1593621.2539672852,-2058088.3026123047,-3851890.3255462646,-5002810.001373291,-4033487.7967834473,-4766418.45703125,-5204445.838928223
0.16,46840820.3125,71636001.58691406,71981765.74707031,21839122.772216797,37818161.01074219,-24323562.622070312,2913340.5685424805,2836529.7317504883,17532262.802124023,24924863.815307617,29990036.010742188,44599491.119384766,49735984.802246094,49221248.626708984,-10324665.069580078,2291522.0260620117,4778128.147125244,3556816.339492798,11851883.888244629,12415831.565856934,22450464.248657227,36132862.09106445,50154106.14013672,-9466183.66241455,7051342.964172363,2333588.3617401123,361776.9479751587,178779.92987632751,5496093.273162842,13061800.003051758,27904928.20739746,46480274.20043945,-7861138.343811035,-9025197.982788086,2447974.681854248,-2764032.3638916016,744057.6553344727,-7419137.954711914,17128332.138061523,16159824.37133789,-2709030.1513671875,-8489940.643310547,-18867094.039916992,-2142203.3309936523,1538960.337638855,-4147735.118865967,-4359728.813171387,5819501.876831055,5909973.621368408,5696981.430053711,-7364043.712615967,-7727818.965911865,-8367869.3771362305,-4330351.829528809,-9181375.503540039,-4142381.191253662,-4394938.4689331055,-9424089.431762695,-9180899.620056152,-9280514.71710205,-9583181.381225586,-10149312.973022461
0.165,41062973.02246094,66360427.85644531,64899177.55126953,23768943.786621094,40068733.21533203,-24425743.103027344,4853889.465332031,4784367.561340332,19310680.389404297,28488491.05834961,33861484.52758789,48279582.97729492,52739723.205566406,52218414.306640625,-9451873.779296875,3888297.3194122314,6559086.799621582,5440249.919891357,14873052.597045898,15864512.44354248,25406070.709228516,38750865.9362793,52924667.35839844,-8568805.694580078,8003136.63482666,3451473.4745025635,1336932.897567749,625619.8287010193,6947179.794311523,16392934.799194336,31588230.13305664,48925155.63964844,-7123779.773712158,-8195462.226867676,1673902.8692245483,-3312276.601791382,1169193.7446594238,-7454634.666442871,18286432.26623535,17991554.260253906,688480.5560112,-7875401.496887207,-22387847.900390625,-4668879.508972168,-9016.130119562149,-5104345.321655273,-4661445.140838623,5150626.182556152,5488574.981689453,5308656.692504883,-9255407.333374023,-9527414.321899414,-10133296.966552734,-5165938.377380371,-11140823.364257812,-4577905.654907227,-4500703.33480835,-15438329.696655273,-10901062.965393066,-12718432.426452637,-11541767.120361328,-12221346.855163574
0.17,22204149.24621582,46539142.60864258,44052604.67529297,17614080.42907715,30921493.530273438,-24103185.653686523,3782892.7040100098,3729479.5513153076,15856817.245483398,25589292.526245117,30854171.752929688,44688835.14404297,48732078.552246094,48183055.87768555,-3734799.1466522217,6663307.189941406,6664977.550506592,5794254.302978516,14250722.885131836,15847734.451293945,24637245.178222656,36588008.880615234,48882034.30175781,-2850122.6902008057,11729475.021362305,5291528.224945068,1788517.2367095947,910532.7725410461,7472838.401794434,17637878.41796875,33191745.75805664,50990718.841552734,-1473511.0998153687,-2478049.0398406982,2826259.8514556885,-2615979.4330596924,1485356.5692901611,-6655552.864074707,19633504.86755371,19166872.024536133,6467975.616455078,-2316635.847091675,-22652475.357055664,-3491738.796234131,1181372.5233078003,-3248234.0335845947,-2647122.1446990967,6554563.522338867,6973855.972290039,7007054.328918457,-6686518.19229126,-7130432.12890625,-7633780.479431152,-3247776.0314941406,-7594191.551208496,-1513063.3115768433,-1199270.7252502441,-13501893.043518066,-8339466.094970703,-9672410.96496582,-7848690.986633301,-8482712.745666504
0.175,13529556.274414062,37577045.44067383,35968349.45678711,12043317.794799805,22370311.737060547,-23594806.671142578,1200400.710105896,1122799.1580963135,12309846.878051758,21607576.370239258,26473117.82836914,40232673.64501953,44864173.889160156,44311088.56201172,448598.32525253296,7708564.281463623,5527448.654174805,4861571.788787842,12002920.150756836,14469431.87713623,22867567.06237793,34510368.34716797,45178485.87036133,1388389.8258209229,13724658.012390137,5774133.205413818,1159755.1107406616,1001406.6696166992,7863972.6638793945,17557474.13635254,32198234.55810547,51857093.811035156,2808888.9122009277,1763105.6308746338,3863890.1710510254,-2028445.0054168701,1559347.6295471191,-5326629.161834717,20623874.66430664,19502683.639526367,10580260.276794434,1985737.681388855,-19155460.357666016,-1195138.931274414,2795481.9202423096,-1451169.8484420776,-619659.7218513489,8876536.36932373,9250808.715820312,9506017.684936523,-2545640.468597412,-3353833.1985473633,-3857787.609100342,-1470196.6047286987,-3291110.7540130615,1304397.3445892334,1704882.5025558472,-5434804.916381836,-4606881.618499756,-4095882.4157714844,-3438170.1946258545,-3973207.712173462
0.18,22924690.24658203,48423133.850097656,48621143.34106445,12644107.818603516,23696098.32763672,-24917137.145996094,-691311.0613822937,-769093.8115119934,11580163.955688477,19810197.830200195,24862596.51184082,39872356.41479492,45859653.47290039,45323135.37597656,-1760337.8295898438,5305785.179138184,3740165.7104492188,3119043.1118011475,9591169.357299805,13004455.56640625,22023742.67578125,35250766.75415039,46283000.94604492,-658400.9528160095,11232317.924499512,4136012.554168701,-199398.33879470825,938907.3848724365,7514294.624328613,16763309.478759766,29665754.318237305,50049358.36791992,772731.1253547668,-285268.51534843445,3622077.226638794,-2236226.5586853027,1415251.37424469,-3596564.531326294,20516370.77331543,18777915.954589844,8809233.665466309,121943.84634494781,-15874700.546264648,-664024.2338180542,3469723.2246398926,-869099.0805625916,521121.91915512085,9622940.063476562,9895667.07611084,10031582.832336426,-1123793.7211990356,-2181123.733520508,-2842271.566390991,-950481.8916320801,-3081403.2554626465,871898.8299369812,1279588.4609222412,-848146.6174125671,-3612286.329269409,-2609050.512313843,-3287963.1519317627,-3820977.4494171143
0.185,36647785.18676758,64240325.927734375,65606628.41796875,16840812.68310547,31398946.76208496,-27800413.131713867,-931470.3345298767,-928092.896938324,12136512.756347656,18742803.5736084,24759275.436401367,42258758.544921875,49432563.78173828,48931045.53222656,-7325804.233551025,1907239.1986846924,1999877.8104782104,1304196.5961456299,7162329.67376709,10893429.75616455,21677772.521972656,37229251.861572266,49762424.46899414,-6064452.648162842,6963144.302368164,2211157.5603485107,-1318279.74319458,796328.4850120544,5724742.412567139,15594433.784484863,27399263.381958008,46347793.57910156,-4718196.868896484,-5656931.400299072,2766946.315765381,-2790625.3337860107,1165547.1324920654,-2071377.5157928467,19527334.213256836,17121702.194213867,2646370.8877563477,-5147466.18270874,-16611030.578613281,-1845883.7270736694,3735476.9706726074,-241317.0486688614,1427634.358406067,8445285.79711914,8554369.926452637,8282152.17590332,-3172062.397003174,-4159057.140350342,-5020565.032958984,-372739.40443992615,-5565618.03817749,-1207106.113433838,-823173.2845306396,-4638747.692108154,-5617723.46496582,-5887597.08404541,-5958277.225494385,-6524716.377258301
0.19,37177387.23754883,65105316.162109375,67045936.584472656,17285335.540771484,33083316.802978516,-30104475.021362305,-1508188.3668899536,-1445068.7170028687,10637524.604797363,15937782.287597656,22492435.455322266,41524024.963378906,48762363.43383789,48330116.271972656,-10123799.324035645,487753.15284729004,639140.3079032898,-125183.49289894104,5008899.688720703,7803043.842315674,20099840.16418457,36333477.02026367,48941265.10620117,-8858975.410461426,5015834.808349609,1866032.7196121216,-1570008.0394744873,729619.3242073059,3418012.857437134,14110013.961791992,25172433.853149414,42440929.4128418,-7600022.315979004,-8388699.531555176,2046907.901763916,-3200017.213821411,1024867.1770095825,-1914746.9997406006,18023498.53515625,14338270.18737793,-2694209.575653076,-7910139.083862305,-20742551.803588867,-3267181.634902954,3717469.6922302246,622002.899646759,1765278.4585952759,6678377.628326416,6575340.270996094,6096411.228179932,-6094980.239868164,-6775815.010070801,-7779361.724853516,483215.92807769775,-6754284.381866455,-2449120.9983825684,-2140892.0288085938,-11408755.3024292,-8093821.5255737305,-9263137.817382812,-7334216.117858887,-7794563.293457031
0.195,20651561.737060547,45950969.69604492,49176120.75805664,9427148.818969727,21497869.49157715,-31939516.067504883,-5788712.501525879,-5835749.14932251,5518578.052520752,11544222.831726074,17077796.936035156,33863101.959228516,39762191.77246094,39396934.509277344,-9513574.600219727,-210407.0782661438,-931104.838848114,-1685685.0385665894,3854397.0584869385,4886487.007141113,16281492.233276367,30096847.534179688,39945835.11352539,-8395672.798156738,5147705.078125,2067786.455154419,-1484498.6200332642,877338.171005249,2198450.803756714,11967406.272888184,20827045.440673828,38399879.455566406,-7134167.671203613,-7910068.511962891,840474.1287231445,-3772438.7645721436,1203550.6963729858,-3290655.1361083984,15745900.15411377,10050072.66998291,-4598385.334014893,-7467085.838317871,-24409080.505371094,-4939081.66885376,2406546.8311309814,-16021.128743886948,381728.26170921326,5004098.892211914,4773159.027099609,4529679.298400879,-7871784.210205078,-8271803.855895996,-9346509.93347168,-143994.53997612,-6447611.8087768555,-3451699.733734131,-3277013.063430786,-13390089.03503418,-9522793.769836426,-9969176.292419434,-7125595.569610596,-7362909.317016602
0.2,-906309.9026679993,20384370.803833008,25586605.072021484,-2668510.675430298,4402436.256408691,-35233543.395996094,-13324253.08227539,-13589558.601379395,-810786.3068580627,8267674.446105957,11891359.329223633,23168344.497680664,26974153.518676758,26565891.26586914,-9891718.864440918,-3145954.6089172363,-3064803.3618927,-3766683.81690979,3998909.2350006104,3772033.69140625,11746158.599853516,21581012.725830078,27291200.637817383,-8915073.39477539,4226954.460144043,507498.20470809937,-2175890.2072906494,1145339.9658203125,2393748.5218048096,9484477.996826172,14651867.866516113,34293537.13989258,-7581785.202026367,-8494624.137878418,-1477414.846420288,-4972522.735595703,1620826.005935669,-4482149.600982666,13350471.496582031,5745184.898376465,-4489284.992218018,-8009041.786193848,-25169549.9420166,-7572703.838348389,-2231.5566893666983,-2256983.757019043,-1805740.8332824707,3855297.327041626,3721355.676651001,3766484.022140503,-8538132.667541504,-8834563.255310059,-9892173.767089844,-2403491.735458374,-6945574.760437012,-5134865.760803223,-5074136.257171631,-9889482.498168945,-10152736.66381836,-9586829.18548584,-7626248.359680176,-7768521.308898926
0.205,-9862051.010131836,9082758.903503418,15188740.730285645,-8157198.905944824,-1863167.5243377686,-38567001.34277344,-17786931.99157715,-18125110.626220703,-2973355.293273926,9024974.822998047,11654487.609863281,18746009.826660156,21008684.158325195,20423418.045043945,-12638897.895812988,-6573890.686035156,-4176630.0201416016,-4858656.406402588,5366795.063018799,5100917.339324951,10138173.10333252,18084871.292114258,21381225.5859375,-11686915.397644043,2264904.260635376,-2180511.474609375,-3693644.5236206055,1254868.0305480957,3163286.4475250244,8602967.262268066,11323452.949523926,32861087.799072266,-10304148.67401123,-11345764.16015625,-3467592.716217041,-6317367.076873779,1871725.4400253296,-3846495.1515197754,13364072.799682617,4982782.363891602,-3997523.307800293,-10809012.413024902,-23771411.895751953,-9859906.196594238,-1163352.370262146,-3204859.0183258057,-1851801.037788391,4914830.684661865,5043672.561645508,4973597.049713135,-8164159.774780273,-8461547.8515625,-9382967.948913574,-3385426.7597198486,-7476035.118103027,-5057811.260223389,-4998035.907745361,-6019354.343414307,-9773531.913757324,-9384788.513183594,-8117511.749267578,-8420079.231262207
0.21,1937162.7569198608,21548851.013183594,26880695.343017578,-511092.6032066345,9413999.557495117,-37226474.76196289,-13759002.685546875,-13907505.03540039,1961908.5788726807,14095046.997070312,17394668.579101562,25266441.345214844,27684099.197387695,26964508.056640625,-13621644.020080566,-5107949.256896973,-2172237.3962402344,-2882687.3302459717,7862507.343292236,8020040.512084961,13484030.723571777,23566850.662231445,27961013.793945312,-12628312.110900879,2773036.9567871094,-2592532.8731536865,-4642789.363861084,1096635.8184814453,3970723.6289978027,10987554.550170898,14563073.15826416,36940528.869628906,-11290932.655334473,-12320090.293884277,-2785644.769668579,-6690195.083618164,1693362.2360229492,-2156558.036804199,17292907.71484375,9306779.861450195,-2866216.6595458984,-11792223.930358887,-21863122.940063477,-9284169.19708252,566675.60338974,-929448.8430023193,1304884.1953277588,9305616.37878418,9607895.851135254,9162961.959838867,-5891417.980194092,-6179018.974304199,-6909977.912902832,-1071369.0519332886,-4674769.401550293,-616028.6068916321,-459047.25790023804,-4336574.554443359,-7329362.392425537,-7458601.951599121,-5275354.385375977,-5799622.058868408
0.215,24382320.404052734,46392486.572265625,51250091.552734375,13462121.00982666,26686931.610107422,-30630001.068115234,-4864008.903503418,-4745613.098144531,9837736.129760742,19927713.39416504,24547275.54321289,36279670.71533203,40478401.18408203,39852111.81640625,-10197303.771972656,1644114.375114441,1945571.780204773,1215205.9078216553,10715913.772583008,10661405.563354492,18917228.69873047,32925861.358642578,40643321.9909668,-9218727.111816406,6423189.163208008,240846.05276584625,-4011098.3848571777,896865.725517273,4802292.823791504,14983495.712280273,21135648.727416992,44132122.03979492,-8011506.080627441,-8927734.375,248333.1710100174,-5946037.769317627,1344816.6847229004,-1691208.2433700562,22325277.32849121,14838685.035705566,-1328310.6088638306,-8414308.547973633,-20085788.72680664,-6100651.741027832,3461896.6579437256,2244885.9214782715,4877224.922180176,14343544.960021973,14555816.650390625,13979868.88885498,-2185634.3746185303,-2498948.335647583,-3131044.864654541,2249818.5634613037,1226427.435874939,5449052.810668945,5665478.706359863,-2264269.5903778076,-3538947.820663452,-2716491.460800171,691497.0874786377,128221.60124778748
0.22,37533649.44458008,61634128.57055664,67804473.87695312,20016941.07055664,33417381.286621094,-25436010.360717773,-666676.40209198,-451511.9791030884,13059683.799743652,21995635.986328125,27287302.017211914,40999565.12451172,46815280.91430664,46408290.86303711,-6290702.819824219,6462347.507476807,4191279.888153076,3494042.158126831,12284394.264221191,11479942.321777344,21212087.631225586,36795783.99658203,46928764.34326172,-5404896.259307861,8763991.355895996,2768861.2937927246,-2622098.684310913,900752.7232170105,5326965.33203125,16604482.650756836,23674608.23059082,47631469.7265625,-4305771.350860596,-5137623.310089111,2238974.8096466064,-5387141.227722168,1255279.302597046,-3112438.917160034,23667209.62524414,15774107.933044434,-1537525.5346298218,-4593518.257141113,-19221256.256103516,-3938967.46635437,4402385.711669922,2802469.9687957764,5627526.28326416,15279290.199279785,15268327.713012695,14919248.580932617,78171.14889621735,-356393.9929008484,-1026587.724685669,2954671.859741211,5039243.698120117,7321029.6630859375,7459601.402282715,1741961.7176055908,-1481335.5207443237,1323009.8485946655,4629479.40826416,4148263.454437256
0.225,32030040.740966797,56854560.85205078,64448883.056640625,14493550.300598145,27020648.956298828,-27514667.510986328,-4736875.534057617,-4635237.216949463,9619014.739990234,19584262.84790039,24601797.103881836,36629402.16064453,41780071.25854492,41413898.46801758,-7130110.263824463,3790334.939956665,2538167.4766540527,1891654.9682617188,11674797.058105469,10484025.001525879,18723968.505859375,32128234.86328125,41798583.984375,-6296083.927154541,6525366.306304932,1950648.4270095825,-1922670.841217041,1026154.3989181519,4948421.955108643,14285139.083862305,19508531.57043457,43787197.11303711,-5176163.673400879,-5988132.476806641,1067095.160484314,-5995268.34487915,1401466.965675354,-4736208.438873291,20404405.59387207,11271936.416625977,-4893752.574920654,-5443917.751312256,-20741889.95361328,-5128253.936767578,2947293.0431365967,899892.3897743225,3696875.57220459,11106499.671936035,11022006.034851074,10872814.178466797,-1266838.1929397583,-1752755.9995651245,-2476893.424987793,1056085.9441757202,3086250.5435943604,3745203.733444214,3749611.8545532227,3823151.8268585205,-2991085.5293273926,202656.8353176117,2822499.5136260986,2285813.093185425
0.23,17685245.513916016,41671066.28417969,48610877.990722656,5559312.82043457,18654199.600219727,-33841083.52661133,-10549932.479858398,-10653375.625610352,5031719.68460083,16184417.724609375,20370807.647705078,29962141.036987305,32406036.376953125,31831514.358520508,-11665802.001953125,-2171663.999557495,-338511.1689567566,-996106.3861846924,9956521.034240723,8830197.33428955,14633320.808410645,25057207.107543945,32266403.198242188,-10730022.430419922,2726316.213607788,-214140.31088352203,-2023458.480834961,1013873.4579086304,3693428.0395507812,10783456.802368164,13557273.864746094,36644168.853759766,-9505062.103271484,-10292878.150939941,-1138821.1250305176,-6938462.257385254,1385833.0249786377,-5097723.007202148,16641038.89465332,6393095.970153809,-9263959.884643555,-9833709.716796875,-24503751.754760742,-7569858.074188232,1539514.5416259766,-413974.3447303772,1618562.4599456787,6247023.105621338,6307849.407196045,6074255.94329834,-4612306.118011475,-4880895.137786865,-5560749.530792236,-398272.5143432617,-1859290.8382415771,-483797.3117828369,-506797.730922699,-100493.84832382202,-6073376.655578613,-5061783.790588379,-2042611.1221313477,-2806336.6413116455
0.235,8836531.639099121,30713733.673095703,36234977.72216797,1912510.871887207,16096754.07409668,-36690906.5246582,-11303507.804870605,-11596181.869506836,3909904.4799804688,14384580.612182617,17637542.724609375,27065134.048461914,27878559.112548828,27153717.041015625,-14173151.016235352,-3247991.3234710693,-1033094.8829650879,-1791793.942451477,8695869.445800781,7275633.335113525,12175355.911254883,22701055.5267334,27754533.767700195,-13049618.7210083,2096860.647201538,-47697.555273771286,-2056579.1130065918,840062.7374649048,2328087.80670166,9452308.654785156,11712263.107299805,33113033.294677734,-11809330.940246582,-12553932.189941406,-1233186.6025924683,-6838374.614715576,1125236.1536026,-4724221.706390381,16059791.564941406,5603341.579437256,-11013005.256652832,-12127044.677734375,-27216430.6640625,-8009605.407714844,1757531.2852859497,-45294.91439461708,707924.4256019592,5081072.807312012,5282316.207885742,4897615.432739258,-6463110.446929932,-6440922.737121582,-7017919.540405273,-172935.76896190643,-4356697.082519531,-1368144.5121765137,-1308199.0480422974,-7039683.3419799805,-7527816.295623779,-8655722.618103027,-4538772.106170654,-5426691.055297852
0.24,7762650.966644287,27458026.885986328,33634056.091308594,1885629.2963027954,15925387.382507324,-34032268.52416992,-8812383.651733398,-9188770.294189453,3976882.4577331543,12961674.690246582,15796846.389770508,26833669.662475586,29437322.61657715,28852682.11364746,-12383884.42993164,1180803.4181594849,-155711.18891239166,-1043820.7387924194,8030268.669128418,5849514.961242676,11400855.06439209,25392980.575561523,29631378.173828125,-11193645.477294922,3934586.524963379,1822898.507118225,-1937105.2980422974,732424.8552322388,1504517.1976089478,10354806.900024414,14091898.918151855,34899417.877197266,-10089134.216308594,-10863499.641418457,192025.12502670288,-6048386.096954346,1012566.2088394165,-4711334.705352783,17676700.592041016,7777843.952178955,-9806438.446044922,-10260957.717895508,-26109874.725341797,-6762846.946716309,2327134.370803833,13275.880366563797,264882.6539516449,6868443.012237549,7016667.366027832,6688958.644866943,-5909083.843231201,-5965787.410736084,-6488024.711608887,-135511.48772239685,-3187961.5783691406,-331497.57981300354,-253168.64252090454,-9699917.793273926,-7069090.366363525,-7548637.866973877,-3381243.4673309326,-4101292.133331299
0.245,7319613.933563232,26304962.158203125,34381214.1418457,19358.593970537186,13425663.948059082,-30601575.85144043,-8622240.06652832,-8902329.444885254,1482801.079750061,10561472.89276123,14037207.60345459,25855278.01513672,31572528.839111328,31183525.08544922,-9550132.751464844,4352152.347564697,-490352.72002220154,-1438879.132270813,7403757.095336914,5013408.660888672,11328104.019165039,28368289.947509766,32046455.38330078,-8512153.625488281,4048635.482788086,1818925.0230789185,-2227115.1542663574,773397.2668647766,1272082.6864242554,11321979.522705078,16408927.917480469,37447689.056396484,-7517042.636871338,-8425273.895263672,175704.2557001114,-6156342.98324585,1231484.8899841309,-4906911.849975586,18276317.596435547,8867835.998535156,-9262639.999389648,-7572584.629058838,-22786659.240722656,-6456591.1293029785,1758488.5358810425,-1329546.570777893,-258786.73791885376,8063583.3740234375,8083812.713623047,7915659.427642822,-4813120.8419799805,-5339125.633239746,-5880281.925201416,-1369874.4773864746,-1441347.9566574097,-227573.32026958466,-273046.2849140167,-5973882.675170898,-6517827.033996582,-4739654.064178467,-1624305.009841919,-2044565.200805664
0.25,4098849.7734069824,23905599.59411621,31520126.342773438,-2704608.917236328,11083900.451660156,-29633199.69177246,-10556563.377380371,-10676133.155822754,-1610493.6599731445,9187061.309814453,13936398.50616455,24477487.564086914,30322385.787963867,29817935.943603516,-8337267.875671387,2979250.192642212,-2106033.5636138916,-2993412.0178222656,7178947.448730469,5604652.881622314,12210640.907287598,28491737.365722656,30619029.998779297,-7511024.951934814,2170949.4590759277,-258769.9294090271,-2644220.1137542725,745766.2224769592,1342226.266860962,11414787.292480469,16172573.08959961,36744373.3215332,-6414445.400238037,-7425040.245056152,-1243885.5171203613,-7292744.6365356445,1352347.731590271,-4584640.026092529,17265535.354614258,7854546.546936035,-11654920.57800293,-6562841.892242432,-20559022.903442383,-7088008.403778076,1249790.6684875488,-1852550.8642196655,-86165.97950458527,7973835.468292236,8040219.306945801,7858410.358428955,-3743889.093399048,-4585726.261138916,-5185036.659240723,-1731367.826461792,-659085.5717658997,-96517.80128479004,-242232.94854164124,-965324.6402740479,-5741680.62210083,-3449004.650115967,-837083.0416679382,-1090066.1945343018
0.255,457434.0879917145,21013635.635375977,25760976.791381836,-2343463.659286499,12032363.891601562,-29241348.266601562,-10210721.969604492,-10443381.309509277,-1023219.7046279907,10722949.028015137,16089548.110961914,24427234.649658203,26956651.68762207,26137365.341186523,-7256000.995635986,1366036.057472229,-2754403.829574585,-3477614.402770996,7807495.594024658,6959141.254425049,13746253.01361084,26555311.20300293,26821088.790893555,-6463079.929351807,2056348.0854034424,-881487.7271652222,-2442237.615585327,498467.65398979187,1365229.1297912598,11451008.796691895,15021001.815795898,34426734.924316406,-5154379.844665527,-6109837.055206299,-787065.327167511,-7747947.692871094,968230.1878929138,-3962875.8430480957,16861803.05480957,7630611.419677734,-13991972.923278809,-5520663.261413574,-19243850.708007812,-5911254.8828125,2952780.7235717773,834458.9471817017,1608509.6597671509,9147362.70904541,9456681.251525879,9093170.166015625,-879268.9442634583,-1512884.7360610962,-2197222.2328186035,1069120.7647323608,1434783.5779190063,2867806.911468506,2796295.8812713623,1380124.2113113403,-2626890.4209136963,-1814417.6006317139,1268890.2616500854,1028791.9044494629
0.26,-557119.6675300598,20123231.887817383,23898241.04309082,233413.27905654907,14046075.820922852,-27750284.19494629,-7146006.5841674805,-7898444.652557373,2487629.6520233154,13008161.544799805,17787755.966186523,25048151.01623535,25233592.987060547,24387144.088745117,-5317368.507385254,3176053.047180176,-2228594.5415496826,-2755176.544189453,8458341.598510742,6967103.004455566,13972607.612609863,24811561.584472656,25050539.016723633,-4358754.1580200195,3830506.0863494873,813029.7064781189,-2177189.1117095947,235018.9834833145,1077017.6649093628,11899917.602539062,15391597.747802734,34443824.768066406,-3004849.672317505,-3842603.2066345215,2201458.215713501,-6938025.47454834,391226.6790866852,-3971130.37109375,18271032.333374023,10261621.475219727,-12215684.89074707,-3470199.3465423584,-16950683.59375,-2870345.8309173584,5823529.7203063965,5189352.512359619,4246826.648712158,12340066.909790039,12852516.174316406,12401852.60772705,3379936.933517456,3167336.7023468018,2390638.3514404297,5408401.012420654,5842914.581298828,7600229.263305664,7639701.843261719,2734295.8450317383,1918740.2725219727,2522210.3595733643,5751924.514770508,5511534.214019775
0.265,5375864.028930664,27275362.014770508,33513114.92919922,2697351.6941070557,15920047.760009766,-26981241.22619629,-5082916.736602783,-6334316.253662109,4870111.94229126,13325585.36529541,17281536.102294922,25646793.365478516,27490716.9342041,27045272.827148438,-5834147.930145264,5259646.892547607,-2545388.698577881,-2942261.9342803955,8371101.379394531,5176969.051361084,12348815.91796875,24725980.758666992,27757150.650024414,-4718784.809112549,2280441.7610168457,1107512.8316879272,-3106232.166290283,212489.20261859894,616710.364818573,12173582.077026367,17064477.920532227,36461009.97924805,-3560100.793838501,-4418450.832366943,3621912.956237793,-6792522.90725708,232981.65202140808,-4918000.221252441,19981567.3828125,13610721.588134766,-8226790.428161621,-3946702.718734741,-15939545.631408691,-2214873.0754852295,5902043.81942749,6896340.847015381,6119705.2001953125,14382567.405700684,14874368.667602539,14549726.486206055,4165570.2590942383,4125941.753387451,3328580.379486084,6978939.056396484,8216801.643371582,9086703.300476074,9042724.609375,4107870.101928711,2642443.6569213867,5412384.510040283,8218136.787414551,7977562.90435791
0.27,22072036.743164062,47164550.78125,54887016.29638672,7150162.220001221,21647787.09411621,-28243818.283081055,-5040458.679199219,-6190734.386444092,5720442.295074463,13242416.381835938,17209787.368774414,27826019.287109375,32531318.66455078,32464847.564697266,-11474747.657775879,3396813.6310577393,-3867008.4476470947,-4285282.611846924,8573168.754577637,4072132.110595703,11572887.420654297,26384588.24157715,33077476.501464844,-10376991.271972656,-4895638.942718506,-2025415.6589508057,-4690599.44152832,305957.94320106506,533231.258392334,12000831.604003906,17860538.482666016,35959407.806396484,-9410049.438476562,-10438935.279846191,578976.2139320374,-8796732.902526855,482077.83699035645,-6197260.856628418,20255228.04260254,13923319.816589355,-8425748.825073242,-9726076.126098633,-20436901.092529297,-6405524.730682373,1679600.0003814697,4013494.9684143066,5897697.448730469,12629996.299743652,12949203.491210938,12810009.956359863,-1808937.430381775,-1889106.5120697021,-2588089.4660949707,3964174.98588562,3799733.1619262695,4773137.56942749,4516201.019287109,1489681.2438964844,-3400530.3382873535,366547.8825569153,3753178.119659424,3421047.6875305176
0.275,40584197.998046875,68167800.90332031,73411102.29492188,13645800.590515137,30275300.979614258,-30115293.502807617,-5111190.319061279,-5594841.957092285,7086371.421813965,14892607.688903809,19475841.522216797,31174385.07080078,35805957.79418945,35699550.62866211,-18366060.256958008,-727231.6217422485,-4283236.980438232,-4868092.060089111,9798276.901245117,5347473.14453125,13461629.867553711,28234663.009643555,36026596.06933594,-17408945.083618164,-12181900.978088379,-5224255.561828613,-4964218.616485596,185389.96577262878,974553.2870292664,12016564.36920166,16779249.19128418,31324419.021606445,-16389631.271362305,-17520690.91796875,-3751234.769821167,-11260804.176330566,577683.4487915039,-7050865.173339844,19652990.341186523,10909337.043762207,-14178235.054016113,-16764362.335205078,-27913249.969482422,-11462433.815002441,-2979628.801345825,-532177.5078773499,3928634.1667175293,9204105.377197266,9389554.023742676,9337166.786193848,-9890095.710754395,-9978137.969970703,-10561101.913452148,-590509.3550682068,-4663537.979125977,-1467309.2365264893,-1766824.1262435913,-6968414.783477783,-11232783.317565918,-10289809.226989746,-4940864.562988281,-5395178.318023682
0.28,39707397.4609375,66288894.65332031,69606666.5649414,13834987.64038086,30945629.119873047,-32383590.698242188,-6249319.076538086,-6153672.218322754,7195479.393005371,15080218.315124512,20142208.099365234,31051092.14782715,33778739.92919922,33403255.462646484,-20335620.880126953,-2893133.1634521484,-4108822.822570801,-4889327.049255371,9850368.49975586,6762526.988983154,15371277.809143066,28390136.71875,33579109.19189453,-19483505.249023438,-13707782.745361328,-5300121.307373047,-3992268.3238983154,-110057.59984254837,1221315.0262832642,12721463.203430176,15371509.552001953,27353841.78161621,-18239980.697631836,-19245105.743408203,-4576188.564300537,-11638044.357299805,370664.92438316345,-7036670.684814453,20134588.24157715,8506340.026855469,-18358644.485473633,-18682397.842407227,-29731193.54248047,-11987729.0725708,-3447618.246078491,-2271490.5738830566,2213215.8279418945,8471385.00213623,8646634.101867676,8597578.048706055,-11979543.685913086,-12125318.52722168,-12724632.263183594,-2250529.2892456055,-8570859.909057617,-3450794.219970703,-3549027.442932129,-14360503.196716309,-13131324.768066406,-15509836.196899414,-9073950.76751709,-9486943.244934082
0.285,15840166.091918945,39790840.14892578,46866119.384765625,3702028.512954712,19883676.528930664,-36180992.126464844,-10297774.314880371,-10142714.500427246,3304916.1434173584,10188296.3180542,15620354.652404785,26233194.35119629,29576372.146606445,29112947.463989258,-17636072.158813477,-2720454.692840576,-5796606.063842773,-6679355.144500732,6591008.186340332,5613133.907318115,14311223.983764648,27569185.256958008,29528217.315673828,-16793920.516967773,-11446880.340576172,-4394073.486328125,-4248091.220855713,-137997.0908164978,727198.1835365295,13819605.827331543,15827820.777893066,29048147.201538086,-15441964.149475098,-16202579.498291016,-2460442.543029785,-10410137.176513672,376427.3524284363,-6188877.105712891,22236286.163330078,9978375.434875488,-14728374.481201172,-15826490.40222168,-23770195.00732422,-8988077.163696289,-647879.421710968,-371804.3863773346,2445869.4458007812,11037135.124206543,11258743.286132812,11176203.727722168,-7451530.933380127,-7854602.336883545,-8590148.92578125,-320374.33981895447,-4462300.3005981445,62624.335289001465,123963.42307329178,-13129775.047302246,-8879322.052001953,-10024662.971496582,-4990833.759307861,-5183857.440948486
0.29,4952202.796936035,28973196.029663086,41095214.84375,-672727.5252342224,15139719.009399414,-36560123.443603516,-11232617.378234863,-11280217.170715332,855583.906173706,6081168.651580811,11969817.161560059,25097244.262695312,31526128.7689209,31156013.48876953,-15893527.030944824,-1377512.5741958618,-8004871.368408203,-8888171.195983887,3270802.0210266113,4148670.196533203,12856416.702270508,29345689.77355957,31928728.103637695,-15043986.320495605,-10969616.889953613,-5568299.293518066,-6230572.700500488,286742.8958415985,365192.0258998871,14847981.452941895,18288526.53503418,34105678.55834961,-13879713.05847168,-14530058.860778809,-1901095.2711105347,-10238766.67022705,869377.9706954956,-5286890.983581543,24094655.990600586,13463717.460632324,-7327358.722686768,-14177685.737609863,-19385940.551757812,-8393588.066101074,42574.193328619,1448048.8300323486,3689360.8570098877,12735835.075378418,12944262.504577637,12734045.028686523,-4649765.0146484375,-5199903.964996338,-6015456.199645996,1439209.1035842896,430045.7537174225,3716906.5475463867,3683092.3557281494,-7448025.703430176,-6430042.743682861,-3011096.715927124,33512.64074444771,4232.656210660934
0.295,47600509.64355469,74303344.7265625,83324485.7788086,22083526.611328125,36845264.43481445,-22502435.6842041,1439393.8779830933,1329286.3368988037,9852501.86920166,13583812.713623047,19251506.805419922,35705131.53076172,42426448.822021484,42033119.201660156,-16491006.851196289,3627268.7911987305,-5016775.608062744,-5868640.422821045,6119592.189788818,7306348.3238220215,15986413.955688477,34912342.0715332,42775363.92211914,-15712862.968444824,-12024951.934814453,-6675311.56539917,-6545782.089233398,733639.7767066956,1474125.9813308716,15502237.319946289,20392419.815063477,35213562.01171875,-14963417.053222656,-15762459.754943848,-4157986.1640930176,-11655735.01586914,1320957.5414657593,-5375539.779663086,23332012.176513672,13952292.442321777,-5425949.0966796875,-15324374.198913574,-24132303.23791504,-12166954.99420166,-3747378.8261413574,-467751.32417678833,3120440.95993042,10074679.374694824,10147457.122802734,9687029.838562012,-9458724.021911621,-9656611.442565918,-10380749.702453613,-524209.9165916443,-2766538.381576538,1666970.3722000122,1453494.906425476,-8652390.480041504,-11046873.092651367,-6309959.411621094,-3049200.7732391357,-3128039.836883545
0.3,127845878.60107422,154595825.1953125,152361648.5595703,64384399.4140625,73769035.33935547,7476608.753204346,25482585.906982422,25368488.311767578,28431568.145751953,31281419.75402832,35318157.19604492,50960666.65649414,52565940.856933594,52008834.83886719,-14140254.974365234,14433647.155761719,4416342.735290527,3621025.562286377,15144760.131835938,14736635.208129883,22458818.435668945,38990043.64013672,52313949.58496094,-13520718.574523926,-9736239.433288574,-3871662.8551483154,-2810222.387313843,722440.1235580444,3624188.184738159,15233564.376831055,19626874.923706055,29519971.84753418,-13217795.372009277,-14307599.067687988,-5904645.4429626465,-12294532.775878906,1159825.5634307861,-6283111.095428467,19668394.088745117,9680976.867675781,-10565315.246582031,-13735906.600952148,-31645395.278930664,-15478026.390075684,-8009789.46685791,-4888574.123382568,61739.04240131378,4997489.929199219,4857025.146484375,4169782.1617126465,-16706424.713134766,-16382493.97277832,-16909326.553344727,-4889154.434204102,-12103818.893432617,-5274200.439453125,-5494340.896606445,-17973657.608032227,-17775310.516357422,-17421663.284301758,-12332973.48022461,-12535778.999328613
0.305,175729507.44628906,197330154.4189453,187600051.8798828,88445983.88671875,89061454.77294922,34600055.69458008,41244712.829589844,40895900.72631836,39506080.627441406,42138954.162597656,44174411.77368164,53545520.7824707,49179412.841796875,48593441.009521484,-6495183.944702148,25079135.89477539,12203844.07043457,11550138.473510742,21846040.725708008,19374626.15966797,24685436.248779297,34853454.58984375,48573806.76269531,-6028108.1199646,-4098517.894744873,807664.9904251099,1827662.8255844116,389243.36433410645,4506618.499755859,13440242.767333984,15846809.387207031,22076084.13696289,-6034870.624542236,-7306069.850921631,-5073539.733886719,-10820181.846618652,649159.9082946777,-6403562.068939209,15413169.860839844,4674670.219421387,-14736605.644226074,-6553733.825683594,-30617908.477783203,-14024795.532226562,-7804114.818572998,-6731208.324432373,-2078696.2509155273,2830952.6443481445,2540370.9411621094,1826624.3934631348,-17025693.893432617,-16763774.871826172,-17104450.225830078,-6606457.710266113,-16548673.629760742,-9901647.567749023,-10022753.715515137,-23290725.708007812,-17989336.013793945,-22196523.666381836,-16704713.821411133,-16912860.870361328
0.31,145969970.703125,162035720.8251953,157245986.93847656,69877044.67773438,65374809.26513672,35876995.08666992,33101356.506347656,32427036.28540039,30958747.86376953,33721981.048583984,35299339.294433594,37975807.189941406,32570400.23803711,32141944.885253906,-113638.63945007324,25659776.68762207,10223756.790161133,9766798.01940918,19323953.62854004,16084321.975708008,18759389.877319336,23557926.177978516,32230800.62866211,321227.5207042694,-1383118.2718276978,1455000.638961792,2424359.7984313965,214447.58772850037,2661077.4993896484,10453753.471374512,11293390.274047852,19035020.82824707,251501.50060653687,-920799.970626831,-3703635.4541778564,-9058800.69732666,454120.1889514923,-4920260.906219482,13293397.903442383,3882657.051086426,-12141936.302185059,-39075.5720436573,-21759803.771972656,-10046130.180358887,-3746905.0884246826,-3315424.4422912598,92040.93366861343,5999255.180358887,5748707.7713012695,5167441.844940186,-9581121.444702148,-10025440.216064453,-10218067.169189453,-3085399.389266968,-10444180.488586426,-6779623.031616211,-6950937.271118164,-16465805.053710938,-10923763.275146484,-14305503.845214844,-10516771.31652832,-10678096.771240234
0.315,72398262.02392578,88745361.328125,95384475.70800781,28873764.038085938,27577604.293823242,10922908.782958984,9868811.60736084,9232991.218566895,12349873.542785645,14915594.100952148,17634567.260742188,18861488.342285156,16955219.268798828,16570520.401000977,-2086549.997329712,15557226.181030273,1586144.9241638184,1221201.3006210327,11235811.233520508,8335450.172424316,9905584.335327148,14182043.075561523,16922153.47290039,-1543900.1321792603,-4682430.267333984,-2422735.6910705566,-775920.7487106323,263393.72992515564,-645661.5328788757,7511764.5263671875,8217731.475830078,20499742.50793457,-1373048.6631393433,-2242317.6765441895,-3659154.176712036,-9031020.164489746,621160.3879928589,-3566795.3491210938,13784648.895263672,7009261.131286621,-7080453.395843506,-1466471.9104766846,-16303480.14831543,-8326699.256896973,-683948.0996131897,1799164.056777954,4621125.6980896,10960134.506225586,10926796.913146973,10423749.923706055,-2897989.7499084473,-3906142.7116394043,-3980445.623397827,2068372.9648590088,-1263678.3123016357,745461.8215560913,368566.3938522339,-5677151.679992676,-4457969.188690186,-4004434.585571289,-1349297.1658706665,-1620190.978050232
0.32,22977573.39477539,44808647.15576172,57334690.09399414,3971774.8165130615,10000697.135925293,-16939655.303955078,-6061993.12210083,-6224657.05871582,2642408.3709716797,4258527.2789001465,7715925.216674805,12358719.825744629,13544291.496276855,12939504.623413086,-9646067.61932373,5643445.96862793,-3537437.4389648438,-4005208.4922790527,6523853.302001953,3315781.831741333,5265524.864196777,13303859.71069336,13337278.366088867,-8953389.167785645,-9132739.067077637,-4783836.841583252,-2948184.9670410156,174778.2677412033,-3044538.4979248047,5442531.108856201,6926142.692565918,22223892.211914062,-8297362.327575684,-8935984.61151123,-3398166.4180755615,-10034134.864807129,626406.1331748962,-4642522.33505249,14894899.368286133,9132448.196411133,-6980557.441711426,-8496494.29321289,-19097229.00390625,-9355199.813842773,-1272765.9940719604,2772200.345993042,5861836.4334106445,12019940.376281738,12238695.14465332,11688105.583190918,-3458382.3680877686,-4380943.775177002,-4430114.74609375,3009606.36138916,67360.5129122734,3888614.6545410156,3419668.436050415,-3957796.096801758,-4843588.829040527,-4006269.4549560547,-127491.81687831879,-653508.8419914246
0.325,19650457.38220215,46345111.84692383,56670551.30004883,5700129.985809326,15690952.30102539,-28120460.510253906,-6254380.702972412,-5963448.047637939,6171941.28036499,6597002.983093262,9275766.372680664,17374382.01904297,18987581.253051758,18161874.771118164,-13939996.719360352,4619805.335998535,-1819669.1274642944,-2458338.2606506348,7692861.557006836,3033141.1361694336,5324024.677276611,18143619.537353516,18481594.08569336,-13160067.558288574,-9484985.3515625,-2397840.2614593506,-2004539.7281646729,-123405.88122606277,-3784048.7957000732,4289091.110229492,6613144.397735596,22395946.502685547,-11995359.420776367,-12667945.861816406,-1302601.5758514404,-10338170.051574707,343339.62202072144,-7602181.434631348,14838672.637939453,7404462.814331055,-11473855.972290039,-12527494.430541992,-23077756.881713867,-10054721.83227539,-3624964.2372131348,-1281680.5839538574,2058944.2253112793,7936439.037322998,8298144.340515137,7758535.385131836,-8326112.747192383,-8927154.541015625,-9122221.946716309,-1129843.4734344482,-6768335.819244385,-864536.3450050354,-1177553.2960891724,-10970072.746276855,-9664609.909057617,-12543517.112731934,-7027467.727661133,-7679093.837738037
0.33,30229087.829589844,58217205.04760742,65852310.18066406,13446827.88848877,22877798.080444336,-25718669.891357422,-1952542.9010391235,-1575306.5347671509,11065159.797668457,11070417.404174805,12842683.792114258,22102777.4810791,23896150.588989258,23102153.778076172,-11864576.33972168,9136950.492858887,295873.0161190033,-392950.53482055664,9408759.117126465,4002610.206604004,6173169.6128845215,22527624.130249023,23519868.850708008,-11057024.002075195,-7369548.320770264,473160.058259964,-1168259.7398757935,-213162.66059875488,-3814492.702484131,4507248.878479004,7563603.401184082,23814163.208007812,-9626399.993896484,-10489458.084106445,880835.5331420898,-10071927.070617676,275533.16950798035,-9345086.097717285,14385110.855102539,5001468.658447266,-13001210.21270752,-10397066.116333008,-21588539.123535156,-9223922.729492188,-4843289.852142334,-4922940.254211426,-1598206.2816619873,3759340.286254883,4109545.2308654785,3793258.1901550293,-10143139.839172363,-10755158.424377441,-11215835.571289062,-4844670.295715332,-11615339.279174805,-6836025.238037109,-6938914.2990112305,-14518283.84399414,-11859327.31628418,-16630912.780761719,-11818464.279174805,-12292498.588562012
0.335,28235622.40600586,56414081.57348633,65931213.37890625,11792013.168334961,21223115.921020508,-23680465.698242188,-3542416.0957336426,-3284372.568130493,9306733.131408691,9871891.021728516,12386181.831359863,22894235.610961914,26946071.62475586,26288162.231445312,-8419521.33178711,11117722.511291504,-2145681.142807007,-2756301.4030456543,7777884.483337402,4068625.4501342773,7048412.322998047,26028924.9420166,26944391.25061035,-7567935.943603516,-7187194.347381592,-683115.3035163879,-3234367.847442627,123408.50383043289,-3782958.984375,7187914.848327637,11298436.164855957,29538597.106933594,-6195330.619812012,-7148196.697235107,718758.4638595581,-10501587.867736816,682662.0697975159,-8205149.6505737305,15801160.81237793,7145580.291748047,-6972517.490386963,-6934886.455535889,-17347908.02001953,-8490795.135498047,-4412929.534912109,-3039834.2609405518,481413.75184059143,5247504.711151123,5489744.186401367,5460876.941680908,-6194820.404052734,-7057201.862335205,-7723698.616027832,-2941004.0378570557,-7233335.971832275,-5133831.50100708,-5195892.333984375,-8319891.929626465,-8257077.217102051,-9749629.020690918,-7347246.6468811035,-7527636.0511779785
0.34,23232503.89099121,52895076.751708984,65299789.42871094,7879467.010498047,20646123.8861084,-26364036.560058594,-7321971.416473389,-7090612.411499023,6229290.962219238,7387998.104095459,11921391.487121582,25863056.182861328,33038749.69482422,32362365.72265625,-7848081.111907959,9333630.561828613,-5666791.4390563965,-6216421.604156494,5268048.7632751465,4742945.194244385,10163807.86895752,32170204.162597656,33110656.73828125,-6916338.4437561035,-8693533.897399902,-3765253.5438537598,-6078420.162200928,473346.7698097229,-3418987.274169922,11844487.190246582,17694812.774658203,38217445.373535156,-5743864.5362854,-6615498.5427856445,-868270.0395584106,-11458479.881286621,1087511.420249939,-5987776.756286621,19492546.08154297,14252270.698547363,2754964.828491211,-6285841.464996338,-15703345.29876709,-8543160.438537598,-3441456.7947387695,2956054.6875,6857471.466064453,12063673.973083496,12208650.588989258,12260150.909423828,-181205.09386062622,-1118726.4919281006,-1804844.2602157593,3164361.9537353516,2254708.766937256,4215995.788574219,4079596.0426330566,519619.1668510437,-2128740.5490875244,699228.5251617432,2171154.499053955,2074704.1702270508
0.345,26375434.87548828,56908782.958984375,68538505.55419922,9821325.302124023,26011596.6796875,-28222999.572753906,-6730737.209320068,-6459004.878997803,7618933.200836182,8645903.587341309,14655597.686767578,31908559.799194336,40444046.02050781,39688907.623291016,-8212205.88684082,8275840.759277344,-5532312.393188477,-6116058.349609375,5159742.832183838,6625720.500946045,14326750.755310059,39406894.68383789,40349594.11621094,-7235605.239868164,-8313506.126403809,-4331403.732299805,-6274729.7286987305,399811.4764690399,-2834113.836288452,15175341.606140137,23112216.94946289,44803520.20263672,-6174799.44229126,-6954437.255859375,-1218321.681022644,-11561210.632324219,999256.3128471375,-5187941.074371338,22808200.83618164,21019334.79309082,9325228.691101074,-6486034.870147705,-16045488.357543945,-8040846.824645996,-2487705.707550049,7309735.7749938965,11156672.477722168,18311471.939086914,18444143.295288086,18379419.326782227,3316729.5455932617,2508731.6036224365,1902249.2170333862,7606320.381164551,8191972.732543945,12794491.7678833,12681022.644042969,3448627.9487609863,1670263.171195984,4823066.711425781,8107817.649841309,7844104.290008545
0.35,22362104.415893555,50235271.45385742,59008972.16796875,9121863.36517334,25326526.641845703,-27093786.239624023,-5280613.899230957,-5091709.613800049,8698514.938354492,9467001.914978027,15645100.593566895,32490856.170654297,40043029.78515625,39450481.41479492,-6285690.784454346,9258248.329162598,-3782455.6827545166,-4455109.596252441,6071382.522583008,7098144.53125,14681428.909301758,40771255.49316406,40098644.2565918,-5366987.228393555,-5749948.024749756,-2928152.084350586,-4513128.757476807,115193.51601600647,-2968326.8070220947,14071388.244628906,23371398.92578125,45619823.45581055,-4300310.6117248535,-5087989.807128906,-188205.21235466003,-10634125.709533691,654133.0814361572,-5780801.296234131,22901222.229003906,22496795.654296875,10592200.27923584,-4342408.657073975,-14900874.137878418,-6604998.588562012,-1371827.6023864746,7170488.357543945,10454545.021057129,19759918.212890625,19935640.335083008,19853080.74951172,3593424.3202209473,2871020.3170776367,2223773.956298828,7450874.805450439,8510983.46710205,14742791.175842285,14796346.664428711,2118710.994720459,1992410.0637435913,2914632.558822632,8430459.976196289,8048347.473144531
0.355,-2681344.985961914,20325805.6640625,28605064.392089844,-3404216.766357422,10830635.070800781,-27037364.959716797,-9675304.412841797,-9632120.132446289,2876658.9164733887,4258345.127105713,10164458.274841309,23611734.39025879,29636514.66369629,29433475.494384766,-3166796.6842651367,9274315.83404541,-5185560.22644043,-5989257.8125,4936019.8974609375,4450798.511505127,9930816.650390625,34151664.73388672,30248966.217041016,-2387928.7242889404,-4342575.0732421875,-3316962.0037078857,-4282022.953033447,111637.46565580368,-4236039.638519287,9607434.272766113,18715879.440307617,42169555.6640625,-1324277.5201797485,-2133964.3001556396,225779.81650829315,-9974087.715148926,597136.3186836243,-6116579.532623291,20079669.952392578,19384769.439697266,9655212.40234375,-1079325.795173645,-12420063.018798828,-5744093.418121338,-75660.98868846893,5219318.389892578,8094660.758972168,18160253.524780273,18344665.52734375,18468395.233154297,3266794.443130493,2551750.898361206,1681538.5818481445,5419078.826904297,8039221.76361084,12802504.539489746,12982944.48852539,3480816.602706909,1546673.7747192383,2430136.4421844482,7904097.080230713,7683793.544769287
0.36,-28184095.38269043,-7208771.228790283,3146970.272064209,-17897153.854370117,-3992422.342300415,-29733133.31604004,-16949869.15588379,-16852083.206176758,-5889105.319976807,-3556034.564971924,2566367.3877716064,14521497.72644043,20577032.0892334,20602554.321289062,-2449350.118637085,7357518.672943115,-9111790.657043457,-10121932.029724121,2085711.7176055908,960840.4636383057,5024742.126464844,27258275.985717773,21568012.237548828,-1798176.7654418945,-5589024.543762207,-5639750.4806518555,-6541978.83605957,346849.262714386,-5819719.7914123535,6039025.783538818,13830775.260925293,39243701.93481445,-766033.4706306458,-1517670.2737808228,-246818.12524795532,-10193680.763244629,828833.8780403137,-5886950.492858887,17231651.306152344,16157583.236694336,9297924.995422363,-411046.44536972046,-11303005.21850586,-6113116.74118042,1056385.87474823,4856844.425201416,7878308.7730407715,17167827.606201172,17315118.78967285,17590232.849121094,4231492.042541504,3552673.33984375,2535526.5140533447,5002166.271209717,9414754.867553711,11897882.461547852,11989888.191223145,7811910.629272461,2539735.0788116455,5671785.831451416,9120612.144470215,9175587.65411377
0.365,-23406654.357910156,1190006.136894226,12480947.494506836,-17866319.65637207,-2306684.732437134,-32163562.774658203,-18642787.93334961,-18241943.359375,-8500488.28125,-6768524.646759033,-26349.978521466255,15274241.44744873,23444595.336914062,23282987.594604492,-5466842.174530029,5970181.465148926,-11162931.442260742,-12379918.098449707,-181271.88086509705,-701615.0951385498,4141657.3524475098,27932445.526123047,24216203.689575195,-4837231.636047363,-7496414.661407471,-6524487.018585205,-8906073.570251465,315605.43179512024,-6919751.167297363,5594141.483306885,12204285.621643066,39250087.73803711,-3724289.4172668457,-4398465.633392334,142023.86140823364,-10436502.456665039,876998.3053207397,-6141318.321228027,16384889.602661133,15396368.026733398,8714679.718017578,-3587287.425994873,-12371871.948242188,-6412389.278411865,1648890.0184631348,5592463.493347168,9152066.230773926,16842357.635498047,16998300.552368164,17076774.59716797,5034803.39050293,4335823.059082031,3567801.7139434814,5731386.184692383,9113688.468933105,11441791.534423828,11283235.549926758,8178606.986999512,3449067.1157836914,6720253.467559814,8661412.239074707,8764601.707458496
0.37,4785199.6421813965,35383350.37231445,44759437.561035156,-5949393.749237061,10555097.579956055,-33357959.747314453,-14758331.298828125,-14093454.360961914,-4784100.05569458,-5753273.487091064,1448762.1784210205,21901090.621948242,32660068.51196289,32108989.715576172,-10449267.387390137,5757993.698120117,-10795673.370361328,-12036331.176757812,-1830666.7804718018,-1467873.9309310913,4989555.358886719,33354751.586914062,32910987.854003906,-9723530.769348145,-8581969.261169434,-5285096.645355225,-9741551.399230957,-107389.04774188995,-7712583.065032959,6392189.979553223,12535669.326782227,39927139.28222656,-8373345.375061035,-9040912.628173828,1528514.5044326782,-10104882.24029541,597885.4298591614,-6802492.141723633,17126365.661621094,16049016.952514648,6495629.787445068,-8617999.076843262,-14842163.0859375,-6035232.067108154,1387485.9809875488,4941657.066345215,9433125.495910645,15253688.81225586,15489659.309387207,15196962.356567383,2793689.250946045,1917143.702507019,1704609.990119934,5071694.374084473,4217674.732208252,8270112.991333008,7931490.421295166,1264897.9425430298,1150118.112564087,1309232.5925827026,3763656.3777923584,3652405.5004119873
0.375,17309743.881225586,50124629.974365234,57024425.5065918,-1338043.3320999146,14206692.695617676,-36264064.78881836,-14055901.527404785,-13430320.739746094,-3323474.884033203,-6799039.363861084,446861.05847358704,22437763.214111328,33700702.66723633,32953144.073486328,-15033507.347106934,4003609.6572875977,-11658917.427062988,-12693819.046020508,-4231145.38192749,-3407846.450805664,3377008.1996917725,34318271.63696289,33656196.59423828,-14200575.828552246,-10024714.469909668,-5224260.330200195,-10121973.991394043,-408367.00797080994,-8399013.51928711,6158725.738525391,11944210.052490234,38373683.92944336,-12656776.428222656,-13346982.955932617,1426374.7930526733,-9958204.26940918,408258.46791267395,-6459186.07711792,18187923.431396484,16578733.444213867,4259290.69519043,-13128357.887268066,-18562248.22998047,-6608016.9677734375,116817.01242923737,2848795.4139709473,8819883.346557617,13272187.232971191,13524302.48260498,13156777.381896973,-2652903.0799865723,-3637850.761413574,-3519995.2125549316,2914537.9066467285,-1667133.092880249,3742526.5312194824,3457604.40826416,-7308287.143707275,-4380805.969238281,-6098001.480102539,-1954215.6457901,-2236219.882965088
0.38,-3660352.2300720215,25384243.01147461,31750522.61352539,-12283110.618591309,2069426.0597229004,-41507263.18359375,-20362102.508544922,-20003650.665283203,-7965018.272399902,-11165879.249572754,-4236377.716064453,14321357.727050781,23086360.931396484,22437721.252441406,-18061264.038085938,-403399.9443054199,-14719863.891601562,-15516689.30053711,-6344316.9593811035,-5434686.660766602,161305.39774894714,28198030.471801758,23081600.189208984,-17252124.786376953,-12977701.187133789,-8057492.256164551,-11093035.697937012,-165019.6760892868,-8350349.426269531,5537900.447845459,10400572.776794434,35203926.08642578,-15759825.706481934,-16411254.8828125,-1679512.0239257812,-10766255.378723145,651488.4233474731,-5029535.77041626,18939031.60095215,16962097.16796875,4513529.7775268555,-16233104.705810547,-23027063.369750977,-9486793.518066406,-1874351.2630462646,1450504.7798156738,8884372.71118164,13369284.629821777,13464719.772338867,13449340.8203125,-8002425.193786621,-8732862.47253418,-8863068.580627441,1385687.9472732544,-3387063.74168396,2034385.4427337646,1958314.061164856,-10724595.069885254,-9505386.352539062,-8823266.02935791,-3477126.5983581543,-3700148.344039917
0.385,-31785974.502563477,-8210791.58782959,-817042.2315597534,-25382965.087890625,-11192422.866821289,-45300823.21166992,-26978874.20654297,-26820278.16772461,-12669548.988342285,-13557890.892028809,-7162933.826446533,6841683.387756348,12240261.07788086,11745848.655700684,-19871816.635131836,-4543612.003326416,-16393098.831176758,-17115842.819213867,-5691422.939300537,-5095552.444458008,-833171.1292266846,21553689.95666504,12355968.475341797,-19220298.767089844,-16435655.59387207,-11046753.883361816,-11585700.035095215,364707.887172699,-7310283.660888672,5904488.086700439,9492209.434509277,32688278.198242188,-17937282.56225586,-18500844.955444336,-5833956.241607666,-11925024.98626709,1115999.2218017578,-4472772.121429443,18875820.15991211,16931386.947631836,5765553.4744262695,-18394607.543945312,-26359952.926635742,-13348660.469055176,-3932956.4571380615,1281860.4707717896,9224087.715148926,14346323.013305664,14233325.004577637,14560034.75189209,-10641371.726989746,-10908277.51159668,-11533720.016479492,1059828.281402588,-2349600.315093994,2473841.1903381348,2528895.616531372,-9900615.692138672,-11690773.010253906,-7727199.554443359,-2339058.3992004395,-2459878.2062530518
0.39,-36728919.982910156,-14859155.654907227,-6763788.223266602,-26643726.348876953,-12711273.193359375,-45633846.282958984,-27383924.48425293,-27196323.39477539,-11987491.607666016,-11932185.173034668,-5991330.146789551,6253665.447235107,10492697.715759277,9992843.627929688,-21417678.833007812,-5731482.50579834,-14759613.037109375,-15522680.282592773,-3151668.5485839844,-3637548.4466552734,-30133.93096625805,19693063.735961914,10633277.893066406,-20867929.458618164,-18564157.485961914,-11163752.555847168,-10518330.574035645,626484.2748641968,-6688181.400299072,5935536.861419678,8615875.244140625,30698938.369750977,-19683973.31237793,-20182598.114013672,-7859817.981719971,-12231697.082519531,1349975.5859375,-5702205.181121826,17289930.34362793,15094547.271728516,3623744.249343872,-20210355.758666992,-27464660.64453125,-15537395.477294922,-5287027.835845947,967543.4231758118,8581662.17803955,12408971.786499023,12253965.377807617,12438292.503356934,-11384621.620178223,-11421289.443969727,-12153760.91003418,647780.71641922,-3964674.234390259,318073.8389492035,293476.1643409729,-10508219.718933105,-12191468.238830566,-8682644.844055176,-3974427.9384613037,-4160314.0830993652
0.395,-24520593.643188477,-423623.651266098,7503581.0470581055,-20773447.036743164,-8180469.512939453,-45476436.614990234,-24714002.60925293,-24382255.55419922,-9709774.017333984,-11483396.530151367,-5393769.264221191,7780659.6755981445,13753143.310546875,13160757.064819336,-22613496.780395508,-5281839.370727539,-13263806.343078613,-14017752.647399902,-3004030.466079712,-5039210.796356201,-1758738.1601333618,20314558.029174805,13873029.708862305,-21927225.11291504,-18653892.517089844,-9341363.906860352,-9352130.889892578,465466.4695262909,-8034790.992736816,3473159.074783325,6134043.216705322,28153078.079223633,-20636079.788208008,-21111560.821533203,-6973707.19909668,-11663047.790527344,1209707.260131836,-6662614.822387695,14800512.313842773,11927658.081054688,-1948679.9240112305,-21162721.633911133,-27218187.33215332,-15020500.183105469,-5315408.229827881,635179.2216300964,8255005.836486816,8316666.603088379,8309000.9689331055,7952689.647674561,-11711363.792419434,-11857281.684875488,-12203192.710876465,351222.09787368774,-7898102.760314941,-4075588.7031555176,-4293298.244476318,-13457441.329956055,-12652411.460876465,-12111907.958984375,-8017327.308654785,-8300965.309143066
0.4,-20115575.790405273,5930280.2085876465,13815918.922424316,-20629682.540893555,-8598955.154418945,-47580795.28808594,-25898715.97290039,-25502096.17614746,-12281912.803649902,-15938630.104064941,-8710328.102111816,5887669.563293457,14527345.657348633,13953138.35144043,-22320158.004760742,-6089184.761047363,-15638182.640075684,-16333532.333374023,-6826917.64831543,-9483020.782470703,-6408674.716949463,20015253.0670166,14670272.827148438,-21321363.44909668,-17400140.7623291,-8669224.739074707,-10498546.600341797,167850.10695457458,-10464309.692382812,-37152.45425701141,3634218.93119812,27141279.220581055,-19875577.926635742,-20355642.318725586,-5267142.772674561,-11629666.328430176,918294.2509651184,-5443283.0810546875,13818006.51550293,11170539.855957031,-4672552.585601807,-20244256.9732666,-26618614.196777344,-13370976.448059082,-4443778.514862061,1918515.3245925903,10375438.690185547,7906072.616577148,8055209.159851074,7302959.91897583,-11022773.742675781,-11296916.007995605,-11308229.446411133,1771582.1266174316,-7689348.220825195,-4015281.6772460938,-4355276.584625244,-14004213.333129883,-12186970.710754395,-12181406.97479248,-7956066.131591797,-8132186.8896484375
0.405,-28315925.59814453,-3228324.6517181396,5579503.059387207,-27407947.540283203,-13015633.583068848,-50296653.747558594,-31221818.923950195,-30869184.494018555,-18668134.689331055,-21193452.835083008,-12260892.868041992,3316539.2875671387,13567072.868347168,13129448.890686035,-20470300.674438477,-8573169.708251953,-20237213.134765625,-20949440.002441406,-10620148.658752441,-12048830.032348633,-8714370.727539062,20137794.494628906,13778004.64630127,-19248130.798339844,-16227649.688720703,-10109882.354736328,-13681602.478027344,3416.6069235652685,-11323979.377746582,-641352.7131080627,4508419.036865234,30621931.076049805,-17754863.739013672,-18286808.013916016,-5163177.967071533,-13196516.036987305,737528.8605690002,-3713320.49369812,15566805.839538574,14924156.188964844,-342476.487159729,-18001138.68713379,-25588827.13317871,-13016744.613647461,-4552462.100982666,3938039.779663086,13121790.885925293,12984777.450561523,13176835.060119629,12541159.629821777,-8768785.47668457,-9013141.632080078,-9161018.371582031,3903993.1297302246,-1495036.3636016846,2724064.588546753,2401532.4115753174,-10182373.046875,-10005274.772644043,-7140457.1533203125,-1858649.1346359253,-1835606.6942214966
0.41,-34630714.416503906,-12230391.502380371,-1959915.7571792603,-32405315.399169922,-14696021.08001709,-51191963.19580078,-35130508.42285156,-34805793.76220703,-22458332.061767578,-21870641.708374023,-12029281.616210938,3942386.1503601074,14263998.985290527,13891363.143920898,-19006147.384643555,-10951920.509338379,-22417486.1907959,-23201063.15612793,-10183526.039123535,-9770046.23413086,-6006202.697753906,21641994.47631836,14533770.561218262,-17829977.03552246,-16270805.358886719,-11824888.229370117,-15797513.961791992,4490.228835493326,-9814996.719360352,2037849.4262695312,7602489.948272705,35672473.9074707,-16363456.726074219,-16989995.9564209,-6960458.755493164,-15451139.450073242,744893.3124542236,-4527127.265930176,17503572.463989258,18778781.89086914,5760385.036468506,-16710968.017578125,-24490812.301635742,-14712990.760803223,-7040157.318115234,3128361.463546753,11991898.536682129,16687929.153442383,16852998.733520508,16655939.102172852,-7047104.358673096,-7320709.228515625,-7823737.621307373,3103971.7197418213,3222299.814224243,8230193.138122559,8006776.809692383,-6635255.813598633,-8313918.113708496,-3524946.928024292,2898873.805999756,2867210.865020752
0.415,-37647079.46777344,-18565645.217895508,-7149491.310119629,-34073135.37597656,-17153556.82373047,-51270709.99145508,-35285037.994384766,-34911270.14160156,-22011709.213256836,-20145717.62084961,-11445070.266723633,2927987.575531006,11906152.725219727,11443883.895874023,-18904365.53955078,-11933308.601379395,-20926275.2532959,-21651170.73059082,-7149804.592132568,-6608589.172363281,-3550637.96043396,19339622.497558594,12187243.461608887,-17951532.3638916,-16744773.864746094,-11804044.723510742,-14747330.665588379,106771.38715982437,-8405960.083007812,3092626.3332366943,6734208.583831787,34527046.20361328,-16483205.795288086,-17159002.30407715,-8471961.02142334,-16056097.030639648,850672.7814674377,-7347446.441650391,15974815.368652344,16016563.415527344,4819805.145263672,-17014411.92626953,-23863636.016845703,-16210020.065307617,-9843135.833740234,-664656.6987037659,7043063.163757324,12640369.415283203,12769715.309143066,12866625.785827637,-7408712.387084961,-7934510.707855225,-8530494.689941406,-732055.8428764343,341129.72021102905,5267134.666442871,5159434.3185424805,-6997065.544128418,-8800518.989562988,-5955942.630767822,187217.39947795868,-178598.3145236969
0.42,-51501777.64892578,-37288925.17089844,-25393253.326416016,-39361320.49560547,-28899011.611938477,-52142513.275146484,-34727313.99536133,-34341133.11767578,-21964763.641357422,-22112192.153930664,-16245952.606201172,-6346632.957458496,71572.25161790848,-471794.4860458374,-17892438.888549805,-11318602.561950684,-18776863.09814453,-19268535.614013672,-6575223.922729492,-8068611.145019531,-7289814.9490356445,8905949.592590332,332457.42321014404,-17091567.993164062,-15089227.676391602,-9745555.877685547,-11935803.413391113,212347.1200466156,-9671117.782592773,-1187920.6895828247,-728945.0168609619,24973249.435424805,-15600747.108459473,-16212385.177612305,-7025240.898132324,-13746319.770812988,885852.8137207031,-8449835.777282715,11366425.514221191,7022645.950317383,-3510017.156600952,-16124185.562133789,-22251720.428466797,-14021206.855773926,-8469151.496887207,-1768850.0881195068,4424037.933349609,4845541.954040527,4918936.729431152,4952235.221862793,-6962397.575378418,-7709315.299987793,-8128370.28503418,-1849185.585975647,-5132053.375244141,-1488227.0097732544,-1489729.642868042,-7394940.376281738,-8432912.826538086,-8919560.432434082,-5094614.9826049805,-5680560.58883667
0.425,-72681037.90283203,-64014472.96142578,-52100593.56689453,-47409564.97192383,-43921249.38964844,-51843070.98388672,-34997455.59692383,-34750762.939453125,-24291839.599609375,-27265714.645385742,-23868738.174438477,-18318136.21520996,-14462065.696716309,-14933914.184570312,-13980226.516723633,-9096159.934997559,-18234869.0032959,-18550933.837890625,-9593885.42175293,-13016827.583312988,-14236916.542053223,-2835175.5142211914,-14204212.188720703,-13104592.323303223,-10339268.684387207,-6795287.609100342,-10125023.84185791,124516.03263616562,-12842607.498168945,-7458251.953125,-8351961.135864258,15314703.941345215,-11671077.728271484,-12156488.418579102,-2360764.503479004,-10049608.23059082,708431.5419197083,-6674271.106719971,8283344.268798828,482748.1508255005,-10415912.628173828,-11987342.834472656,-17663173.67553711,-7607597.351074219,-1759735.5842590332,3809167.8619384766,8045167.922973633,2611083.0307006836,2620460.033416748,2433569.6697235107,-2140304.3270111084,-2740243.911743164,-3098093.032836914,3745781.660079956,-4279895.305633545,-2213843.1072235107,-2147525.0720977783,-2470956.802368164,-3458090.06690979,-4891170.501708984,-4116373.062133789,-4542691.230773926
0.43,-72411766.0522461,-65320343.017578125,-53534893.03588867,-45784000.396728516,-43352020.263671875,-47553195.95336914,-32893665.313720703,-32844547.271728516,-24175062.17956543,-28034887.313842773,-24931844.71130371,-18808137.893676758,-15376165.390014648,-15750515.937805176,-9771506.309509277,-5925145.149230957,-17995460.510253906,-18415740.966796875,-11879677.772521973,-14978102.684020996,-15558400.15411377,-3181005.7163238525,-15090244.29321289,-8652232.17010498,-5574196.338653564,-4486765.384674072,-9981216.430664062,-283792.7043437958,-14825492.858886719,-8934196.472167969,-7696570.873260498,15083543.77746582,-7397196.292877197,-7781555.652618408,2690993.309020996,-7842830.181121826,347161.4122390747,-5473806.858062744,9917764.663696289,3348548.8891601562,-9479509.353637695,-7529310.22644043,-11904813.766479492,-948448.1811523438,5338189.601898193,11458565.711975098,13557681.0836792,7878461.837768555,7886906.147003174,7629347.801208496,4771882.057189941,4594631.671905518,4044797.897338867,11405260.08605957,2440558.671951294,3601384.6397399902,3675050.735473633,5264392.375946045,3720933.675765991,3557230.9494018555,2672793.388366699,2562087.297439575
0.435,-37083515.16723633,-24678873.06213379,-12853302.955627441,-29252510.07080078,-21391904.830932617,-41264556.884765625,-26635084.15222168,-26622146.606445312,-17851119.995117188,-20757678.985595703,-15990250.587463379,-3976138.3533477783,2040449.857711792,1584233.6416244507,-9621843.338012695,-3795529.842376709,-16177257.537841797,-16878383.63647461,-9914980.8883667,-11107280.731201172,-8427771.56829834,10210451.126098633,2348917.007446289,-8293991.0888671875,-4659946.441650391,-3733856.201171875,-10107678.413391113,-760210.9909057617,-14022157.669067383,-3780331.611633301,1163537.7407073975,23921140.670776367,-7232887.268066406,-7551681.041717529,5172378.063201904,-8182943.344116211,47092.76184439659,-7575278.759002686,14513956.069946289,12845276.832580566,-3550314.18800354,-7306304.454803467,-9275935.173034668,1784263.9684677124,7342833.042144775,13546466.827392578,14573782.920837402,14109147.071838379,14204155.921936035,14081340.789794922,7963188.171386719,8044431.686401367,7342033.863067627,13527220.726013184,6837637.901306152,7988165.378570557,8036026.954650879,8323509.216308594,6988150.119781494,7403134.822845459,7102840.423583984,7098416.328430176
0.44,3346847.2957611084,23728513.717651367,35910717.01049805,-11881188.39263916,2548773.0503082275,-38413280.48706055,-20708089.82849121,-20523849.487304688,-9949138.641357422,-11813793.182373047,-5130056.381225586,12716522.216796875,22518377.30407715,21870086.669921875,-12806809.425354004,-4201478.004455566,-13740505.21850586,-14590285.301208496,-5822475.433349609,-5921299.934387207,189056.4113855362,25098089.21813965,22838207.244873047,-11487563.133239746,-6909155.84564209,-4213654.518127441,-9771169.662475586,-795440.137386322,-11781104.08782959,2923658.609390259,10048220.63446045,33474563.598632812,-10453619.956970215,-10750990.867614746,5243670.463562012,-9345346.450805664,73056.96606636047,-10411143.30291748,18449453.353881836,20833187.103271484,1463671.6842651367,-10523885.726928711,-9926167.488098145,1351118.564605713,5184714.794158936,10239039.421081543,12015060.424804688,17002756.118774414,17216436.3861084,17242078.78112793,6924620.151519775,6868824.9588012695,6291334.15222168,10328617.095947266,6424461.841583252,8385802.268981934,8404738.426208496,5749044.418334961,5757744.312286377,5135102.74887085,6636329.174041748,6517527.5802612305
0.445,9194229.125976562,32708938.598632812,44815597.53417969,-10413207.054138184,6560872.554779053,-40172565.46020508,-20345787.048339844,-19999216.079711914,-8101449.966430664,-9641030.311584473,-2047976.4938354492,16655469.89440918,28601993.560791016,27914625.16784668,-13548631.66809082,-5629246.711730957,-13048435.21118164,-13787394.523620605,-4192283.1535339355,-4958308.219909668,2660593.032836914,29185665.130615234,28974802.017211914,-12469809.532165527,-7463604.927062988,-4677830.219268799,-9699247.360229492,-239890.9330368042,-10187698.364257812,5602855.205535889,12765596.389770508,37911106.10961914,-11224380.493164062,-11634540.557861328,5469057.559967041,-9221215.24810791,418173.52175712585,-9722154.61730957,20610332.489013672,23479085.92224121,4554451.942443848,-11349541.664123535,-8957127.571105957,1992828.8459777832,4444563.865661621,9019241.333007812,12195976.257324219,19391124.725341797,19723995.208740234,19773283.004760742,7438845.634460449,7077639.579772949,6732404.2320251465,9234172.821044922,7688809.394836426,11216940.879821777,11175332.069396973,4975759.506225586,6058055.400848389,4743324.756622314,7720782.75680542,7548094.272613525
0.45,-19690759.658813477,-107110.91756820679,9974592.208862305,-22625793.45703125,-8118227.958679199,-41011592.864990234,-23719457.626342773,-23419290.54260254,-12673505.783081055,-14299411.77368164,-6923748.016357422,8290982.246398926,19586832.04650879,19058965.6829834,-8375573.15826416,-4636678.695678711,-14135611.534118652,-14677991.86706543,-6064002.990722656,-7994187.831878662,-815176.3677597046,22962703.704833984,20066026.68762207,-7605762.004852295,-3151923.179626465,-3958978.1761169434,-9978097.915649414,398559.2722892761,-9812191.9631958,3947586.77482605,10828362.464904785,38306507.1105957,-6070747.852325439,-6754444.599151611,7423213.958740234,-7557976.245880127,767083.7640762329,-5874136.924743652,21856388.092041016,23367040.634155273,8213605.880737305,-6391686.916351318,-3682935.7147216797,5609791.278839111,7639561.176300049,13570361.137390137,16908998.489379883,24078886.032104492,24540498.733520508,24597009.658813477,12932542.80090332,12432563.781738281,12122622.4899292,13810128.211975098,14835275.650024414,19891839.9810791,19743568.420410156,11005013.465881348,11536456.108093262,11182270.050048828,14679058.074951172,14654994.010925293
0.455,-49528469.08569336,-36121547.69897461,-30158250.80871582,-32541908.264160156,-23170276.641845703,-36244297.02758789,-24437147.14050293,-24302860.260009766,-16835329.055786133,-18754560.470581055,-12396283.149719238,-1047738.1944656372,8170254.707336426,7757120.609283447,-239184.3944787979,-167539.95418548584,-14523658.752441406,-14994827.270507812,-8354743.003845215,-10629273.414611816,-4709404.945373535,15538429.260253906,8733500.480651855,346451.61032676697,4118428.7071228027,-1729391.6940689087,-9184638.023376465,497299.4923591614,-10009207.725524902,1581791.5201187134,9213186.264038086,38316604.61425781,1990636.3487243652,1071521.7590332031,10446582.794189453,-5307966.232299805,806812.3459815979,-3344383.0013275146,22110223.7701416,23893878.936767578,12911205.291748047,1435110.330581665,2667117.118835449,10103421.211242676,11909417.152404785,19019548.416137695,20976253.509521484,28180683.135986328,28732505.798339844,28978624.34387207,19812700.271606445,19353904.724121094,18880455.017089844,19199045.181274414,22988609.313964844,27984722.137451172,27781280.517578125,19533899.307250977,18516962.0513916,19358148.5748291,22859512.329101562,23033575.0579834
0.46,-60469497.68066406,-50090866.08886719,-47484973.9074707,-33245689.392089844,-28207006.454467773,-29509733.200073242,-21059404.373168945,-20949243.545532227,-16308010.10131836,-18732313.15612793,-13673614.501953125,-4196265.697479248,3867949.2473602295,3395737.886428833,5585346.221923828,4441054.344177246,-12899580.001831055,-13421020.5078125,-8553722.381591797,-10482497.215270996,-5715101.24206543,12789597.511291504,4457880.49697876,6177032.470703125,9976876.258850098,1236389.8754119873,-6777272.2244262695,46929.03533577919,-10315240.859985352,1155202.9848098755,10122336.387634277,39756843.56689453,7684322.834014893,6812708.377838135,13375955.581665039,-3021324.1577148438,550077.0807266235,-4509024.143218994,20685134.887695312,25357601.165771484,16718849.182128906,7122013.092041016,6290004.253387451,13208230.972290039,14198038.101196289,19795543.670654297,20250318.52722168,27831398.010253906,28351781.845092773,28959035.873413086,23131458.282470703,22653120.040893555,22093105.31616211,19987663.26904297,25817285.537719727,28591611.862182617,28496421.813964844,23685245.513916016,21842638.01574707,22249608.993530273,25991483.688354492,26206203.46069336
0.465,-60928699.4934082,-49536445.61767578,-46403099.060058594,-31091772.079467773,-26820652.00805664,-28322248.458862305,-18287994.384765625,-17976636.88659668,-13447999.954223633,-16508707.046508789,-12072313.30871582,-2373288.631439209,6611320.495605469,6094912.528991699,6528867.721557617,5254680.156707764,-10953168.869018555,-11506763.458251953,-7464967.250823975,-9064442.63458252,-4726032.257080078,14195808.410644531,7224272.727966309,7239012.718200684,11605092.04864502,3212418.0793762207,-4778337.9554748535,-417921.4537143707,-10759674.072265625,2245743.751525879,12140836.715698242,41956485.748291016,8557900.428771973,7975864.887237549,15560179.710388184,-1128432.273864746,281064.9275779724,-7278331.756591797,18571403.50341797,26282455.444335938,17895471.572875977,8251205.4443359375,6980918.407440186,14487397.193908691,14549214.363098145,16689373.016357422,16857887.268066406,23760169.982910156,24155309.677124023,25022058.486938477,21788475.036621094,21165040.969848633,20752952.575683594,17012125.01525879,23290773.391723633,23430526.733398438,23541707.99255371,22008979.79736328,20423669.815063477,19250577.926635742,23799720.764160156,23863739.013671875
0.47,-55818420.41015625,-41852989.196777344,-35803623.19946289,-28226652.145385742,-21815551.7578125,-31995182.037353516,-17561275.482177734,-17025939.94140625,-10687586.784362793,-14825542.449951172,-9828534.126281738,1734299.0636825562,12414367.67578125,12040370.94116211,3469757.080078125,3258945.7035064697,-10372866.6305542,-10885700.225830078,-6780565.7386779785,-8205349.922180176,-3368624.448776245,17265010.833740234,13025941.848754883,4287425.0411987305,9239300.727844238,2871501.4457702637,-5103477.478027344,-543268.9785957336,-11177853.58428955,3000724.0772247314,12832289.695739746,42063011.169433594,5518695.831298828,5162161.350250244,16139842.987060547,-678535.4614257812,194040.14945030212,-9073801.99432373,17470966.339111328,25332656.860351562,14977304.458618164,5405103.2066345215,5046570.301055908,13401804.92401123,13489841.46118164,13315851.211547852,14454484.939575195,18626583.099365234,18916791.915893555,19700061.798095703,16464582.443237305,15827992.43927002,15642338.752746582,13694851.875305176,18090101.24206543,17683540.34423828,17903383.255004883,16509815.216064453,15173394.203186035,13147905.349731445,18653879.165649414,18495286.94152832
0.475,-31581548.6907959,-16473423.00415039,-10828917.503356934,-16144165.0390625,-9410177.230834961,-29176048.278808594,-12755702.018737793,-12214535.7131958,-5650049.686431885,-11745261.192321777,-6187671.661376953,7518553.256988525,17870189.666748047,17675281.524658203,-219247.29645252228,4088595.390319824,-9549221.992492676,-10005263.328552246,-5930164.813995361,-7209089.756011963,-1845243.4539794922,19743520.736694336,18309782.028198242,590054.0351867676,5953896.045684814,1289961.576461792,-6092527.389526367,-480057.35874176025,-10879606.246948242,2327288.866043091,10764165.878295898,36749889.3737793,1701592.0877456665,1308902.7404785156,14337889.671325684,-1990738.1534576416,200455.30796051025,-9907315.254211426,16601860.046386719,21503847.122192383,7190233.7074279785,1469591.2599563599,-344235.9268665314,9262971.878051758,10274108.88671875,10178956.031799316,12558471.6796875,12579010.009765625,12781064.0335083,13217370.03326416,7862612.724304199,7532540.321350098,7419523.239135742,10377960.205078125,10394245.147705078,11743024.826049805,11900734.901428223,8207899.09362793,6891261.100769043,5025481.224060059,10714629.173278809,10415324.211120605
0.48,13594196.319580078,26342775.344848633,25687990.188598633,7393815.994262695,9018817.901611328,-11910902.02331543,285760.3132724762,600365.8175468445,3647208.9290618896,-4243033.409118652,111249.05943870544,13394024.848937988,20142299.65209961,19945981.979370117,-7172.39361256361,10965265.274047852,-5409579.753875732,-5818323.612213135,-2876456.4990997314,-4212467.670440674,189912.67681121826,19311403.274536133,20241100.311279297,618002.5935173035,5913329.124450684,1571303.7252426147,-4087412.3573303223,-439630.2103996277,-9105616.569519043,718929.8868179321,6833552.360534668,26850473.403930664,1388486.0277175903,811547.1005439758,11052023.887634277,-3140419.2447662354,149769.51479911804,-10342169.761657715,13358094.215393066,15056250.57220459,-2040068.1495666504,911573.3504295349,-6696135.997772217,4240986.8240356445,5644629.47845459,6135433.673858643,8871012.687683105,5499579.429626465,5508044.242858887,5649525.6423950195,-229916.22984409332,-189288.09463977814,-375542.4916744232,6076121.807098389,1299677.6103973389,4197048.187255859,4253429.412841797,-634000.837802887,-871139.0495300293,-3193242.311477661,1364458.2033157349,1100375.1754760742
0.485,49173400.87890625,56744007.1105957,49414581.298828125,27016958.236694336,21969661.712646484,10086561.20300293,14002386.093139648,14057060.241699219,12610392.570495605,5650485.992431641,7517390.727996826,16539026.260375977,18860982.89489746,18573215.48461914,5237530.708312988,18993291.8548584,1551219.3441390991,1226350.7843017578,2527967.4530029297,937712.2521400452,2896934.986114502,15876471.519470215,18744445.80078125,5557052.6123046875,10002493.858337402,4800286.769866943,1269374.3705749512,-312957.19742774963,-5790648.460388184,-158413.30587863922,4580671.310424805,19337224.96032715,5906949.996948242,5213250.637054443,8275309.5626831055,-1927566.2899017334,95700.56200027466,-9199888.229370117,8027069.091796875,9094124.794006348,-5050755.500793457,5395393.371582031,-7810960.76965332,2425442.4571990967,2810759.7827911377,2574643.135070801,4498983.860015869,728739.9172782898,473855.49545288086,553633.5706710815,-1808539.2713546753,-1765123.8441467285,-1957487.8215789795,2474779.6058654785,-3517340.1832580566,-1419625.163078308,-1381402.2541046143,-4207712.173461914,-2395009.5176696777,-6212602.138519287,-3500762.701034546,-3588364.362716675
0.49,44422782.89794922,48756649.017333984,42302051.54418945,25749780.654907227,21330093.383789062,15564908.981323242,15268537.521362305,15239290.237426758,14018307.68585205,11617593.765258789,12652174.949645996,17009284.97314453,18188516.61682129,17974208.83178711,9013833.999633789,18818090.438842773,6241564.750671387,6032175.540924072,7372256.755828857,6006920.81451416,6388711.929321289,13553679.466247559,18208530.42602539,9121780.395507812,12906016.34979248,7241918.087005615,5595537.6625061035,28804.585337638855,-1983084.5594406128,1208937.2873306274,7298839.092254639,20488443.37463379,9380869.86541748,8704807.28149414,6256847.381591797,630403.0418395996,178321.83837890625,-5573716.163635254,5070832.7293396,7744888.3056640625,1686865.6873703003,9042069.435119629,-2919985.53276062,3848521.7094421387,3089450.5977630615,1749058.2466125488,2933506.727218628,1784875.3929138184,1471031.4273834229,1565894.7229385376,3117895.8415985107,2802376.5087127686,2757578.8497924805,1825070.2619552612,-291178.0774593353,-288783.4906578064,-229966.28284454346,51912.881433963776,2366362.8101348877,-1789918.065071106,-217112.77961730957,-138688.43019008636
0.495,9233360.290527344,17699880.599975586,20211795.806884766,6477282.524108887,13462553.977966309,-5727143.287658691,864413.2018089294,999984.2047691345,7184435.844421387,9968342.781066895,13630511.283874512,18151485.443115234,22653841.018676758,22671907.424926758,2206196.7849731445,6752945.423126221,4314055.919647217,4141925.811767578,8511465.072631836,8485479.354858398,10324548.721313477,16715518.951416016,22947525.024414062,2424210.0715637207,7753908.157348633,4034892.0822143555,4826007.36618042,345658.71953964233,708336.353302002,4743298.053741455,13795208.930969238,27683460.235595703,3111301.6605377197,2550729.274749756,3037294.387817383,874154.0908813477,318721.5328216553,-1645309.567451477,7744405.269622803,11411962.509155273,11048275.9475708,2859849.691390991,-963649.5113372803,3032636.880874634,3164922.7142333984,2407317.1615600586,4604264.259338379,6533651.828765869,6528499.126434326,6468430.995941162,5766050.338745117,5221260.547637939,5297187.805175781,2574621.2005615234,5522995.948791504,5057832.717895508,5093484.878540039,5006317.138671875,4951966.762542725,3444561.9583129883,5542870.044708252,5645618.438720703
0.5,-19524051.666259766,73434.94892120361,12140293.12133789,-12855280.876159668,9721499.4430542,-41215709.6862793,-18822364.807128906,-18344493.865966797,-1216993.808746338,3510814.905166626,11357738.494873047,21504449.84436035,30705087.661743164,30839023.59008789,-15248985.290527344,-10580783.84399414,-2731803.6556243896,-3014219.9993133545,6032340.526580811,8138893.127441406,13560328.483581543,24275817.87109375,31026153.564453125,-14603984.832763672,-5189852.714538574,-4267021.179199219,83212.31603622437,300968.9152240753,1481916.069984436,8762255.668640137,18945995.330810547,32548530.57861328,-13249634.742736816,-13588711.738586426,-2062525.2723693848,-2709303.379058838,261385.82825660706,-943198.8596916199,13360010.147094727,15868053.436279297,12782904.624938965,-13604591.369628906,-9280454.635620117,-3419046.8788146973,-346469.34270858765,1136100.172996521,5895666.599273682,9055012.702941895,9483493.80493164,9165948.867797852,-461129.6355724335,-780702.4717330933,-784128.3679008484,1192268.1331634521,5263431.072235107,6893569.9462890625,6900365.829467773,1688665.8668518066,-1081055.4027557373,1242406.1298370361,5126643.657684326,5126318.454742432
0.505,-24433139.80102539,6663779.735565186,22683797.83630371,-21373525.619506836,12369018.5546875,-69406295.77636719,-32187438.96484375,-31350208.282470703,-5322120.666503906,-1797647.9530334473,8574240.684509277,25090877.532958984,36979270.935058594,36971084.59472656,-32395771.026611328,-23191507.33947754,-9400785.446166992,-9841579.43725586,3185816.526412964,7232022.285461426,15356792.449951172,31296005.249023438,37070823.669433594,-31264497.756958008,-17753047.943115234,-11632520.67565918,-4216706.275939941,-23187.020793557167,1075218.915939331,11606962.203979492,19675210.95275879,32381610.870361328,-29432451.248168945,-29427989.959716797,-6504147.052764893,-7300541.400909424,-42920.805513858795,-4094645.9770202637,16379421.23413086,17369947.43347168,6672193.0503845215,-29858489.990234375,-21992195.12939453,-11199775.695800781,-5749364.376068115,-2568680.2864074707,3976511.4784240723,7078741.550445557,7654310.22644043,7352210.521697998,-10352100.372314453,-10247457.504272461,-10402761.459350586,-2565206.289291382,-1250945.2104568481,2752130.9852600098,2794524.4312286377,-7841576.099395752,-10694031.715393066,-7077152.729034424,-1439741.2538528442,-1559445.5003738403
