time,Fp1,Fpz,Fp2,AF3,AF4,F7,F5,F3,F1,Fz,F2,F4,F6,F8,FT7,FC5,FC3,FC1,FCz,FC2,FC4,FC6,FT8,T7,C5,C3,C1,Cz,C2,C4,C6,T8,TP7,CP5,CP3,CP1,CPz,CP2,CP4,CP6,TP8,P7,P5,P3,P1,Pz,P2,P4,P6,P8,PO7,PO5,PO3,POz,PO4,PO6,PO8,CB1,O1,Oz,O2,CB2
0.0,-271588.59372138977,879588.6635780334,1477928.7576675415,-71541.07838869095,26619.499549269676,-2932590.0077819824,-1285365.343093872,-1235444.0689086914,638551.5332221985,3065.526019781828,498587.2805118561,489087.13459968567,492004.6329498291,1806072.5927352905,-2959734.6782684326,-1038909.912109375,-271764.51683044434,-252673.9239692688,208932.96599388123,318429.94689941406,322297.99032211304,1108301.043510437,1111862.6594543457,-2045946.1212158203,-1450410.8428955078,-1039636.7311477661,-43635.12992858887,-25306.185707449913,419598.2813835144,764863.3718490601,468686.40184402466,298888.6535167694,-755859.4942092896,-1467699.5277404785,-408872.3659515381,-67448.83209466934,58031.82348608971,398641.7055130005,379676.6698360443,601157.2480201721,592422.0681190491,-771556.3774108887,-748374.2833137512,-742309.2126846313,-274836.57002449036,156281.6947698593,423082.7987194061,668271.1839675903,651731.550693512,606666.2073135376,-756556.9281578064,-775347.2924232483,-230938.27068805695,177246.73449993134,401136.24930381775,670710.1464271545,644553.3633232117,-691580.5339813232,-246044.3377494812,199245.6614971161,400540.9777164459,397603.69062423706
0.005,19576427.459716797,8327349.662780762,2563543.0812835693,11003911.018371582,10373169.898986816,25124177.932739258,-712278.2468795776,970665.2164459229,48805618.28613281,9445022.583007812,8120580.673217773,6872183.322906494,7106246.471405029,-24720817.56591797,23958206.176757812,8299923.896789551,10531108.856201172,8999851.22680664,7502914.4287109375,7779884.815216064,7374080.181121826,-5799034.118652344,-7902555.465698242,-5903062.343597412,4324382.305145264,3506194.3531036377,-3340817.451477051,5471602.916717529,-260232.68699645996,3744922.876358032,-9079386.711120605,-7010329.723358154,-3688336.6107940674,3309544.324874878,6646111.011505127,6369452.953338623,675175.9648323059,-905567.7056312561,-2242608.3087921143,-13987644.19555664,-14424734.115600586,-4220573.902130127,-3426286.6973876953,-3337709.426879883,-3984132.0514678955,-14665132.522583008,-6063717.365264893,-13088032.722473145,-13819686.889648438,-13375726.699829102,-3893163.6810302734,-4558817.386627197,-13632028.579711914,-12968486.785888672,-7133590.6982421875,-12272630.69152832,-13436694.145202637,1145113.3489608765,-13831292.152404785,-11672324.180603027,-7892925.262451172,-7595919.132232666
0.01,24563013.076782227,9794434.547424316,2941712.1410369873,14202899.932861328,12978773.11706543,32427013.397216797,-2140239.715576172,443710.20793914795,67666252.13623047,12356028.55682373,10171010.971069336,8543892.860412598,8834057.807922363,-34205135.345458984,30830280.303955078,11088532.447814941,14897837.63885498,11807051.658630371,9528807.640075684,10085268.020629883,9517759.323120117,-7907883.167266846,-10733154.296875,-7594468.116760254,6335939.407348633,5057173.252105713,-4853887.08114624,7125892.639160156,-98813.7423992157,5187518.119812012,-12065233.23059082,-10411633.491516113,-4899905.681610107,4968396.186828613,9745545.387268066,7710397.243499756,834839.1056060791,-906047.523021698,-2821724.1764068604,-19272167.205810547,-19821910.858154297,-5651514.530181885,-4606093.406677246,-4333579.540252686,-3684365.0341033936,-18877855.30090332,-7664409.637451172,-17926147.4609375,-18815509.796142578,-18371269.22607422,-5153474.3309021,-6143854.61807251,-18122560.501098633,-16355438.232421875,-9211009.979248047,-16746036.529541016,-18315631.866455078,2251958.8470458984,-18275213.24157715,-14532086.372375488,-10231565.475463867,-9884800.910949707
0.015,17273426.055908203,7072318.077087402,3574347.2576141357,10641604.42352295,9123876.571655273,20195590.97290039,-5971773.624420166,-3290700.1972198486,58946910.8581543,9013607.025146484,7380193.710327148,6073583.602905273,6282320.499420166,-27152751.922607422,18867778.778076172,7312389.373779297,12763036.727905273,8575062.75177002,6734230.041503906,7520771.026611328,7042196.273803711,-5391043.186187744,-6592518.8064575195,-8291437.149047852,4258194.923400879,3389319.896697998,-4358688.3544921875,5420313.358306885,592640.4595375061,4903532.028198242,-8735044.479370117,-8436681.747436523,-4288473.129272461,3079393.3868408203,9187858.581542969,4895249.366760254,603370.189666748,34271.86235785484,-1762235.2838516235,-15023235.321044922,-15425127.983093262,-4989088.05847168,-4182828.426361084,-3652752.161026001,-501765.6087875366,-13786302.56652832,-5113759.517669678,-13767079.35333252,-14377753.257751465,-14108527.183532715,-4453614.711761475,-5475123.405456543,-15964975.357055664,-11403694.152832031,-6500282.287597656,-12628480.911254883,-13992014.88494873,2144370.0790405273,-16023025.512695312,-9713306.427001953,-7359250.068664551,-7198544.979095459
0.02,10821301.460266113,5383166.313171387,4764398.097991943,7024922.3709106445,5462993.144989014,5707605.838775635,-10923679.35180664,-8515735.626220703,46258766.174316406,4300200.939178467,4279633.522033691,3183034.4200134277,3356896.40045166,-18066717.14782715,4767109.394073486,2310143.7091827393,8789461.135864258,4359347.343444824,3303363.32321167,4265029.9072265625,3913816.6904449463,-2596623.659133911,-638898.0746269226,-11100203.514099121,896568.7155723572,659355.2827835083,-3340587.1391296387,3362729.787826538,954849.4219779968,3768711.805343628,-4723825.931549072,-3708245.277404785,-3102547.4071502686,-155329.91290092468,8230476.379394531,3065094.232559204,439494.19260025024,644373.1188774109,-910790.5626296997,-8538218.49822998,-8816019.058227539,-3735371.1128234863,-3195699.2149353027,-2472877.264022827,1595466.0177230835,-8540496.826171875,-2671102.76222229,-7624505.996704102,-8043619.155883789,-7622982.025146484,-3206353.6643981934,-4195818.901062012,-15345800.399780273,-6656442.165374756,-3666946.6495513916,-6592385.292053223,-7772171.0205078125,1277787.3277664185,-15543024.063110352,-5150212.76473999,-4390427.112579346,-4430039.405822754
0.025,10403909.683227539,4667694.568634033,3685935.4972839355,6133756.637573242,4193548.2025146484,1251122.8322982788,-14901631.355285645,-12773249.626159668,43584335.32714844,694929.0037155151,2260588.1690979004,922643.1846618652,1191997.5280761719,-18794137.954711914,374499.5594024658,499725.6398200989,6279525.7568359375,1977858.304977417,1013332.4861526489,2625496.1490631104,2240782.0224761963,-3609515.905380249,488985.92591285706,-16040769.577026367,-422169.7747707367,-852806.9853782654,-3651921.272277832,1902609.2290878296,658627.5100708008,2132582.187652588,-4636288.166046143,-1578716.516494751,-2225585.9375,-1697939.8727416992,8837275.505065918,5128779.888153076,610464.6921157837,337204.60534095764,-1133010.6258392334,-6222302.436828613,-6503711.700439453,-2922956.943511963,-2352262.020111084,-1620187.1633529663,1633340.2395248413,-7814188.003540039,-2279929.1610717773,-5353140.354156494,-5852577.686309814,-5216377.258300781,-2418924.09324646,-3398427.0095825195,-17886541.36657715,-6131745.8152771,-3076984.643936157,-4349730.968475342,-5613347.053527832,1079069.6144104004,-18324478.149414062,-4572827.8160095215,-3903796.672821045,-4002614.4981384277
0.03,10298825.26397705,898038.8641357422,-2312977.7908325195,5123302.936553955,1833219.7666168213,5775158.405303955,-16245464.324951172,-14291303.634643555,45423053.74145508,-3135837.7933502197,-1200203.776359558,-2828401.803970337,-2440911.293029785,-29235460.28137207,4701356.410980225,1922720.193862915,5105157.852172852,401510.7750892639,-1807354.211807251,1167223.6919403076,566844.9997901917,-9132683.753967285,-5402103.424072266,-18518272.399902344,1721529.7222137451,-365410.86435317993,-5711972.236633301,-258976.42970085144,-165963.0835056305,-627656.5790176392,-8713128.089904785,-5341693.878173828,-1600881.3381195068,154318.33267211914,10250559.80682373,9047356.605529785,922630.6676864624,-680226.8028259277,-2044671.2970733643,-8884338.37890625,-9150626.182556152,-2415914.77394104,-1619129.6577453613,-1062506.914138794,2085305.2139282227,-8766326.904296875,-2479302.167892456,-7512034.4161987305,-8111140.251159668,-7816356.182098389,-1977750.301361084,-2904279.947280884,-18316627.502441406,-6874239.921569824,-3361402.0347595215,-6570330.619812012,-7918641.090393066,1947365.2839660645,-18731433.868408203,-5208468.914031982,-4336780.071258545,-4399437.90435791
0.035,6442450.046539307,-5464856.147766113,-10393764.49584961,2044547.7962493896,-3296118.73626709,12540340.423583984,-14918067.932128906,-13005822.18170166,43834049.224853516,-7565515.518188477,-6848440.647125244,-8408849.716186523,-8019923.210144043,-40987945.556640625,11302139.282226562,4245853.900909424,4453542.232513428,-1269065.8569335938,-5678312.7784729,-1730933.0701828003,-2584029.197692871,-16394144.058227539,-13881939.888000488,-15243521.690368652,5623735.427856445,1123175.5018234253,-7947810.649871826,-3115037.679672241,-1460567.593574524,-4579151.630401611,-14341215.133666992,-12626065.254211426,-1237792.2534942627,4028568.2678222656,11109446.52557373,11085271.835327148,1053925.0373840332,-2161391.019821167,-3385565.2809143066,-13578546.524047852,-13722558.975219727,-2083494.1864013672,-1134854.0782928467,-824213.8624191284,4162365.9133911133,-8173386.573791504,-2048205.852508545,-11518556.594848633,-12082517.623901367,-12563854.217529297,-1702749.0139007568,-2554764.2707824707,-14695973.39630127,-6018240.928649902,-3100547.0752716064,-10698915.481567383,-11962999.34387207,2202865.3621673584,-14826572.41821289,-4353164.6728515625,-4060768.1274414062,-4105172.1572875977
0.04,2654913.4254455566,-8492055.892944336,-13814140.319824219,-789408.266544342,-7510109.901428223,16461193.084716797,-12517393.112182617,-10569481.84967041,40706184.38720703,-9763987.54119873,-10932660.102844238,-12189033.508300781,-11901880.264282227,-45057884.216308594,15217809.677124023,6125052.452087402,4657625.198364258,-1862678.5278320312,-7872961.99798584,-4875760.555267334,-5836965.560913086,-20806194.305419922,-17802986.14501953,-9787645.33996582,7680507.659912109,1774403.9297103882,-8330113.410949707,-4574836.254119873,-2913521.2898254395,-7986383.91494751,-18302248.001098633,-17530109.405517578,-1374308.2284927368,6234789.3714904785,11267966.270446777,9962912.559509277,958972.4540710449,-3686850.3093719482,-5109438.419342041,-16815370.559692383,-16867221.83227539,-2137922.2869873047,-1190939.5456314087,-1045183.3009719849,5998648.643493652,-6639329.433441162,-1665099.7400283813,-14462336.540222168,-15004003.524780273,-15902638.43536377,-1696458.339691162,-2573001.3847351074,-11417403.221130371,-4472125.053405762,-2736718.4162139893,-13661431.312561035,-14847200.393676758,778474.9269485474,-11394887.924194336,-2833672.7619171143,-3594841.480255127,-3649677.038192749
0.045,3391187.1910095215,-5064437.8662109375,-9741339.683532715,-810134.23204422,-6995275.020599365,15616358.757019043,-10531041.145324707,-8665366.172790527,40776359.55810547,-7678903.102874756,-9800189.018249512,-10859661.102294922,-10638945.579528809,-38162849.42626953,14409820.556640625,8082277.297973633,5997430.324554443,-661836.8625640869,-6459269.046783447,-5904568.672180176,-6763517.8565979,-19081907.272338867,-14128108.978271484,-8622610.092163086,6353300.094604492,954830.7657241821,-6726160.049438477,-3746038.1984710693,-3681806.802749634,-8751476.287841797,-18209598.541259766,-16473882.675170898,-1350809.931755066,4915531.158447266,11412755.966186523,7624182.224273682,800174.9515533447,-4391387.462615967,-6434921.2646484375,-16385183.334350586,-16522193.908691406,-2007080.316543579,-1107691.1687850952,-955215.6329154968,6090789.794921875,-5579883.575439453,-1879598.2599258423,-14308730.125427246,-14913409.233093262,-15536993.980407715,-1366728.9018630981,-2373093.1282043457,-11267045.021057129,-3574944.257736206,-2754418.8499450684,-13324086.18927002,-14584605.21697998,-32286.24537587166,-11394151.68762207,-1887490.98777771,-3626111.5074157715,-3650748.7297058105
0.05,7591530.323028564,811445.1169967651,-2836700.439453125,983023.464679718,-3062635.1833343506,12313840.866088867,-8935003.280639648,-7356492.99621582,43016338.34838867,-3727189.064025879,-5014050.006866455,-6075392.246246338,-5809325.218200684,-26322265.625,11027690.887451172,10760480.880737305,7645348.54888916,791117.4297332764,-3885923.147201538,-4596094.131469727,-5246788.501739502,-12769858.360290527,-6943089.962005615,-12329881.66809082,4522663.593292236,234355.18145561218,-5334417.819976807,-2602708.8165283203,-3350380.4206848145,-7074259.7579956055,-14474200.248718262,-11373011.589050293,13626.336120069027,2867177.724838257,11899032.592773438,6869597.911834717,621245.4438209534,-3915860.176086426,-6358329.296112061,-12840998.649597168,-13165697.09777832,-609180.0928115845,258688.98630142212,563897.7289199829,5647793.769836426,-4886016.368865967,-1995355.248451233,-11286475.18157959,-11851733.207702637,-12014927.864074707,237915.17317295074,-859004.9147605896,-11226118.087768555,-2961277.484893799,-2606132.2689056396,-10049715.995788574,-11429892.539978027,2348800.4207611084,-11504957.19909668,-1154107.928276062,-3634295.4635620117,-3579511.880874634
0.055,11727448.463439941,3938053.846359253,683400.3925323486,1880429.6255111694,81127.64358520508,11582947.731018066,-7453945.636749268,-6108240.127563477,43816131.591796875,-2248265.266418457,-1513857.8414916992,-2633374.2141723633,-2299776.315689087,-20402669.90661621,10111252.784729004,12909955.024719238,8481947.898864746,600730.7767868042,-4000220.29876709,-3004402.6374816895,-3487554.7885894775,-7656365.394592285,-2985996.723175049,-15527564.04876709,5552895.545959473,1064629.5547485352,-6254514.694213867,-3168126.8215179443,-2686288.1183624268,-5333898.544311523,-10776954.650878906,-7060975.074768066,1895321.011543274,3707033.87260437,12202164.649963379,8387873.649597168,330883.35394859314,-3143530.3688049316,-5122906.20803833,-9556303.024291992,-9982851.028442383,1214800.7154464722,2013601.541519165,2513159.0366363525,6030830.860137939,-4731452.465057373,-1601144.4330215454,-8341049.1943359375,-8685341.835021973,-8717887.878417969,2104506.731033325,1059886.4555358887,-8900690.078735352,-2742300.7488250732,-2101145.9827423096,-6995441.436767578,-8421443.939208984,5171979.904174805,-9066823.959350586,-779904.7827720642,-3250539.541244507,-3163182.258605957
0.06,13724453.926086426,3863020.420074463,-119744.97884511948,669181.3468933105,447071.1052417755,14032064.437866211,-7531261.920928955,-6079171.657562256,42466434.478759766,-4504605.293273926,-1747191.6675567627,-2885868.787765503,-2609549.7608184814,-24433872.22290039,12465377.807617188,11880056.381225586,8027313.232421875,-1258547.6636886597,-6857140.54107666,-2788729.190826416,-3168209.0759277344,-7794118.404388428,-4564586.162567139,-15827126.502990723,7705826.759338379,1947160.3631973267,-8919129.371643066,-4741087.913513184,-2556614.875793457,-5044790.267944336,-10467801.094055176,-6549044.609069824,1417375.3261566162,5947744.846343994,11416230.201721191,10024616.241455078,-1447.3862247541547,-3001488.9240264893,-3956206.0832977295,-9276061.058044434,-9677665.710449219,683078.1698226929,1360156.2976837158,1989578.0086517334,6398313.522338867,-5856536.865234375,-1272951.7221450806,-8002980.2322387695,-8206106.185913086,-8384200.096130371,1385545.7305908203,493104.0108203888,-7149515.628814697,-3824494.8387145996,-1879842.0429229736,-6768841.26663208,-8209962.844848633,2771361.1125946045,-7127343.654632568,-1762368.083000183,-2961056.2324523926,-2973690.0329589844
0.065,11942618.370056152,1987564.6829605103,-2678664.445877075,-2712431.9076538086,-1256577.3725509644,13113141.059875488,-11137070.655822754,-9415256.50024414,39608802.795410156,-8318150.520324707,-3945960.760116577,-5089659.214019775,-5004562.854766846,-31116216.6595459,11705977.439880371,6829774.856567383,6373197.555541992,-3531938.076019287,-9290541.648864746,-3708285.331726074,-3980414.390563965,-11009537.696838379,-8160232.5439453125,-17017572.4029541,6483015.060424805,273445.84465026855,-10820404.052734375,-5375033.855438232,-2537665.367126465,-5272372.245788574,-12360387.802124023,-8758603.0960083,-1554259.6578598022,5018335.342407227,9759332.656860352,9605060.577392578,-92444.44221258163,-2996884.1075897217,-3221724.74861145,-10505700.11138916,-10884084.701538086,-2231734.275817871,-1614992.2609329224,-1000560.5220794678,6006683.349609375,-6829639.434814453,-1059394.0019607544,-8835630.416870117,-9172274.589538574,-9576068.878173828,-1840367.5556182861,-2584892.988204956,-8147699.356079102,-4872248.649597168,-1823359.3702316284,-7837280.750274658,-9296951.293945312,-3243443.489074707,-8172379.493713379,-2927088.0222320557,-2711893.7969207764,-2905824.4228363037
0.07,4389732.837677002,-3386446.237564087,-7039197.4449157715,-8872826.57623291,-4768847.465515137,4195907.5927734375,-17893033.981323242,-16171461.10534668,34547992.70629883,-11973122.596740723,-6054778.575897217,-7220297.813415527,-7297052.383422852,-32496921.53930664,3104153.3946990967,516727.8051376343,3968257.9040527344,-5469901.084899902,-9997976.303100586,-4867154.121398926,-5043886.661529541,-12471161.842346191,-9634298.324584961,-20881198.88305664,2520101.547241211,-3184922.218322754,-10651951.789855957,-4891787.052154541,-1646255.9700012207,-4762797.832489014,-12368271.827697754,-10027375.221252441,-1746932.9833984375,1254119.873046875,9294755.935668945,8115443.229675293,192948.8480091095,-2076337.5759124756,-2113760.232925415,-9280500.411987305,-9725272.178649902,-2281038.522720337,-1579083.4426879883,-1152981.2812805176,6682539.939880371,-4359313.96484375,57074.181735515594,-7164398.670196533,-7649314.403533936,-8417142.868041992,-2116579.77104187,-2784478.6643981934,-7618977.069854736,-2472507.953643799,-718000.054359436,-6357598.781585693,-7771735.191345215,-1849318.265914917,-7842346.668243408,-855685.6513023376,-1510483.8609695435,-1796313.2858276367
0.075,-7747719.764709473,-14269038.200378418,-15784205.436706543,-17627971.649169922,-10715287.208557129,-6612180.709838867,-24799495.697021484,-23362766.26586914,27762275.69580078,-15926911.354064941,-8647873.878479004,-9838610.649108887,-9899113.655090332,-30917585.372924805,-7515131.47354126,-3255454.3018341064,1664012.4320983887,-7074368.476867676,-10993351.936340332,-6182775.020599365,-6373361.587524414,-11421118.73626709,-8662913.32244873,-21854061.126708984,2190375.0896453857,-4515829.086303711,-9668606.758117676,-4790792.942047119,-155384.823679924,-4197325.706481934,-9241999.626159668,-7504741.668701172,5550497.055053711,883728.3253669739,11853840.827941895,8599281.311035156,587605.2379608154,-563134.4318389893,-416442.3644542694,-4461607.933044434,-4996389.389038086,5105767.250061035,5923995.9716796875,6083290.100097656,10115594.863891602,1842245.9363937378,2303077.459335327,-2249878.406524658,-2536168.5752868652,-3729856.491088867,5270337.5816345215,4592609.882354736,-691287.5771522522,3778683.1855773926,1635084.7482681274,-1471299.7674942017,-2781070.7092285156,13922101.974487305,-926300.8832931519,5166298.389434814,732838.6306762695,572928.0710220337
0.08,-18290910.720825195,-26463518.142700195,-27535032.272338867,-25297016.143798828,-17467239.379882812,-8665424.346923828,-28486816.40625,-27165111.541748047,23184843.063354492,-20015935.89782715,-12455315.589904785,-13644768.714904785,-13562371.253967285,-33258274.07836914,-9627271.65222168,-3200285.9115600586,562590.0030136108,-8042317.3904418945,-13399955.749511719,-7765915.870666504,-8060383.7966918945,-11045838.356018066,-7249874.114990234,-14806061.744689941,8586426.734924316,-2042242.0501708984,-9539299.011230469,-5727229.595184326,525992.8107261658,-4894707.202911377,-6016031.265258789,-1850136.399269104,16835670.471191406,7182288.16986084,16108030.319213867,11743196.487426758,699679.970741272,78093.33503246307,708793.3421134949,827258.7656974792,284115.91053009033,16348144.53125,17121686.935424805,17139724.731445312,14106139.183044434,7200085.163116455,4074306.4880371094,2575357.437133789,2703476.667404175,1522505.283355713,16673650.741577148,15942936.897277832,9268465.995788574,9215682.029724121,3429383.9931488037,3480261.80267334,2194273.9486694336,34943634.033203125,9252247.81036377,10721647.262573242,2362607.002258301,2488368.034362793
0.085,-20813533.782958984,-30770072.93701172,-34242523.193359375,-26287794.11315918,-20103418.350219727,-273043.6325073242,-27114728.927612305,-25533676.147460938,24510433.197021484,-21377803.802490234,-14852313.041687012,-15984700.202941895,-15818429.946899414,-37463302.61230469,-1351909.3990325928,-548856.1987876892,1407915.9498214722,-7536762.714385986,-14768093.10913086,-8534007.07244873,-8851481.437683105,-11807056.427001953,-5590632.915496826,-3759384.6321105957,16320070.266723633,1294861.078262329,-10001185.417175293,-6677785.873413086,-62761.0981464386,-6083680.152893066,-4828357.696533203,3473444.2234039307,23058397.29309082,14994297.02758789,18286788.940429688,14425993.919372559,474180.9368133545,-533769.0711021423,465945.6014633179,3632233.6196899414,3165898.323059082,22461757.65991211,23053855.895996094,23151758.193969727,14709915.161132812,7513906.955718994,3914284.4676971436,4575123.7869262695,4840050.220489502,4421261.787414551,22893075.942993164,22152343.75,13666721.34399414,9496382.713317871,3142115.354537964,5661843.776702881,4275677.680969238,44524978.63769531,13778855.323791504,11252204.895019531,2069349.2889404297,2427948.236465454
0.09,-14573288.917541504,-22653341.29333496,-28420209.884643555,-19088850.021362305,-15058223.724365234,9834443.092346191,-21314090.728759766,-19485944.747924805,30483608.24584961,-17525489.807128906,-11988011.360168457,-13015626.907348633,-12893323.89831543,-34122646.33178711,8791057.586669922,3188527.3456573486,3961694.7174072266,-5310850.143432617,-12596888.542175293,-6982601.165771484,-7172383.3084106445,-9789127.349853516,-1964527.2493362427,2493865.489959717,18341102.600097656,2239185.094833374,-9630877.494812012,-6643005.847930908,-759058.5947036743,-5564123.630523682,-3803372.859954834,5803722.381591797,20344089.50805664,17204256.057739258,16613046.646118164,13726864.8147583,209608.7783575058,-1139801.5022277832,-273010.2837085724,4440359.115600586,4054565.906524658,19654233.932495117,20184917.449951172,20400562.286376953,11698344.230651855,3994791.030883789,2464890.241622925,4722910.404205322,4687076.568603516,5266991.61529541,20008867.263793945,19339832.305908203,9719643.592834473,5879662.51373291,1610664.6060943604,5981719.017028809,4521138.1912231445,37812759.39941406,9686460.494995117,7611825.466156006,663293.3616638184,1035242.5575256348
0.095,-5026120.185852051,-8450117.111206055,-12843059.539794922,-9493795.394897461,-5573282.241821289,13594030.380249023,-15042513.847351074,-13345138.549804688,35814468.38378906,-10898547.172546387,-4737943.172454834,-5702876.567840576,-5602288.722991943,-21931325.912475586,12674601.554870605,6335518.836975098,6633303.642272949,-2768515.3484344482,-8697269.439697266,-3668986.0820770264,-3752456.6650390625,-3616298.4371185303,3474070.0721740723,1300916.4333343506,14482222.557067871,1186231.6131591797,-8298037.528991699,-5999299.5262146,-563879.6091079712,-3106816.291809082,-1054022.5505828857,5897699.356079102,14075386.047363281,13367089.27154541,13489420.890808105,10667960.166931152,151495.68021297455,-809449.4342803955,-303285.0921154022,5054865.837097168,4696715.831756592,13313638.687133789,14034026.145935059,14148039.817810059,8879771.23260498,1143266.9162750244,1479862.4515533447,5181066.989898682,4782508.850097656,5731018.543243408,13507018.089294434,12923401.832580566,3489387.035369873,3013493.061065674,772312.581539154,6590385.913848877,5183627.128601074,26151294.708251953,3254008.5315704346,4456967.353820801,-137039.452791214,69733.70909690857
0.1,1022650.4802703857,435205.69801330566,-56767.310947179794,-5504791.736602783,134967.77415275574,10774296.760559082,-13689495.086669922,-12276322.364807129,36371482.849121094,-7538835.525512695,551234.8413467407,-496014.5056247711,-238399.05858039856,-12257317.543029785,9862724.304199219,6539447.30758667,7241199.016571045,-2103477.4780273438,-7308068.752288818,-1498578.429222107,-1675096.869468689,1358078.5989761353,7233439.4454956055,-2437421.7987060547,9948103.904724121,255995.81003189087,-7446931.838989258,-5761771.678924561,-42717.5872027874,-1270262.7182006836,1149803.4000396729,6031150.817871094,11191720.962524414,8596655.84564209,12286067.008972168,8566618.919372559,235603.58583927155,-249195.44160366058,110829.98663187027,5434113.502502441,5082908.153533936,10401861.190795898,11335351.943969727,11177050.590515137,8809434.89074707,1122143.9838409424,1586729.1688919067,5914731.025695801,5435546.398162842,5952741.622924805,10529504.776000977,9961242.67578125,1623414.5164489746,3051020.383834839,1122289.2999649048,7376677.0362854,6048713.207244873,21797361.373901367,1389336.9436264038,4333522.796630859,105224.74348545074,154048.30873012543
0.105,1217583.8947296143,-831712.8419876099,-232804.3133020401,-8334385.871887207,-2122962.9516601562,6424765.586853027,-17869392.39501953,-16469684.600830078,33251651.763916016,-9983176.231384277,-559053.9574623108,-1804751.7538070679,-1297129.9886703491,-14737665.176391602,5377931.118011475,3842187.8814697266,5553964.614868164,-3586700.916290283,-9373640.060424805,-2276675.4627227783,-2668698.54927063,-312895.2383995056,6079548.8357543945,-3887021.064758301,8636911.392211914,271203.6073207855,-7933715.343475342,-6197290.420532227,-254681.67662620544,-2016645.1930999756,-403257.01236724854,6355360.507965088,12714955.32989502,7007484.436035156,13482081.413269043,9140938.758850098,270582.28850364685,-526838.8390541077,-92350.25197267532,4390386.581420898,4109179.4967651367,12017847.061157227,12894398.68927002,12623590.469360352,10028178.215026855,2209965.467453003,1959634.4232559204,5435980.796813965,5042373.6572265625,5038464.069366455,12216004.371643066,11596500.396728516,4434928.417205811,4139023.3039855957,1512360.692024231,6731252.670288086,5407063.4841918945,25400438.30871582,4326562.881469727,5549926.7578125,447880.68532943726,454747.17020988464
0.11,-66170.51362991333,-6212148.666381836,-9925148.010253906,-10811015.129089355,-7049046.039581299,5851912.975311279,-20839061.737060547,-19234800.338745117,31939424.514770508,-13549354.553222656,-4518538.951873779,-5918216.705322266,-5307539.939880371,-24912324.905395508,4673467.636108398,2944850.444793701,4681688.7855529785,-4426848.888397217,-11287216.186523438,-3904309.2727661133,-4422858.715057373,-5990199.089050293,1296243.1907653809,-2276073.455810547,11155279.159545898,1494860.6491088867,-8784415.245056152,-6571997.165679932,-1055168.1518554688,-3938525.1998901367,-4189462.661743164,5149193.76373291,15623956.680297852,9433296.203613281,15203901.290893555,11687356.948852539,230939.92471694946,-1425469.6369171143,-821989.5362854004,2133357.286453247,2008440.0177001953,15106992.721557617,15730056.762695312,15651138.305664062,10242733.001708984,1956906.4378738403,1739398.47946167,3526862.144470215,3106153.2497406006,3171559.3338012695,15404784.202575684,14713589.668273926,7994523.048400879,3835827.112197876,1006137.490272522,4494337.08190918,3191685.199737549,30055494.30847168,7881356.239318848,5381259.441375732,84408.85692834854,98391.11566543579
0.115,3585119.2474365234,-6620959.281921387,-15444869.995117188,-6483654.499053955,-6226218.223571777,10965236.66381836,-16321256.637573242,-14689986.228942871,36431945.80078125,-12023665.428161621,-4207927.227020264,-5605066.299438477,-5109045.98236084,-30802431.106567383,9714992.52319336,7919444.561004639,7931795.597076416,-1889581.9187164307,-9811559.677124023,-2770051.4793395996,-3272869.825363159,-7938660.621643066,-1875349.998474121,1482537.865638733,16370195.388793945,4582319.736480713,-8563450.813293457,-5973292.827606201,-1264052.6294708252,-4026065.3495788574,-5220412.254333496,2813508.5105895996,18036649.703979492,14746616.36352539,16122653.96118164,14649730.682373047,267841.07089042664,-1782877.2068023682,-745052.8740882874,503500.1039505005,497372.5974559784,17582044.60144043,18104001.998901367,18266559.600830078,9489236.831665039,133909.28506851196,1012993.335723877,1760624.647140503,1207527.6374816895,1797943.5920715332,17924860.00061035,17148071.2890625,9383821.487426758,2054845.8099365234,13058.319687843323,2527646.30317688,1363892.3168182373,31096729.278564453,9109036.445617676,3487428.665161133,-762830.7938575745,-783298.6116409302
0.12,12760963.439941406,-685335.2189064026,-9017728.805541992,1917234.8976135254,831905.3053855896,18482650.756835938,-7337814.3310546875,-5924564.838409424,43849861.14501953,-5978888.988494873,1328367.7101135254,37681.75095319748,397750.76508522034,-27878482.818603516,17131793.975830078,15408547.401428223,14102880.477905273,2666379.21333313,-6275666.7137146,1199267.029762268,734083.0564498901,-3794475.317001343,325187.71290779114,6186933.517456055,21567300.79650879,8627941.131591797,-7275052.547454834,-4280928.611755371,-377590.2986526489,-1644319.772720337,-1957720.2796936035,2763868.3319091797,19549222.946166992,20113729.47692871,16283023.834228516,16546401.977539062,490937.4415874481,-1119404.1967391968,648402.750492096,858314.5141601562,753444.9696540833,18936552.047729492,19615171.432495117,19799345.016479492,8809883.117675781,-1507596.3735580444,457597.941160202,1634094.1190719604,1055733.2038879395,1975696.325302124,19288675.30822754,18414634.704589844,8328066.825866699,553881.8836212158,-462049.6928691864,2520769.3576812744,1495545.9833145142,28662984.84802246,7958262.920379639,1766499.8769760132,-1318394.0649032593,-1361038.088798523
0.125,20254306.79321289,4337935.924530029,1440657.615661621,6243830.20401001,5850879.669189453,22580791.473388672,-2287070.2743530273,-984571.6953277588,46808212.28027344,-2270390.510559082,5489724.159240723,4291014.671325684,4669519.901275635,-21953582.763671875,21093818.66455078,18159154.891967773,18181838.989257812,4877967.357635498,-4483841.896057129,3954083.204269409,3473227.2624969482,815373.6591339111,6080203.533172607,9629992.485046387,23302690.505981445,10647598.266601562,-6209715.843200684,-2444429.1591644287,694639.8019790649,651646.8524932861,1738586.42578125,6738676.54800415,19647192.001342773,21993167.877197266,16063430.786132812,16395996.09375,839031.8155288696,-176993.4743642807,2010015.9645080566,2907689.5713806152,2495940.4468536377,18864191.05529785,19667287.826538086,19749927.520751953,8261698.7228393555,-1156547.4271774292,616278.1119346619,3289641.1418914795,2853087.1868133545,3600254.774093628,19232381.82067871,18301511.764526367,6462105.274200439,971445.8584785461,14391.472563147545,4450178.623199463,3371349.334716797,25608766.555786133,6192030.906677246,2116379.0225982666,-1048860.4307174683,-985355.1983833313
0.13,19172769.54650879,2397766.11328125,2499016.046524048,3789644.956588745,2966940.8798217773,21724185.943603516,-3163542.7474975586,-1680964.5891189575,42390029.90722656,-4961858.749389648,3308069.7059631348,2149156.8088531494,2603521.5854644775,-19341922.760009766,20221986.770629883,15526165.962219238,17586812.97302246,2983636.1408233643,-5678018.569946289,2467464.9238586426,1969605.4458618164,787280.8575630188,10048374.17602539,10665460.586547852,21356142.044067383,9462476.73034668,-6214056.015014648,-1649403.45287323,714418.0536270142,296922.0578670502,2310910.224914551,11148522.37701416,18948354.721069336,20088829.040527344,15878204.345703125,14766404.151916504,1145166.277885437,19022.947177290916,1676166.8920516968,5197959.899902344,4557915.210723877,18230583.19091797,18900959.014892578,19003448.486328125,8008212.089538574,1361834.8836898804,1392987.2512817383,5532068.729400635,5282085.418701172,5679076.194763184,18606653.213500977,17701396.942138672,6164569.854736328,3414963.0069732666,928226.7093658447,6823840.618133545,5527725.696563721,25904466.62902832,6061322.212219238,4633510.589599609,-168053.0160665512,90573.80259037018
0.135,11625845.909118652,-3485996.723175049,-6921763.4201049805,189337.90922164917,-3371758.222579956,20753568.649291992,-3854046.583175659,-2162731.409072876,36354064.94140625,-9981673.240661621,-1774698.4958648682,-2911251.5449523926,-2517280.5786132812,-20027017.59338379,19447551.727294922,14617823.600769043,15451132.774353027,212842.01741218567,-7348590.37399292,-1298117.995262146,-1755277.395248413,-1996889.4720077515,9027905.464172363,11486783.981323242,19888511.657714844,8057740.211486816,-6839198.112487793,-2044042.1104431152,-498465.2101993561,-2323454.6184539795,835858.941078186,10605245.590209961,19744327.545166016,18544382.095336914,16258346.557617188,13620257.377624512,1253471.01688385,-825961.5898132324,-330702.84128189087,5968058.109283447,5447305.202484131,19227479.934692383,19696472.16796875,19914001.46484375,9368581.771850586,4096077.9190063477,1945026.0400772095,6418598.651885986,6331112.861633301,6636003.9710998535,19557003.021240234,18722728.729248047,8110403.060913086,6076494.216918945,1262475.7289886475,7673320.770263672,6208781.2423706055,31539413.452148438,8080427.169799805,7324280.261993408,373727.023601532,712054.5506477356
0.14,5734765.529632568,-5904688.835144043,-14598097.801208496,639008.5220336914,-5144792.556762695,22782093.048095703,-1121269.941329956,521045.6848144531,35497985.83984375,-11006192.207336426,-3260348.7968444824,-4366501.808166504,-4136815.071105957,-21040391.92199707,21738285.064697266,18837320.32775879,15768054.008483887,11456.828564405441,-7012619.495391846,-3230550.765991211,-3594619.2741394043,-3207880.0201416016,4376187.324523926,13644598.007202148,21243808.74633789,9105230.331420898,-7329274.654388428,-2687524.0802764893,-1985798.8357543945,-4722033.977508545,-262698.6801624298,4201626.300811768,22123498.916625977,19852619.171142578,16735166.549682617,13693833.351135254,1091962.5759124756,-2146743.2975769043,-2507728.8150787354,4082790.8515930176,3911117.0768737793,21639438.62915039,22132219.314575195,22346952.438354492,12729547.500610352,4821571.350097656,1519127.4881362915,4591234.20715332,4656819.3435668945,5048851.013183594,21862894.05822754,21089464.18762207,9609116.554260254,6807284.355163574,562166.5716171265,5824347.019195557,4347294.330596924,38342048.64501953,9586865.425109863,7984245.300292969,-116120.15217542648,66345.4532623291
0.145,5437874.317169189,-3363318.681716919,-12503761.291503906,3243288.75541687,-1976707.935333252,23635545.73059082,452176.86891555786,1867004.7521591187,38869956.970214844,-7865760.803222656,-762365.996837616,-1825305.2234649658,-1660143.256187439,-22264419.555664062,22693559.646606445,22109937.66784668,17734447.479248047,1251197.338104248,-5429152.965545654,-2449988.36517334,-2698382.1392059326,-3279112.3390197754,-925712.525844574,13506693.840026855,21721141.815185547,10533249.855041504,-7753190.994262695,-2936251.163482666,-2752217.2927856445,-5418220.996856689,-1746317.0289993286,-3652236.223220825,22232633.590698242,20483432.76977539,15683693.885803223,13325110.43548584,744384.4079971313,-3112004.9953460693,-3738052.8450012207,281897.2170352936,286409.9442958832,21578384.399414062,22275928.497314453,22373630.52368164,15801444.053649902,3785571.575164795,641691.6847229004,988555.7889938354,1134102.22530365,1295844.9125289917,21720327.377319336,20979917.526245117,7781046.8673706055,5715827.941894531,-286828.2198905945,2225934.5054626465,809331.8343162537,39173862.45727539,7814401.626586914,6817479.133605957,-941724.1811752319,-1022332.3106765747
0.15,7490224.361419678,-1478772.1633911133,-7439606.666564941,3584946.632385254,-619845.986366272,18998300.552368164,-2694798.469543457,-1438253.5219192505,40392993.92700195,-5812321.662902832,251435.45866012573,-742037.3558998108,-521741.44983291626,-25961858.74938965,17943456.649780273,18501194.00024414,17620817.184448242,513759.43422317505,-5222592.830657959,-1797183.3944320679,-1955266.833305359,-6022002.696990967,-5528475.284576416,7184743.404388428,17466211.318969727,8877862.930297852,-8657220.840454102,-3295247.5547790527,-2710574.3885040283,-5331429.004669189,-5727420.330047607,-8280126.571655273,17925123.21472168,16455440.521240234,12708664.894104004,11333230.018615723,476357.69844055176,-3341308.832168579,-4322682.857513428,-2867364.6450042725,-3047561.1686706543,17166818.618774414,17996311.18774414,18076940.536499023,16254533.767700195,3820440.0539398193,900794.2080497742,-1446338.0575180054,-1395387.4111175537,-2032420.1583862305,17391212.463378906,16625659.942626953,4573698.5206604,5565749.168395996,259619.41480636597,-384283.27441215515,-1747856.855392456,33482849.12109375,4692258.358001709,6645107.746124268,-486640.989780426,-714499.7715950012
0.155,8060492.515563965,-4054829.1206359863,-9652290.344238281,1783144.9508666992,-4428427.219390869,12953955.65032959,-6439119.338989258,-5208734.98916626,38026641.845703125,-7758160.591125488,-3155119.4190979004,-4061450.958251953,-3885727.882385254,-32321002.960205078,11698561.668395996,11733666.41998291,14760840.41595459,-2505170.3453063965,-7348017.21572876,-3442190.170288086,-3614576.3397216797,-11840574.264526367,-9246414.184570312,-1103097.677230835,11675127.029418945,5214113.235473633,-9975833.892822266,-4448953.151702881,-2523351.4308929443,-6094093.799591064,-10911574.363708496,-8746764.183044434,13477388.381958008,10629528.999328613,10132120.132446289,9624681.47277832,557010.8294487,-3166117.4297332764,-5111193.656921387,-3251367.3305511475,-3732845.3063964844,12797684.669494629,13638063.430786133,13836684.226989746,15162060.737609863,6794812.202453613,2971107.7213287354,-748275.4588127136,-899842.2622680664,-2509839.7731781006,13316037.17803955,12422318.458557129,5169776.916503906,8435029.983520508,2545060.396194458,-69455.26599884033,-1359405.1599502563,28790662.76550293,5280925.750732422,9530960.083007812,1739140.3913497925,1552063.8227462769
0.16,7600534.915924072,-7778861.999511719,-17404411.31591797,1190033.3166122437,-8843278.884887695,12913411.140441895,-5970143.795013428,-4722774.028778076,35593803.40576172,-10906209.945678711,-7512550.830841064,-8388408.660888672,-8431607.246398926,-38263771.057128906,11498226.165771484,9405466.079711914,12592123.985290527,-4712608.337402344,-10061571.12121582,-6121051.788330078,-6434566.497802734,-16558422.088623047,-11222134.590148926,-2343538.761138916,10855565.071105957,3884479.04586792,-10895880.699157715,-5983782.768249512,-2709927.3204803467,-7778042.793273926,-13216770.17211914,-6869567.394256592,14334101.676940918,9490771.293640137,10309821.128845215,10748629.570007324,941455.4238319397,-3186901.092529297,-6175332.069396973,-1383563.1608963013,-1972071.0515975952,13706147.193908691,14576998.710632324,14813270.568847656,15215429.306030273,10490992.546081543,5267808.91418457,1805801.8684387207,1550115.1084899902,-526373.3267784119,14546806.335449219,13489546.775817871,10271152.49633789,12283253.66973877,4828395.843505859,2214048.147201538,1033553.8387298584,30160717.010498047,10267441.749572754,13457180.976867676,3998898.74458313,3940620.4223632812
0.165,8118368.148803711,-7715599.536895752,-20364448.54736328,2592406.0344696045,-8438140.869140625,18214412.689208984,-3915143.2514190674,-2634964.942932129,36174949.645996094,-11392850.875854492,-8159832.000732422,-9137835.502624512,-9308218.955993652,-40632606.506347656,16719333.64868164,11609440.803527832,13765465.73638916,-4238897.800445557,-11168996.810913086,-7178249.835968018,-7628696.918487549,-16934177.39868164,-10437734.603881836,4416745.662689209,15198173.522949219,5928934.097290039,-10903004.64630127,-6888546.466827393,-3070204.496383667,-8796405.792236328,-10970317.840576172,-4180579.18548584,18770980.834960938,13653603.553771973,12131328.582763672,13716504.096984863,1214361.7868423462,-3528098.8216400146,-6665053.367614746,738443.911075592,234109.86363887787,18030038.833618164,18925535.202026367,19034547.805786133,15928955.078125,10606649.398803711,5508927.345275879,3606685.4000091553,3422825.0980377197,1704714.8942947388,18920261.38305664,17848300.93383789,13732690.811157227,12593464.851379395,4966439.247131348,4169431.209564209,3038105.249404907,33604892.73071289,13631228.44696045,13945247.650146484,4087229.7286987305,4140816.6885375977
0.17,9394901.275634766,-4457298.755645752,-15154192.924499512,3624723.6728668213,-4274835.586547852,20600330.352783203,-5703434.944152832,-4367988.109588623,37929416.65649414,-9462235.450744629,-5241418.838500977,-6407997.608184814,-6392242.908477783,-38784381.86645508,19117050.170898438,11852694.511413574,16674001.693725586,-2738787.4126434326,-10456389.427185059,-5995149.612426758,-6391093.730926514,-13975427.627563477,-7243154.048919678,9387745.85723877,18222152.709960938,7663879.39453125,-10358129.501342773,-7024756.43157959,-3042930.3646087646,-7915910.720825195,-6664436.817169189,-918423.4142303467,20080558.77685547,16915987.014770508,12520560.264587402,14932922.36328125,1013276.5769958496,-3703498.363494873,-5861610.412597656,2515208.4827423096,2103394.2699432373,19276933.670043945,20005004.8828125,20023117.065429688,13976243.97277832,6221181.869506836,3562863.826751709,4299482.345581055,4223019.123077393,3403103.1131744385,19862224.578857422,18991031.646728516,10751956.939697266,8072194.0994262695,2967813.730239868,5336629.867553711,4106250.286102295,33612152.099609375,10620315.551757812,9621562.957763672,2052888.6318206787,2164490.4613494873
0.175,10429066.65802002,-2290952.205657959,-8936471.939086914,3096749.5441436768,-1501757.6217651367,16376314.163208008,-10317316.055297852,-8991146.087646484,37766838.07373047,-8413340.56854248,-2645278.9306640625,-3923859.3578338623,-3633030.414581299,-34288341.5222168,15006019.592285156,7860892.295837402,17980657.57751465,-2517294.6453094482,-9552474.021911621,-4396888.256072998,-4523232.460021973,-10459796.905517578,-3175557.3749542236,5698930.740356445,16505256.652832031,6453409.671783447,-9785106.658935547,-7126476.287841797,-2515279.2930603027,-5861338.138580322,-3380205.6312561035,2823113.441467285,16770156.860351562,15537745.475769043,11211153.984069824,13420336.723327637,480950.5343437195,-3343548.059463501,-4135170.9365844727,4922128.200531006,4584014.892578125,16185533.52355957,16578514.099121094,16691129.684448242,8908829.689025879,1571273.3268737793,1716082.215309143,5715912.818908691,5651207.447052002,5685838.222503662,16375028.610229492,15743670.463562012,5155394.077301025,2986162.9009246826,1097335.4578018188,7129216.194152832,5722025.394439697,32012557.983398438,4947890.758514404,4586430.549621582,242074.10216331482,333614.14074897766
0.18,11544542.31262207,-2750412.2257232666,-7861277.103424072,2012688.398361206,-2469888.687133789,11182392.120361328,-12151975.631713867,-10976334.571838379,35559677.12402344,-10177794.456481934,-2935814.619064331,-4142164.707183838,-3883789.539337158,-29542362.213134766,9964893.341064453,4684530.258178711,16878843.307495117,-3586063.861846924,-9942849.159240723,-4349727.153778076,-4182868.9575195312,-8008927.345275879,317344.18869018555,-577973.0081558228,14233914.375305176,4394818.305969238,-9159815.788269043,-7369679.4509887695,-2083408.3557128906,-4691242.694854736,-1961309.790611267,6056887.149810791,14816610.336303711,13239388.465881348,11306756.019592285,12403790.473937988,121562.1754527092,-2834071.397781372,-2789171.6957092285,7773084.64050293,7571287.631988525,14577933.311462402,14742550.84991455,14991589.546203613,5421774.387359619,1351129.5318603516,1838441.4911270142,8278378.486633301,8185467.720031738,8570878.028869629,14572670.936584473,14039698.600769043,4633383.274078369,2491521.5969085693,1205065.9656524658,9694554.328918457,8210319.519042969,33787345.88623047,4247590.065002441,3958613.157272339,460302.1740913391,444895.4164981842
0.185,12830174.446105957,-3722393.51272583,-9724116.325378418,688524.1270065308,-5198268.413543701,11001452.445983887,-9999146.461486816,-9000879.287719727,33227447.509765625,-13472508.430480957,-5222913.2652282715,-6252254.962921143,-6308346.271514893,-26830987.93029785,9843187.33215332,6422289.848327637,15498352.05078125,-4506009.101867676,-11514156.341552734,-6018749.237060547,-5752914.905548096,-7315901.279449463,2214218.3780670166,305320.0840950012,16040008.544921875,4749448.776245117,-8408097.267150879,-6952021.12197876,-2426121.473312378,-5690460.205078125,-2170283.555984497,7212424.755096436,18184469.22302246,14725412.368774414,14277161.598205566,14618244.171142578,184146.910905838,-2932384.729385376,-2921729.803085327,8797189.712524414,8706954.002380371,18084480.28564453,18234128.952026367,18477439.880371094,7779962.062835693,5294360.637664795,3239125.967025757,9634319.305419922,9583200.454711914,9691050.52947998,18069864.27307129,17548015.594482422,10457799.911499023,6608232.9750061035,2670420.4082489014,10776652.336120605,9406213.760375977,37970478.05786133,9976764.678955078,7932568.550109863,1946310.043334961,1821141.9582366943
0.19,13399644.85168457,-3351029.872894287,-9834324.836730957,-1133522.5105285645,-6792583.465576172,14797864.91394043,-7460090.637207031,-6458906.173706055,32699535.369873047,-15247081.756591797,-6869230.7472229,-7808490.27633667,-8012621.879577637,-27245576.858520508,13536655.42602539,10815257.07244873,16166246.41418457,-4336964.6072387695,-12681395.530700684,-7731539.249420166,-7611210.823059082,-8640254.020690918,1870222.6877212524,7621469.497680664,20159482.955932617,7481209.278106689,-8042813.301086426,-5351416.58782959,-3471075.2964019775,-7974473.95324707,-4034254.0740966797,5539175.033569336,22544597.625732422,18678516.387939453,17104532.24182129,18293760.299682617,391841.3519859314,-3770048.141479492,-4322250.843048096,6564436.912536621,6381989.9559021,22342100.143432617,22480043.411254883,22637870.78857422,13877994.537353516,8703045.845031738,3931694.746017456,7924720.764160156,7962490.558624268,7395195.007324219,22316616.05834961,21835485.458374023,16119054.794311523,10371398.92578125,3488135.0994110107,8798439.025878906,7632557.392120361,39377040.86303711,15831941.604614258,11738631.248474121,2654966.115951538,2548940.658569336
0.195,13872551.918029785,-1656096.6968536377,-8119188.30871582,-1600682.3778152466,-5997321.128845215,18384277.34375,-5595217.227935791,-4394789.695739746,35559375.76293945,-13191501.61743164,-5984882.831573486,-7023269.176483154,-6966251.850128174,-29783300.399780273,16954942.70324707,13816542.625427246,19262765.884399414,-2807579.0405273438,-11770723.342895508,-7562311.64932251,-7704987.525939941,-10799888.610839844,-223792.165517807,12149965.286254883,21948532.104492188,10201585.76965332,-8471468.925476074,-3217176.1989593506,-4385481.357574463,-9345443.725585938,-6799409.38949585,2107862.949371338,21899265.28930664,20557531.356811523,16352842.330932617,19668981.552124023,380688.48848342896,-4615895.748138428,-5611237.525939941,2875409.1262817383,2470889.091491699,21618610.382080078,21615060.806274414,21772464.752197266,17700048.446655273,7957380.771636963,3200562.2386932373,4697179.794311523,4751583.576202393,3561469.078063965,21575256.34765625,21081720.35217285,16116847.99194336,9718863.487243652,2774533.271789551,5465449.810028076,4404708.385467529,37146430.96923828,16189691.543579102,11295063.972473145,1827278.0179977417,1867897.868156433
0.2,16152334.213256836,682339.072227478,-7375324.726104736,1576139.8077011108,-3326929.3308258057,19977508.544921875,-2151894.0925598145,-760391.1757469177,41779628.75366211,-7779014.587402344,-2816134.6912384033,-4051898.956298828,-3617631.196975708,-32300041.19873047,18470214.84375,14715147.018432617,23214086.532592773,-4537.131171673536,-8602499.961853027,-5166763.3056640625,-5516715.526580811,-11616338.729858398,-2367437.6010894775,9235271.453857422,20595016.479492188,11536837.577819824,-9045187.950134277,-1623242.4974441528,-4481006.145477295,-8551203.727722168,-8507867.813110352,-976762.9504203796,17333961.486816406,19221136.09313965,13092165.94696045,18092561.721801758,202259.40644741058,-4772316.455841064,-5658725.261688232,683588.3259773254,239793.40493679047,17125446.319580078,17051572.799682617,17288032.53173828,16841735.83984375,4081665.0390625,1963080.7638168335,2863133.9073181152,2818436.861038208,1427026.391029358,17216056.82373047,16521934.509277344,12225503.921508789,5636983.871459961,1390553.9512634277,3632899.522781372,2497780.3230285645,35168617.248535156,12456102.37121582,7366430.282592773,447925.5974292755,594855.6661605835
0.205,18544870.376586914,2224437.2367858887,-8653603.553771973,6112850.189208984,-748888.8502120972,18429056.16760254,1381195.068359375,2794897.5563049316,47633518.21899414,-2491838.9320373535,401348.9782810211,-941671.3118553162,-408598.51241111755,-33790653.228759766,16969999.313354492,14187331.199645996,25681306.838989258,2960091.5908813477,-4869415.760040283,-2118659.257888794,-2550923.8243103027,-10609454.154968262,-3445940.9713745117,2790852.0698547363,18500980.377197266,11530337.3336792,-8728452.682495117,-960851.0136604309,-3937512.6361846924,-6452417.373657227,-8185514.450073242,-2504566.431045532,14676074.981689453,16940969.467163086,11183145.523071289,16325708.389282227,196020.08163928986,-4370488.64364624,-4735395.908355713,568078.7563323975,380185.1272583008,14516980.171203613,14637247.085571289,14919407.844543457,14511124.610900879,642878.8900375366,1043449.9979019165,2893458.366394043,2719127.893447876,1551045.298576355,14876886.367797852,13925659.1796875,9726667.404174805,2037387.6094818115,361783.56409072876,3648253.6792755127,2377603.054046631,34960475.92163086,9770944.595336914,3687566.2803649902,-489998.4896183014,-396300.8224964142
0.21,15585101.127624512,606223.7620353699,-11364104.270935059,6419402.122497559,-534613.0132675171,11876406.6696167,-582529.7832489014,741118.5503005981,48067169.189453125,-1016026.0200500488,1406103.253364563,139748.12626838684,495334.7444534302,-35155948.638916016,10491532.325744629,11469099.998474121,25179527.282714844,4087418.556213379,-2809483.766555786,-246619.8354959488,-712350.4877090454,-9800995.826721191,-4257091.999053955,-2480856.6570281982,16624500.274658203,10285120.964050293,-7682783.603668213,-986187.219619751,-3439916.1338806152,-4842051.982879639,-7183827.4002075195,-3024837.2554779053,15908201.217651367,14995961.18927002,11899986.267089844,16358381.271362305,480578.36294174194,-4003041.7442321777,-3951328.754425049,844246.4470863342,924690.7830238342,15629228.591918945,16027070.999145508,16321815.490722656,14055191.040039062,-382867.4852848053,341447.4129676819,2938821.792602539,2712647.4380493164,1872489.57157135,16139223.098754883,15154449.462890625,10638339.99633789,1104341.1493301392,-245740.1156425476,3636236.6676330566,2352832.555770874,34389385.22338867,10417860.03112793,2503732.442855835,-1045098.3047485352,-1075775.146484375
0.215,6462645.053863525,-4295229.911804199,-14776791.5725708,1465997.9343414307,-2939664.363861084,2480023.3840942383,-8617094.993591309,-7356861.114501953,42623413.0859375,-3647661.2091064453,123299.21871423721,-972081.4228057861,-810782.1941375732,-37115814.208984375,1109978.437423706,6631407.260894775,22224943.161010742,2476845.2644348145,-3281868.9346313477,65697.3347067833,-474966.1684036255,-10748278.617858887,-5970725.059509277,-5808179.3785095215,14332484.245300293,8218126.29699707,-7151342.391967773,-1455085.5159759521,-3310586.69090271,-4496293.544769287,-7215319.1566467285,-3963696.002960205,17556940.07873535,12983653.06854248,12949419.975280762,17070884.704589844,818317.8305625916,-3880373.954772949,-3834278.106689453,316455.78145980835,358088.52314949036,17110980.987548828,17566047.66845703,17911041.259765625,14635774.612426758,325432.9562187195,-291018.9628601074,1946995.1391220093,1764927.1488189697,1048712.968826294,17516639.709472656,16731903.076171875,12768521.308898926,1979601.8600463867,-725232.9587936401,2602980.613708496,1461803.3170700073,32965068.817138672,12497962.951660156,3171043.634414673,-1550055.0270080566,-1620574.4743347168
0.22,-17130.50901889801,-7861748.218536377,-16874790.19165039,-2552641.1533355713,-5371709.823608398,-1463908.314704895,-14608844.757080078,-13351572.036743164,36841102.600097656,-7127213.478088379,-1450983.7627410889,-2466456.413269043,-2417576.789855957,-38581340.78979492,-2862071.2757110596,3203496.4561462402,19239494.32373047,-94798.86293411255,-5047057.151794434,-272548.3477115631,-877479.612827301,-12264924.049377441,-8054379.463195801,-6578453.063964844,12918100.357055664,7147373.199462891,-7503848.075866699,-2114274.024963379,-3424441.337585449,-4796128.273010254,-8172819.137573242,-6283592.700958252,16876157.760620117,11926268.577575684,12749822.616577148,16742782.592773438,961537.24193573,-3876683.473587036,-4040677.070617676,-993757.0095062256,-1274889.7075653076,16400428.771972656,16726816.177368164,17116374.969482422,13616375.923156738,1058263.897895813,-725618.839263916,423135.7276439667,286128.6699771881,-518874.28760528564,16629711.151123047,16002035.140991211,13475855.827331543,2703462.600708008,-1189847.469329834,1068008.0652236938,71588.06920051575,32553054.809570312,13325018.882751465,3862077.9514312744,-2036136.3887786865,-2054531.5742492676
0.225,4907973.289489746,-5326887.607574463,-14705905.91430664,-434893.3696746826,-5307813.64440918,5357221.1265563965,-11750881.19506836,-10491136.55090332,35858642.578125,-8527033.805847168,-1772976.6368865967,-2904846.19140625,-2951878.547668457,-38119903.564453125,3940782.7854156494,4484966.75491333,18660413.74206543,-757380.7835578918,-6024198.532104492,-483262.65811920166,-1002110.6004714966,-12442365.646362305,-9132655.143737793,-3296079.397201538,14581066.131591797,8746806.144714355,-7632520.67565918,-2450505.018234253,-3923416.3761138916,-5070633.888244629,-9207816.123962402,-10044575.691223145,14652053.833007812,13652714.729309082,12470461.84539795,15930578.231811523,917335.2122306824,-4280811.309814453,-4476896.7628479,-3644010.305404663,-4254855.632781982,14239637.37487793,14556138.038635254,14879769.325256348,10689013.481140137,324675.85802078247,-1499240.517616272,-1901780.605316162,-2113559.9613189697,-3017317.295074463,14454226.49383545,13810260.772705078,11747166.633605957,1831916.8090820312,-2139604.5684814453,-1307352.4236679077,-2286480.188369751,31682758.331298828,11669858.932495117,3073450.0885009766,-2929077.8636932373,-2905852.3178100586
0.23,17067230.224609375,1311244.9645996094,-8410207.748413086,4447577.476501465,-3352887.3920440674,15930588.722229004,-4365453.720092773,-3116755.723953247,38533855.43823242,-8147496.223449707,-1185777.5449752808,-2544818.162918091,-2624134.5405578613,-35835323.333740234,14535052.299499512,8241650.581359863,20619735.717773438,1203613.042831421,-5224101.0665893555,-446204.87093925476,-738200.9029388428,-11397754.669189453,-9094419.479370117,950836.718082428,17513351.440429688,11672885.89477539,-6861550.807952881,-2133721.113204956,-5212669.849395752,-5393690.10925293,-10570317.268371582,-14307036.399841309,11460361.48071289,16432758.331298828,12882899.284362793,16269781.112670898,829147.99451828,-5607343.1968688965,-5673745.155334473,-8603227.615356445,-9333279.609680176,11009019.85168457,11549456.596374512,11731781.005859375,7586468.21975708,-2519422.769546509,-3603660.3450775146,-6276789.18838501,-6691874.5040893555,-7609124.183654785,11361660.957336426,10706313.133239746,7722740.650177002,-1032795.9060668945,-4319276.809692383,-5813485.145568848,-6851445.67489624,25254489.89868164,7641857.624053955,253891.7064666748,-5017233.371734619,-4979509.353637695
0.235,23518466.94946289,5206022.7394104,-2569699.764251709,5292897.2244262695,-2000308.5136413574,18274806.97631836,-1857776.403427124,-610859.2748641968,40150531.76879883,-7902804.851531982,-656788.4683609009,-2141499.0425109863,-2074938.7741088867,-33231132.50732422,16968301.77307129,9240349.769592285,22893169.403076172,3555733.9191436768,-3611451.3874053955,-225368.38054656982,-348611.5634441376,-10722319.602966309,-9234814.643859863,-769307.4345588684,16888940.811157227,12533612.251281738,-6240205.764770508,-1705726.7427444458,-6971226.215362549,-5969420.909881592,-12828740.119934082,-17336252.212524414,6189720.153808594,15800019.264221191,12391366.004943848,17644720.07751465,749624.4311332703,-7453111.64855957,-7578415.870666504,-14444373.13079834,-15048613.548278809,5556261.06262207,6342410.087585449,6460087.776184082,5387210.845947266,-6164790.153503418,-6463888.168334961,-11717792.510986328,-12318345.069885254,-13329484.939575195,6037397.861480713,5507223.129272461,2888518.0950164795,-4505269.527435303,-7075279.235839844,-11411381.721496582,-12448088.645935059,12860998.153686523,2838247.299194336,-3312794.6853637695,-7755573.272705078,-7660619.258880615
0.24,20245384.216308594,4261144.161224365,-1022233.4861755371,2674667.8352355957,-2051245.2125549316,12611032.485961914,-4757928.848266602,-3533475.399017334,39368938.44604492,-8084449.768066406,-298374.08661842346,-1672765.0165557861,-1390436.6493225098,-32189113.61694336,11475209.23614502,7334866.046905518,23685033.798217773,3954668.5218811035,-3050602.674484253,22158.067673444748,-106331.28881454468,-11341095.924377441,-10806431.770324707,-8108599.662780762,12743725.776672363,10689264.297485352,-6777901.649475098,-2232137.91847229,-7904501.914978027,-6555710.792541504,-15187766.075134277,-17984544.75402832,610087.6331329346,11866353.988647461,10431526.184082031,18522644.04296875,618224.3824005127,-8381358.1466674805,-8828262.329101562,-17030689.239501953,-17380046.844482422,-171789.12460803986,669131.5174102783,846948.8024711609,4392969.608306885,-7399401.1878967285,-7471259.117126465,-14078073.501586914,-14696973.80065918,-16102029.800415039,356333.3749771118,-64152.76974439621,789785.8619689941,-5560658.4548950195,-7964754.581451416,-13903333.66394043,-14856838.22631836,2777353.525161743,765002.3698806763,-4588418.960571289,-8740026.473999023,-8562584.87701416
0.245,18416877.74658203,4416535.377502441,-2133363.962173462,4819177.150726318,-1927609.920501709,13840333.938598633,-3039366.4836883545,-1931390.7623291016,39780769.34814453,-7073050.975799561,186816.21551513672,-936109.721660614,-635311.0671043396,-34810279.846191406,12866333.961486816,9234984.397888184,24247310.638427734,3083046.9131469727,-4160223.960876465,-184312.92474269867,-336713.8206958771,-13335207.93914795,-14460961.34185791,-9185732.8414917,12666856.76574707,10258957.862854004,-7263941.287994385,-3955765.0089263916,-7269222.259521484,-7003066.539764404,-16387121.200561523,-17392820.358276367,764937.2220039368,11925395.011901855,10375500.679016113,18886285.78186035,391015.58923721313,-7676703.453063965,-8272557.258605957,-14209595.680236816,-14404767.036437988,19812.54294514656,755438.3277893066,1009388.2083892822,5416468.143463135,-4514015.197753906,-5203314.781188965,-10905691.146850586,-11404389.381408691,-13429122.924804688,541549.7422218323,54152.98044681549,4577429.294586182,-2663283.109664917,-5691229.343414307,-10871159.553527832,-11753982.543945312,3047318.458557129,4410470.485687256,-1909111.2613677979,-6590467.45300293,-6431440.353393555
0.25,29295049.6673584,11140378.952026367,-1685212.1353149414,16333948.135375977,-343210.75677871704,33199504.852294922,10518300.05645752,11427870.750427246,44701072.692871094,-3850075.9601593018,595569.6105957031,-382208.7049484253,-268669.2774295807,-42410655.9753418,32211269.37866211,20226850.509643555,27698577.880859375,4049890.0413513184,-5326865.196228027,-1099172.830581665,-1110922.4557876587,-16818628.311157227,-20226547.241210938,5694182.395935059,22795230.865478516,15410633.087158203,-5533230.781555176,-5653789.043426514,-6212363.719940186,-7804863.452911377,-16873710.63232422,-18283294.677734375,9731189.727783203,21893915.1763916,15675701.141357422,20644977.569580078,131460.14511585236,-6651354.789733887,-6857382.774353027,-9623389.24407959,-9947945.594787598,9139850.616455078,9758473.39630127,10016766.548156738,8564697.265625,-591581.5234184265,-2219120.979309082,-5912386.417388916,-6303199.768066406,-8778809.547424316,9605009.078979492,8985496.520996094,12596413.612365723,1153200.5071640015,-2768298.1491088867,-6037579.536437988,-6905737.400054932,11165590.286254883,12161263.465881348,1883359.1938018799,-3690893.4116363525,-3691410.3031158447
0.255,48356674.19433594,21291687.01171875,1106001.0194778442,30812602.996826172,1876301.884651184,62212249.755859375,29728744.506835938,30497663.497924805,52295726.77612305,257801.17511749268,533436.2387657166,-545221.4479446411,-503557.5032234192,-52744731.90307617,60999404.90722656,36034111.02294922,34611846.923828125,8212288.856506348,-4479704.856872559,-2112154.722213745,-1924077.6300430298,-21342573.165893555,-26668615.341186523,29118959.426879883,38113231.65893555,24257648.468017578,-1804524.8985290527,-5758388.042449951,-6606827.735900879,-9443119.049072266,-18392595.291137695,-21865041.732788086,21161268.23425293,36902072.90649414,23900379.180908203,24289997.100830078,-11071.782559156418,-7223604.679107666,-6843297.958374023,-9322833.061218262,-9940269.470214844,20652210.235595703,21207721.710205078,21433330.535888672,11300641.059875488,-760250.2107620239,-2507662.057876587,-5601628.78036499,-5947668.075561523,-8398817.06237793,20997274.39880371,20384719.848632812,18421386.71875,908873.4984397888,-3125529.7660827637,-5787469.387054443,-6635892.391204834,16568660.736083984,17878744.12536621,1891553.9979934692,-3921956.5391540527,-4086640.8348083496
0.26,60611854.553222656,26990077.97241211,3071150.779724121,37580299.377441406,2953282.117843628,81193305.96923828,41288692.474365234,42098937.98828125,57035800.93383789,2577363.4910583496,-5549.733527004719,-1301027.774810791,-1034314.3939971924,-60194133.75854492,79752853.39355469,46099315.64331055,41054607.39135742,12601109.504699707,-1981331.8252563477,-2490217.447280884,-2299595.832824707,-25196241.37878418,-31161989.212036133,43330730.43823242,46647697.44873047,29980482.10144043,858248.6510276794,-4139966.4878845215,-8613639.831542969,-11464796.06628418,-21432582.85522461,-26390752.7923584,24922883.987426758,45273143.76831055,28280921.936035156,27150911.331176758,75587.1906876564,-9394757.270812988,-8972238.540649414,-14761299.133300781,-15479619.979858398,24337686.53869629,24866374.969482422,25079853.057861328,10462381.362915039,-5489763.7367248535,-6257838.726043701,-11515116.691589355,-11779811.85913086,-13903468.132019043,24550876.61743164,24077934.26513672,17316913.604736328,-3830506.8016052246,-6952159.404754639,-11556768.417358398,-12347854.614257812,12763310.432434082,16974126.8157959,-2514244.318008423,-7565706.253051758,-7755668.163299561
0.265,58929229.736328125,25137023.92578125,1486702.9190063477,33449020.385742188,1835343.837738037,81191886.90185547,39476039.88647461,40454387.66479492,55361862.18261719,1358739.733695984,-1165569.4246292114,-2539055.109024048,-2009474.9927520752,-61474884.033203125,79742248.53515625,44794158.935546875,42395107.26928711,12860754.013061523,-846122.3840713501,-2696436.882019043,-2700555.5629730225,-26995685.577392578,-32651233.673095703,40837505.34057617,43208862.3046875,28587255.477905273,26994.938030838966,-2453828.0963897705,-10373303.413391113,-12872290.61126709,-24480030.059814453,-29517309.188842773,18903059.005737305,41924171.447753906,25758510.58959961,26619270.32470703,323222.7563858032,-11146507.263183594,-11355367.660522461,-21217864.990234375,-21710527.420043945,18166753.7689209,18688650.131225586,18900516.510009766,6462757.587432861,-9308366.775512695,-9319050.788879395,-18347099.30419922,-18449359.893798828,-20444278.717041016,18307077.407836914,17950056.076049805,11623761.177062988,-7656427.383422852,-10034671.783447266,-18173362.731933594,-18928142.547607422,3587400.6748199463,11571907.043457031,-6257609.844207764,-10580132.484436035,-10674846.649169922
0.27,49984043.12133789,19124990.463256836,-3413895.36857605,24492963.790893555,-1650387.8831863403,70631362.91503906,30458559.036254883,31546152.114868164,48956806.18286133,-2946629.047393799,-3673979.5207977295,-4903454.780578613,-4415294.170379639,-60090591.43066406,69347152.70996094,36434009.55200195,38343593.59741211,8441702.842712402,-3357218.5039520264,-3952328.2051086426,-4062474.7276306152,-27537420.27282715,-33286533.35571289,30718782.424926758,34375873.56567383,23250684.73815918,-3328927.993774414,-2519550.561904907,-10288481.712341309,-13293506.622314453,-25943649.291992188,-30936834.33532715,11037633.895874023,33294075.01220703,20367183.685302734,23818017.959594727,516779.89959716797,-10899576.187133789,-11587784.767150879,-23403631.21032715,-23648693.084716797,10213268.280029297,10746407.508850098,10936715.126037598,3229856.9679260254,-7549087.047576904,-8314570.426940918,-20253662.109375,-20240144.729614258,-22604055.404663086,10342453.002929688,10005432.12890625,7876989.841461182,-5917142.868041992,-8898315.4296875,-20077402.114868164,-20848861.694335938,-2522103.0712127686,7915975.570678711,-4751470.08895874,-9579258.918762207,-9570832.252502441
0.275,42498294.830322266,12220172.882080078,-10385788.917541504,17380790.71044922,-7222417.831420898,61321178.4362793,22978738.78479004,24016784.66796875,42460777.282714844,-8370140.075683594,-7934890.270233154,-8977674.48425293,-8785305.976867676,-62711875.915527344,60136619.567871094,28863288.87939453,32835029.60205078,3248964.548110962,-8321226.119995117,-6433774.471282959,-6413372.51663208,-28920331.954956055,-35914566.04003906,24052904.12902832,29174150.466918945,19849386.21520996,-6394550.800323486,-4523393.630981445,-8838027.954101562,-13371968.269348145,-25956031.799316406,-31892457.962036133,9177785.873413086,28211154.93774414,17565114.974975586,22288013.458251953,532580.6736946106,-9256699.562072754,-9465873.718261719,-21023563.385009766,-21326574.325561523,8397611.618041992,8944665.908813477,9108302.116394043,3472929.9545288086,-2149557.35206604,-4463472.843170166,-17118181.228637695,-17153053.283691406,-20199897.76611328,8551904.678344727,8152835.845947266,9323580.741882324,-500892.5199508667,-4838258.743286133,-17232601.165771484,-18008159.637451172,-1209718.3465957642,9248628.616333008,462712.5859260559,-5756115.436553955,-5684520.244598389
0.28,36750091.552734375,3923288.8221740723,-18907188.415527344,12567152.02331543,-13836714.744567871,55262096.4050293,18912561.416625977,19839694.97680664,38532932.28149414,-13140552.520751953,-12878588.676452637,-13907035.827636719,-13932301.52130127,-70923889.16015625,54009483.337402344,24773183.822631836,29125022.888183594,705040.7528877258,-12577743.530273438,-8863158.226013184,-8690907.47833252,-31882253.646850586,-40555137.634277344,21412403.106689453,28951154.708862305,19970598.220825195,-7813561.916351318,-7017161.3693237305,-7702222.82409668,-13934205.055236816,-25937294.006347656,-33237945.556640625,12600185.39428711,27959253.311157227,17873411.178588867,23430505.752563477,482517.65966415405,-7976339.340209961,-7092689.514160156,-18045213.69934082,-18606849.670410156,11964735.03112793,12501278.8772583,12677676.2008667,5881513.595581055,1377383.4705352783,-1415725.7080078125,-13532101.63116455,-13704552.65045166,-17324298.858642578,12200842.85736084,11648322.105407715,13194484.71069336,3083654.1652679443,-1729365.4680252075,-13977805.137634277,-14703491.2109375,5432705.879211426,13017259.59777832,4204018.592834473,-2772572.0405578613,-2652853.7273406982
0.285,28944660.186767578,-6054827.2132873535,-27986881.256103516,7197597.980499268,-19443841.9342041,48280376.43432617,14968459.129333496,15879981.04095459,36179401.39770508,-16527479.17175293,-16460445.404052734,-17633581.161499023,-17661556.243896484,-79320808.41064453,46951354.98046875,21557752.60925293,26997800.827026367,114298.78324270248,-14467480.659484863,-10081879.615783691,-10002886.772155762,-35123962.40234375,-44965255.73730469,18250205.993652344,29094644.54650879,20544015.884399414,-8280759.811401367,-8509653.091430664,-7790068.626403809,-15077039.71862793,-27021480.560302734,-35176143.646240234,15301575.660705566,28026453.018188477,18111881.256103516,25202890.396118164,531108.6177825928,-7982418.537139893,-6581575.393676758,-17922185.89782715,-18607376.098632812,14810158.729553223,15288087.844848633,15538557.052612305,7562591.552734375,740971.3864326477,-1058061.7189407349,-13273456.573486328,-13526399.612426758,-17309047.69897461,15191283.226013184,14430468.559265137,15094452.857971191,2486143.112182617,-1505966.7825698853,-13804759.02557373,-14515310.287475586,12419723.510742188,14940178.871154785,3957145.2140808105,-2455269.8135375977,-2289989.709854126
0.29,20397745.13244629,-14050445.556640625,-34661685.943603516,1396947.3838806152,-22059135.43701172,40013526.916503906,9968505.859375,10973076.820373535,33693653.10668945,-18220870.971679688,-17401651.38244629,-18663797.37854004,-18654218.673706055,-82031974.79248047,38770278.93066406,17485515.594482422,25045000.076293945,-964200.7946968079,-14535792.350769043,-10153483.390808105,-10368163.108825684,-37013332.36694336,-47681209.564208984,14491169.929504395,26964841.842651367,19183343.8873291,-8462240.219116211,-8740499.496459961,-8669363.021850586,-16109436.03515625,-29014863.967895508,-37779823.303222656,14183855.056762695,25899257.65991211,16677492.141723633,25283422.470092773,652435.8987808228,-8843298.91204834,-8050712.585449219,-20632886.88659668,-21254301.071166992,13726526.260375977,14113301.277160645,14463423.728942871,7337168.6935424805,-1998027.3246765137,-2714460.849761963,-16186519.622802734,-16460165.023803711,-19951835.63232422,14233729.362487793,13370859.146118164,13681521.41571045,-276140.9282684326,-3255443.811416626,-16556434.631347656,-17378000.259399414,15554930.686950684,13586947.441101074,1275246.8585968018,-4007607.936859131,-3802723.4077453613
0.295,16415380.477905273,-15518507.00378418,-35282093.0480957,-1504767.0602798462,-21333459.854125977,33909496.30737305,6279829.025268555,7347839.832305908,31416929.244995117,-17841621.39892578,-16140190.124511719,-17295848.846435547,-17345087.0513916,-78345115.6616211,32859848.022460938,14147761.344909668,23475234.985351562,-2665003.538131714,-13484326.362609863,-9665744.78149414,-10119625.091552734,-36854709.62524414,-48406604.7668457,12406112.670898438,23834920.88317871,16927408.21838379,-7927993.297576904,-8420303.344726562,-9411451.33972168,-16174200.057983398,-30451967.239379883,-40307556.15234375,10977313.041687012,22856746.673583984,14783398.628234863,23652593.6126709,691208.3029747009,-9605415.344238281,-9738187.789916992,-23503158.569335938,-24111997.604370117,10433521.270751953,10773252.487182617,11162859.916687012,5794555.6640625,-4623816.49017334,-4981054.782867432,-19374027.252197266,-19696954.72717285,-22653205.87158203,10953443.52722168,10204037.6663208,10502870.559692383,-2998751.640319824,-5400426.864624023,-19557262.420654297,-20535888.671875,13061219.215393066,10399107.933044434,-1766099.452972412,-6055862.4267578125,-5798696.517944336
0.3,18138748.168945312,-10421218.872070312,-28799869.537353516,-107747.69634008408,-18639635.08605957,30217950.82092285,5134813.7855529785,6133302.688598633,30504467.010498047,-15754739.761352539,-14069663.047790527,-15027079.582214355,-15109846.115112305,-71101371.76513672,29289466.857910156,12854001.04522705,23299158.096313477,-3244281.29196167,-11350235.939025879,-8836636.543273926,-9353936.195373535,-34624599.45678711,-46287944.79370117,9794624.328613281,20769020.080566406,15602251.052856445,-6426776.885986328,-8156629.56237793,-9393562.316894531,-14980616.569519043,-29775577.545166016,-40784198.76098633,7967131.614685059,19869581.22253418,13535068.51196289,21688589.096069336,588197.0524787903,-9583039.283752441,-9846464.157104492,-23916097.64099121,-24641532.89794922,7342696.666717529,7757227.420806885,8068626.403808594,3826215.2671813965,-6977170.944213867,-6661069.869995117,-20077869.415283203,-20458419.799804688,-23021440.505981445,7776512.622833252,7236060.619354248,7275744.438171387,-5544017.314910889,-6911876.201629639,-20210844.039916992,-21219682.693481445,6095397.94921875,7108891.010284424,-4653841.495513916,-7622146.6064453125,-7301306.247711182
0.305,21282503.128051758,-3118809.223175049,-18651931.762695312,3072625.3986358643,-15334132.194519043,26315080.642700195,5033696.65145874,5907214.641571045,30809526.443481445,-13466402.053833008,-12020321.8460083,-12903499.603271484,-12831039.428710938,-62977848.052978516,25369916.915893555,12547287.940979004,24430408.477783203,-2230658.2927703857,-8781847.953796387,-7678987.503051758,-8165644.645690918,-30872703.552246094,-40823833.46557617,3594032.2875976562,17517461.7767334,15429177.284240723,-4966145.5154418945,-7864932.537078857,-8634490.013122559,-13159646.987915039,-27065355.30090332,-38128757.47680664,5511697.292327881,16638605.117797852,12688073.15826416,20514249.801635742,388880.2230358124,-8767392.1585083,-8333710.670471191,-21663608.55102539,-22427995.681762695,4931471.347808838,5502489.08996582,5679676.532745361,2233292.579650879,-9500686.645507812,-6899324.893951416,-17973693.84765625,-18324966.430664062,-20881116.86706543,5269370.079040527,4838222.026824951,4742558.002471924,-8345946.311950684,-7199169.635772705,-18162687.301635742,-19045471.19140625,-1517953.1574249268,4543833.7326049805,-7461708.545684814,-7976949.214935303,-7645223.617553711
0.31,23360120.77331543,2847400.426864624,-10300697.326660156,5596539.02053833,-11121005.058288574,23665393.829345703,5647365.093231201,6515767.0974731445,31951276.779174805,-11934922.218322754,-9387685.775756836,-10391464.233398438,-10038732.528686523,-56072200.775146484,22653429.03137207,12731960.29663086,26280553.817749023,-598070.0850486755,-7131129.741668701,-6182748.794555664,-6617004.39453125,-26846014.02282715,-34235759.73510742,-1893831.491470337,15549387.93182373,16248020.17211914,-4747000.694274902,-7048636.913299561,-7799314.975738525,-11680181.503295898,-24133914.947509766,-33918590.5456543,3710345.2682495117,14663250.923156738,12261332.511901855,20923706.0546875,109239.54844474792,-7886409.759521484,-6790692.329406738,-19108892.4407959,-19713609.69543457,3221990.3469085693,3883179.6646118164,4005387.306213379,1473871.2310791016,-12411808.967590332,-6078900.337219238,-15470922.470092773,-15744535.446166992,-18399196.62475586,3506593.4658050537,3061680.555343628,3096238.613128662,-11493174.55291748,-6617268.085479736,-15674131.393432617,-16428421.020507812,-5399226.665496826,2952288.6276245117,-10364601.135253906,-7354814.529418945,-7107301.235198975
0.315,26979900.360107422,7519364.833831787,-6535418.98727417,8283526.420593262,-5068108.558654785,27769277.572631836,9347709.655761719,10374897.956848145,34977691.650390625,-10216741.561889648,-5162404.537200928,-6340108.394622803,-5801869.3923950195,-52570480.34667969,26712865.829467773,15273826.599121094,29088987.350463867,1550282.2399139404,-6667496.681213379,-4184561.7294311523,-4514168.262481689,-23743730.545043945,-30033742.904663086,1355163.812637329,17895069.122314453,18642303.466796875,-5599457.263946533,-5536727.428436279,-7676068.7828063965,-10902723.31237793,-22357170.10498047,-30314657.21130371,3837446.689605713,16976760.864257812,13071619.987487793,23330675.12512207,-202445.4027414322,-7797564.98336792,-6519389.1525268555,-18435792.922973633,-18845918.655395508,3300423.6221313477,3903482.19871521,4077142.2386169434,1080036.1633300781,-16126848.220825195,-5944308.280944824,-15089467.04864502,-15383812.90435791,-17645231.246948242,3585928.6785125732,3077712.7742767334,2531421.422958374,-15233240.127563477,-6648941.993713379,-15132325.172424316,-15867615.699768066,-3500769.853591919,2513612.747192383,-13911115.646362305,-7310204.50592041,-7167207.24105835
0.32,33888442.99316406,11777362.823486328,-5804765.701293945,12639791.488647461,1612497.5681304932,38970188.14086914,16701408.386230469,17873468.39904785,40344551.08642578,-7310544.967651367,-109698.95124435425,-1339175.3435134888,-828481.4953804016,-53092170.71533203,37850547.790527344,20970153.80859375,32942470.55053711,4815647.125244141,-6297152.996063232,-1928680.658340454,-2098849.7734069824,-21770477.294921875,-28875949.85961914,12744639.39666748,24489439.010620117,22216680.5267334,-6279967.308044434,-4042870.9983825684,-8293466.567993164,-10534251.21307373,-21124902.725219727,-27185770.03479004,6972808.361053467,23468973.15979004,15176797.866821289,26720870.971679688,-341476.4404296875,-8508051.872253418,-7097706.7947387695,-18749189.376831055,-19093660.354614258,6251132.488250732,6726940.155029297,6928686.141967773,412709.504365921,-20029525.756835938,-7329106.330871582,-16156665.802001953,-16565172.19543457,-17861120.223999023,6605161.666870117,5957492.828369141,3731472.4922180176,-18947605.13305664,-8007465.362548828,-15885108.947753906,-16625637.05444336,2869335.174560547,3829290.3900146484,-17566677.09350586,-8724350.929260254,-8592125.89263916
0.325,39769683.837890625,14033989.906311035,-5911382.19833374,16998807.907104492,5112638.473510742,48410629.27246094,23132085.8001709,24239635.467529297,45061229.70581055,-4689296.722412109,2853395.2236175537,1709448.0991363525,2056122.5414276123,-55456527.70996094,47165180.20629883,26400003.43322754,36211772.91870117,8106976.509094238,-5633704.662322998,-779806.0178756714,-827428.5197257996,-20698694.229125977,-28468454.360961914,21276815.41442871,30572086.334228516,24543220.52001953,-6004530.429840088,-3716743.4692382812,-8867926.597595215,-10524342.53692627,-19563220.977783203,-23637811.6607666,12083463.668823242,29414833.068847656,17372739.791870117,28815444.946289062,-144252.37476825714,-9166712.760925293,-7322827.339172363,-17397958.755493164,-17728769.302368164,11299695.014953613,11695923.805236816,11821688.652038574,219081.96806907654,-21405696.868896484,-8590339.660644531,-15612433.433532715,-16039011.001586914,-16587703.704833984,11747302.055358887,10868736.267089844,7572887.420654297,-20108823.776245117,-9178194.046020508,-15107686.996459961,-15739064.21661377,10299637.794494629,7683351.039886475,-18693788.528442383,-10105477.333068848,-9895808.219909668
0.33,38715717.31567383,11633568.76373291,-7845978.736877441,17943716.049194336,2726029.396057129,47354537.96386719,23314529.418945312,24204584.1217041,45146900.17700195,-4864250.183105469,1532990.6940460205,485799.5808124542,683298.4089851379,-57292106.62841797,46003379.821777344,27160568.237304688,36892562.86621094,9118765.830993652,-5723243.713378906,-2126618.6237335205,-2147797.3461151123,-21138322.830200195,-28142723.083496094,18598690.032958984,31573513.03100586,23822475.43334961,-5059947.0138549805,-4751339.435577393,-8976690.292358398,-11410561.561584473,-19091779.708862305,-21795448.303222656,16027273.178100586,30384405.1361084,18608091.354370117,28456056.594848633,188816.1599636078,-9339275.360107422,-7239439.010620117,-14726727.485656738,-14976050.37689209,15463716.506958008,15846641.540527344,15914662.36114502,1744297.742843628,-18610557.556152344,-8000650.405883789,-13040669.441223145,-13322556.495666504,-14156051.635742188,15886820.793151855,14894827.842712402,13072196.960449219,-17207956.314086914,-8556656.837463379,-12655755.043029785,-13103318.214416504,15122131.34765625,13088343.620300293,-15783866.882324219,-9675927.16217041,-9402673.721313477
0.335,30898807.525634766,4972314.357757568,-13737639.427185059,14999591.827392578,-3526957.2734832764,37372295.37963867,17720502.853393555,18502443.313598633,41079154.96826172,-7469205.856323242,-2595097.780227661,-3617247.1046447754,-3462464.8094177246,-58742889.404296875,36076515.197753906,23376314.163208008,35362930.29785156,7837149.620056152,-6820394.992828369,-5178478.240966797,-5202040.195465088,-23784076.690673828,-30225782.39440918,8563004.493713379,27726409.912109375,21478132.247924805,-4046929.8362731934,-5690881.252288818,-9206288.33770752,-13282604.217529297,-22062019.34814453,-25445547.103881836,15581183.433532715,26669816.970825195,18672912.59765625,26956686.01989746,263624.6085166931,-9634799.95727539,-8107988.357543945,-14992144.584655762,-15184856.414794922,15317964.553833008,15727480.8883667,15895545.00579834,3969726.800918579,-14827253.341674805,-6730495.452880859,-12517334.938049316,-12695441.246032715,-14620185.852050781,15506582.260131836,14752392.768859863,16103326.797485352,-13359792.709350586,-7266004.0855407715,-12570611.953735352,-12961612.701416016,14902062.41607666,16025184.631347656,-12071394.920349121,-8401855.46875,-8107975.959777832
0.34,22358972.549438477,-1860267.996788025,-21647192.001342773,11367963.790893555,-8678935.050964355,27473020.553588867,11935016.632080078,12840077.40020752,37626411.43798828,-9227010.726928711,-5791567.802429199,-6791850.566864014,-6590932.846069336,-60746341.705322266,26405290.603637695,19199985.50415039,34096424.1027832,7067558.765411377,-7208004.474639893,-7231452.941894531,-7211118.221282959,-27423986.434936523,-35270519.2565918,880722.0458984375,22679634.09423828,20300781.25,-3221309.4234466553,-4907460.2127075195,-10092318.534851074,-15043799.40032959,-27665561.67602539,-33679943.0847168,10496881.484985352,21789417.266845703,17603069.305419922,26198421.478271484,46583.60779285431,-10558176.040649414,-10210998.53515625,-20446708.67919922,-20773258.209228516,10314475.059509277,10793295.860290527,11127580.642700195,4150892.734527588,-14914771.08001709,-7196634.292602539,-17033712.38708496,-17315958.02307129,-20078050.61340332,10193098.068237305,9884343.147277832,13049077.987670898,-13322072.982788086,-7650644.779205322,-17437332.153320312,-18003162.384033203,10172126.770019531,12974440.574645996,-12293163.299560547,-8669726.371765137,-8326268.196105957
0.345,18689344.40612793,-4830595.970153809,-26010309.21936035,10233664.512634277,-9854257.583618164,24172344.207763672,10638525.009155273,11699578.285217285,38048683.166503906,-8256728.172302246,-6174576.282501221,-7061210.155487061,-6822932.243347168,-62385021.2097168,23329072.952270508,17906023.025512695,34785545.349121094,8657807.350158691,-5682604.789733887,-6727728.366851807,-6674624.443054199,-29333387.37487793,-39228950.50048828,84842.92030334473,20046520.233154297,21306100.845336914,-2697001.4572143555,-2810742.3782348633,-11002612.113952637,-15477274.894714355,-31442939.75830078,-39323188.78173828,5176646.2326049805,19203456.87866211,16067449.569702148,26578641.891479492,-49735.914915800095,-11431400.299072266,-11882948.875427246,-26644308.09020996,-27231931.686401367,4864997.386932373,5410351.753234863,5774137.9737854,2037026.1669158936,-18500417.709350586,-9067812.9196167,-23025632.858276367,-23450832.36694336,-26126695.63293457,4607710.838317871,4523979.663848877,6419104.099273682,-16795541.763305664,-9442572.593688965,-23334915.161132812,-24148380.279541016,5451205.253601074,6418954.372406006,-15940924.644470215,-10370828.628540039,-9935957.908630371
0.35,21450107.57446289,-3188535.9287261963,-24052238.46435547,12315826.416015625,-7789922.714233398,27921867.37060547,14426535.606384277,15435649.871826172,41364391.3269043,-6000655.174255371,-4730529.78515625,-5482715.606689453,-5298517.70401001,-62169593.811035156,27104885.10131836,19830808.639526367,37018444.0612793,11340397.834777832,-3672638.8931274414,-4730660.438537598,-4771420.001983643,-28163068.771362305,-38026805.87768555,4345316.410064697,22243396.759033203,23940570.831298828,-2660727.9777526855,-1553678.274154663,-10884631.156921387,-14638844.49005127,-30082906.72302246,-36394306.18286133,5492083.549499512,21336854.934692383,16087732.315063477,27712108.612060547,222179.50224876404,-11252778.053283691,-11455793.380737305,-26967428.20739746,-27682687.759399414,5075240.135192871,5565338.134765625,5825781.82220459,856023.1328010559,-20380300.521850586,-9609730.72052002,-24010179.51965332,-24327121.73461914,-26308570.861816406,4928702.831268311,4692298.412322998,3510248.1842041016,-18712354.66003418,-10017577.171325684,-23883100.509643555,-24756343.841552734,6372250.556945801,3556019.5446014404,-17816240.310668945,-10942455.291748047,-10480695.724487305
0.355,29078472.137451172,1201081.0375213623,-19012403.48815918,16759979.248046875,-3814543.4856414795,36361133.57543945,21155467.987060547,21968526.84020996,45616832.7331543,-4070160.8657836914,-2367298.364639282,-3162968.397140503,-3099959.8503112793,-60780544.28100586,35376354.2175293,23976469.039916992,39435413.3605957,13248623.847961426,-3157498.359680176,-2729812.3836517334,-2972455.9783935547,-25282785.415649414,-32951084.13696289,10628458.976745605,29425464.630126953,27771883.010864258,-3149520.3971862793,-2209137.9165649414,-9751601.219177246,-13420564.651489258,-25236282.348632812,-27308195.114135742,12058449.745178223,28441366.19567871,19033702.850341797,29701828.002929688,551291.7041778564,-10152091.026306152,-9314932.823181152,-21047252.655029297,-21624412.536621094,11601302.146911621,11925945.281982422,12145340.919494629,2310545.6829071045,-18639532.0892334,-8017851.829528809,-19023523.330688477,-19002651.21459961,-20346521.377563477,11655138.01574707,11184193.61114502,7368541.240692139,-17099126.8157959,-8553855.895996094,-18515230.178833008,-19216138.83972168,13832576.751708984,7393310.070037842,-16045301.43737793,-9489248.275756836,-9122207.641601562
0.36,37211673.736572266,5951299.667358398,-15344134.330749512,21658933.639526367,1564215.3024673462,45312053.68041992,27117118.83544922,27848531.72302246,49835807.80029297,-2000472.7840423584,1322761.2972259521,258599.34091567993,236553.50506305695,-59661300.65917969,44172077.17895508,28359004.974365234,40576194.763183594,14230803.489685059,-3701774.835586548,-730154.0970802307,-1120439.5294189453,-22624965.66772461,-28531951.904296875,16166200.637817383,37174877.16674805,31522649.76501465,-3919825.315475464,-3308848.1426239014,-8501091.957092285,-12109021.186828613,-21093786.239624023,-19760345.458984375,18134160.9954834,36126583.099365234,22534498.21472168,32027736.66381836,532504.141330719,-9028660.774230957,-7117952.346801758,-14964781.761169434,-15307698.249816895,17518459.32006836,17808271.408081055,18096513.748168945,3290710.926055908,-17457904.815673828,-6506986.618041992,-13522677.421569824,-13248678.207397461,-14289350.509643555,17712314.60571289,17201856.61315918,12097069.74029541,-15925972.938537598,-7125204.563140869,-12875756.26373291,-13420614.242553711,21761960.983276367,12077342.03338623,-14772412.300109863,-8034261.703491211,-7774660.110473633
0.365,39347961.42578125,8620182.037353516,-13699360.847473145,23574199.676513672,6225738.048553467,48287006.37817383,27971635.818481445,28788028.717041016,51736248.01635742,230629.8166513443,5330563.545227051,4015443.801879883,3992943.525314331,-58052261.35253906,47191585.540771484,29591506.958007812,39108928.68041992,14426055.908203125,-3629217.3862457275,1241897.2253799438,855554.8191070557,-20610752.10571289,-26607095.71838379,17541706.085205078,38518676.7578125,32108283.99658203,-4667925.834655762,-2986800.193786621,-7569537.162780762,-10492862.701416016,-19479391.09802246,-17599317.55065918,17016668.31970215,37400379.1809082,22251340.866088867,32634315.490722656,278810.5010986328,-8160697.937011719,-5702929.0199279785,-12940588.95111084,-13225709.915161133,16118364.334106445,16666778.564453125,16947683.334350586,527319.6697235107,-19681030.2734375,-6474856.376647949,-11577015.87677002,-11304049.491882324,-12321029.663085938,16395835.876464844,15924530.029296875,10672053.337097168,-17996417.999267578,-7036149.024963379,-10877794.26574707,-11519522.666931152,23071983.337402344,10615200.996398926,-16860752.10571289,-7941243.648529053,-7674415.588378906
0.37,32703010.55908203,7122834.205627441,-12962989.807128906,20109386.444091797,6190879.344940186,42282077.78930664,22996955.87158203,23849597.930908203,48256996.154785156,385962.8140926361,6239891.529083252,4955618.381500244,4966897.964477539,-54891246.7956543,41395442.962646484,26330253.60107422,35482269.287109375,13114913.940429688,-3096334.69581604,1645507.0972442627,1328513.503074646,-19061651.2298584,-25576431.274414062,14149096.488952637,32239173.889160156,28267566.680908203,-5043874.263763428,-1552558.6605072021,-6760396.957397461,-9145114.89868164,-19030078.887939453,-17908454.89501953,10918684.005737305,31069988.250732422,18057664.87121582,30469881.057739258,229473.2630252838,-7235787.868499756,-4805378.9138793945,-12779559.135437012,-13239520.072937012,9894177.436828613,10756819.725036621,10874362.94555664,-3629014.253616333,-21619956.970214844,-6475389.9574279785,-11261697.769165039,-11077018.737792969,-12290990.829467773,10237246.5133667,9650253.295898438,5008056.640625,-19846130.37109375,-6902256.965637207,-10452371.597290039,-11354180.335998535,17896560.668945312,4906481.2660217285,-18797576.904296875,-7881705.760955811,-7526667.594909668
0.375,23515489.57824707,1849074.125289917,-14311720.848083496,14232170.104980469,562424.6001243591,34393463.134765625,18306659.698486328,19030305.862426758,41088596.34399414,-2541189.432144165,2543502.8076171875,1503583.9080810547,1545528.0542373657,-52755344.39086914,33657428.74145508,23064983.367919922,33168838.500976562,10847029.685974121,-3493146.1811065674,-383948.9221572876,-675546.407699585,-18678916.931152344,-24653444.290161133,11374107.360839844,26543560.028076172,24251806.259155273,-4528402.328491211,-700777.4114608765,-6247407.43637085,-9154120.445251465,-18370018.005371094,-16950052.26135254,8594563.484191895,25359010.696411133,15387021.0647583,27954761.505126953,477096.7960357666,-6523876.190185547,-4330716.133117676,-11069206.237792969,-11710247.039794922,7743562.698364258,8579647.064208984,8605940.818786621,-4152823.4481811523,-19258325.576782227,-5333304.882049561,-9506107.330322266,-9308912.27722168,-10802125.930786133,8095808.982849121,7315104.4845581055,3080426.6929626465,-17640909.19494629,-5692221.164703369,-8637204.17022705,-9653888.702392578,13514060.020446777,2931194.78225708,-16686954.498291016,-6752673.625946045,-6360341.548919678
0.38,21057106.018066406,-3722697.4964141846,-19522239.685058594,12386227.60772705,-5881599.426269531,35158096.31347656,20875156.40258789,21481283.18786621,37140834.80834961,-5348372.936248779,-2230858.80279541,-3138310.670852661,-3025465.965270996,-55614723.205566406,34356353.759765625,25660249.710083008,35445293.42651367,10261206.62689209,-4333222.389221191,-2711195.230484009,-2964375.2574920654,-20122819.900512695,-25242519.37866211,14530192.375183105,29338569.64111328,25543714.52331543,-2913774.013519287,-896265.2683258057,-6536924.839019775,-10318648.338317871,-17875204.08630371,-15348211.288452148,13481051.445007324,28120906.829833984,17941894.53125,28148300.170898438,645806.7297935486,-6712765.693664551,-4560988.903045654,-8842500.686645508,-9426788.330078125,12854790.687561035,13323745.727539062,13549712.181091309,-1160036.4446640015,-15405036.926269531,-4474911.689758301,-7414988.040924072,-7192280.292510986,-8741927.146911621,13150767.32635498,12368200.302124023,6918507.099151611,-14057063.102722168,-4905168.533325195,-6684038.162231445,-7555656.433105469,15219375.610351562,6762004.852294922,-13172987.937927246,-5915046.215057373,-5584024.906158447
0.385,25183128.356933594,-6619681.835174561,-26521747.589111328,16009798.049926758,-8241441.72668457,43373058.3190918,28318208.694458008,29005601.88293457,39569240.57006836,-4635008.335113525,-3749571.8002319336,-4766318.798065186,-4530771.732330322,-62093421.936035156,42380271.911621094,32163494.110107422,40231872.55859375,12176815.032958984,-3692049.026489258,-2635370.969772339,-2714761.972427368,-22314146.041870117,-27643930.435180664,20124830.24597168,36628566.74194336,30601011.276245117,-1181280.493736267,-1218716.8598175049,-7211782.932281494,-10929891.586303711,-18034091.94946289,-15737074.851989746,18720624.923706055,35350925.44555664,21763004.302978516,29925928.115844727,454417.1690940857,-7397870.063781738,-5068985.462188721,-8856021.881103516,-9177759.170532227,18099298.47717285,18306827.545166016,18851951.599121094,-87919.80147361755,-15074354.17175293,-5017714.977264404,-7459388.256072998,-7381092.548370361,-8683073.997497559,18385004.0435791,17826261.520385742,9766329.765319824,-13830001.831054688,-5590972.900390625,-6981895.923614502,-7681819.915771484,19896600.7232666,9650553.703308105,-12987506.866455078,-6382032.39440918,-6155514.240264893
0.39,26097469.329833984,-7760574.817657471,-30704151.153564453,18599016.189575195,-7706950.664520264,46036907.19604492,30375350.952148438,31245538.71154785,42445384.97924805,-2327913.284301758,-2829722.4044799805,-3956299.304962158,-3660710.573196411,-65805740.35644531,44957519.53125,33719989.77661133,41353477.478027344,13057903.289794922,-2120405.435562134,-1050170.4216003418,-898644.8049545288,-23455738.067626953,-29712526.321411133,19483167.64831543,37405857.08618164,31868974.685668945,-1167920.2318191528,-1600901.0076522827,-7015527.725219727,-10198011.39831543,-18167968.75,-18020036.697387695,17022411.346435547,36151241.302490234,20574663.162231445,29414506.912231445,85029.51264381409,-7179700.3746032715,-4816221.237182617,-10193983.07800293,-10310346.603393555,16290685.653686523,16651990.89050293,17243936.53869629,-3246690.7501220703,-16502410.888671875,-4959392.547607422,-8406203.269958496,-8570738.792419434,-9745660.781860352,16699586.868286133,16331493.377685547,7165368.556976318,-15135766.02935791,-5609613.418579102,-8086804.389953613,-8844773.292541504,21232738.494873047,7087322.71194458,-14306426.048278809,-6138284.683227539,-6018163.204193115
0.395,19465078.353881836,-9548464.77508545,-30697574.615478516,14744289.39819336,-8535167.694091797,37571525.57373047,23242998.123168945,24153945.922851562,39439064.025878906,-3215065.0024414062,-3566169.500350952,-4573691.844940186,-4387394.428253174,-64218086.24267578,36587856.29272461,27194234.84802246,36538516.998291016,9673438.07220459,-3066581.964492798,-1333428.7405014038,-1147977.352142334,-23482044.219970703,-30138208.389282227,11782252.311706543,29926445.00732422,26624435.424804688,-3651905.298233032,-3239995.9564208984,-5739856.719970703,-9664249.420166016,-17671443.939208984,-19669540.405273438,11375885.009765625,28832225.799560547,15301333.4274292,26479713.439941406,-112180.04673719406,-5819539.0701293945,-3712439.2986297607,-9743064.880371094,-9856509.2086792,10673347.473144531,11382731.437683105,11644719.123840332,-5894057.750701904,-13582760.81085205,-2198421.7166900635,-7267485.618591309,-7489797.592163086,-9067936.897277832,11237421.035766602,10831971.168518066,4475543.49899292,-12084367.752075195,-2782435.894012451,-6927296.161651611,-7912693.500518799,19069780.349731445,4411796.092987061,-11196809.768676758,-3184712.4099731445,-3165185.2130889893
0.4,14015639.305114746,-11190273.28491211,-29192045.211791992,8469556.80847168,-10520465.850830078,29519180.297851562,16005430.221557617,16748090.744018555,33937652.587890625,-7492276.668548584,-6225843.906402588,-7033755.302429199,-7051555.633544922,-61966831.20727539,28640399.932861328,20711915.969848633,31058898.92578125,4708360.195159912,-7801047.801971436,-4061468.6012268066,-4100775.2418518066,-23665147.78137207,-30217134.475708008,6460245.609283447,24687320.709228516,21506118.774414062,-6970523.834228516,-6146653.652191162,-4843173.027038574,-10916554.45098877,-17111150.74157715,-19508371.353149414,10431164.741516113,23743494.033813477,13012502.670288086,25713806.15234375,-44968.780130147934,-4955507.278442383,-2959804.7733306885,-7709760.665893555,-7873737.335205078,9859571.45690918,10686832.427978516,10563094.139099121,-3327921.6289520264,-6476760.8642578125,1281687.9749298096,-4792685.031890869,-4787553.787231445,-7015870.094299316,10430894.85168457,9854423.522949219,8479685.78338623,-5048230.6480407715,873874.843120575,-4329745.769500732,-5454839.22958374,18844646.453857422,8464321.13647461,-3979119.7776794434,374468.44577789307,350622.89237976074
0.405,18340223.31237793,-9641263.961791992,-27797180.17578125,7565242.290496826,-9210597.99194336,33606838.22631836,17868579.864501953,18379686.35559082,33986709.59472656,-9974117.279052734,-6234936.237335205,-7068644.046783447,-7213426.58996582,-62538360.595703125,32665699.005126953,22133705.139160156,30881801.60522461,3848902.940750122,-12353092.193603516,-5696946.144104004,-5917988.300323486,-23757146.83532715,-30697656.631469727,9785059.928894043,28486789.70336914,22920541.763305664,-8359489.440917969,-7991636.276245117,-5381874.084472656,-12731350.898742676,-16933223.724365234,-18625190.73486328,15192032.814025879,27532705.307006836,16327573.776245117,29354110.717773438,130861.63997650146,-5765287.87612915,-3244786.024093628,-7446925.163269043,-7535727.024078369,14610546.112060547,15235230.445861816,15016130.447387695,1630084.1569900513,-3045737.7433776855,1462303.0424118042,-4716407.299041748,-4444310.188293457,-6847386.837005615,15037857.055664062,14370079.99420166,15709943.771362305,-1877093.79196167,1255653.738975525,-4107400.417327881,-5185508.728027344,21858884.811401367,15806961.059570312,-566501.6174316406,500680.02939224243,557567.2388076782
0.41,26846580.505371094,-5046832.56149292,-24778532.028198242,12153447.151184082,-3483947.515487671,43658992.767333984,24829858.779907227,25194814.682006836,39651611.328125,-7387650.489807129,-1118817.3294067383,-2188228.130340576,-2344742.774963379,-61889957.427978516,42568626.403808594,27526708.602905273,34975933.07495117,7955309.867858887,-11902923.583984375,-3471057.176589966,-3541734.9338531494,-21713373.1842041,-29514303.20739746,15567188.262939453,33934848.78540039,27761577.606201172,-6810822.010040283,-6761912.3458862305,-6377341.270446777,-12263869.285583496,-16251159.66796875,-17877151.489257812,17093341.827392578,32902194.97680664,19479106.903076172,33187324.52392578,271029.17432785034,-7086336.612701416,-3632939.8155212402,-10009301.18560791,-9994194.984436035,16347663.879394531,16728466.033935547,16696548.461914062,2254781.96144104,-8131421.089172363,-2106401.9203186035,-7929738.0447387695,-7637048.721313477,-9478765.487670898,16680538.177490234,16067943.572998047,15966390.609741211,-7238494.873046875,-2155926.9428253174,-7175361.156463623,-8138936.0427856445,21635969.161987305,16156122.207641602,-5810412.883758545,-3159193.754196167,-2934847.116470337
0.415,27562755.584716797,-1685346.7226028442,-19358953.47595215,14996109.962463379,1877603.7693023682,45475116.72973633,26349386.21520996,26692373.275756836,42908298.49243164,-2857235.6700897217,5266134.738922119,4087421.417236328,3930240.8695220947,-55362030.029296875,44374420.166015625,27736335.75439453,37701103.21044922,11983302.116394043,-7116172.790527344,806203.7229537964,1058126.3303756714,-17014719.009399414,-24983760.833740234,14863039.97039795,31206846.237182617,28778837.203979492,-4157907.485961914,-3721749.782562256,-6269021.034240723,-8972812.65258789,-14041640.281677246,-16537263.870239258,10757967.948913574,30211322.784423828,17200006.48498535,32531581.87866211,335750.90765953064,-7053702.831268311,-2979938.268661499,-12382530.212402344,-12467446.327209473,9930198.669433594,10282794.952392578,10451881.408691406,-2644447.3266601562,-16830930.709838867,-5701063.632965088,-11012928.96270752,-10923713.684082031,-11937403.678894043,10369287.490844727,9843417.167663574,6584037.780761719,-16068405.151367188,-5681277.751922607,-10153583.526611328,-11029926.300048828,13290067.672729492,6764617.443084717,-14723761.558532715,-6778066.635131836,-6434983.253479004
0.42,19916679.38232422,-2442777.156829834,-14814194.679260254,12419954.299926758,2576357.841491699,38593112.94555664,21185220.71838379,21586826.32446289,39764839.17236328,-1401137.9480361938,7581463.33694458,6601751.804351807,6417247.772216797,-46614147.1862793,37646480.560302734,22373178.482055664,36784309.38720703,12040131.568908691,-3448570.489883423,3337626.9340515137,3678136.8255615234,-12339506.149291992,-19345575.3326416,9466846.466064453,23365119.93408203,25669666.290283203,-2968651.056289673,-2166830.062866211,-5194727.420806885,-5603384.017944336,-10938591.003417969,-13906904.220581055,2306495.9049224854,22482894.897460938,12638285.636901855,29145860.67199707,324024.88589286804,-5773650.169372559,-1659673.2139587402,-11873112.678527832,-12252191.543579102,1563271.5225219727,2083996.7727661133,2299371.4809417725,-7163927.5550842285,-21184339.52331543,-6473784.923553467,-11109951.972961426,-11179168.701171875,-11632145.881652832,2212082.1475982666,1677883.6250305176,-3403443.0980682373,-20367424.01123047,-6499738.693237305,-10236927.98614502,-11028605.461120605,2390004.1580200195,-3257994.4133758545,-19144248.962402344,-7506118.297576904,-7162990.093231201
0.425,14106306.076049805,-5771875.381469727,-15156496.047973633,8252829.551696777,-460280.0905704498,34412006.37817383,17265388.48876953,17710958.48083496,34746246.337890625,-3958555.221557617,5222361.087799072,4539646.625518799,4385656.833648682,-43315261.84082031,33550643.920898438,18799444.1986084,34735420.22705078,9671386.71875,-4431087.017059326,2850236.415863037,3002669.334411621,-10642858.505249023,-16490243.911743164,7880521.774291992,20952627.182006836,24285522.4609375,-3763223.40965271,-3448022.3655700684,-4611017.70401001,-4809310.436248779,-8781175.61340332,-10854868.88885498,886282.6228141785,20076679.229736328,12233452.796936035,28114082.33642578,260376.9600391388,-4978734.493255615,-1015558.123588562,-9505021.095275879,-10101665.496826172,219049.23021793365,911111.7720603943,1086444.0202713013,-6329789.638519287,-19507909.774780273,-5408254.623413086,-9277585.02960205,-9276573.181152344,-9513000.48828125,942585.3490829468,314284.7716808319,-5008152.484893799,-18552785.873413086,-5581135.7498168945,-8455512.046813965,-9170380.592346191,-921132.5645446777,-4777947.902679443,-17324077.606201172,-6401471.138000488,-6110401.630401611
0.43,14519428.253173828,-9018821.716308594,-20120862.96081543,6396635.055541992,-4115794.1818237305,35858188.62915039,17833913.803100586,18223503.11279297,32314353.942871094,-7701218.128204346,1569490.1943206787,988841.4740562439,945222.9142189026,-45959716.796875,34859588.623046875,19495834.350585938,33610851.2878418,8139394.760131836,-7999741.077423096,908820.0330734253,1008911.4904403687,-11709327.697753906,-17051357.26928711,11220058.44116211,25610095.977783203,26596799.850463867,-4777097.225189209,-5620204.448699951,-5082698.822021484,-6211256.504058838,-8553459.167480469,-9003408.432006836,6547815.322875977,24657371.520996094,16284566.879272461,30071634.29260254,216643.3185338974,-5431774.616241455,-1534620.8810806274,-7873680.591583252,-8450847.625732422,5855412.96005249,6570814.13269043,6738806.72454834,-1805645.7042694092,-15801059.72290039,-4657091.14074707,-7999041.557312012,-7748788.833618164,-7983500.4806518555,6413680.553436279,5720680.713653564,380314.8567676544,-14788650.512695312,-5001345.157623291,-7194285.869598389,-7924067.02041626,5056094.646453857,783824.9802589417,-13527298.927307129,-5659795.761108398,-5396713.733673096
0.435,14874764.442443848,-11393891.334533691,-25207029.342651367,5810423.374176025,-7044921.398162842,33873939.514160156,17733573.91357422,18026819.229125977,31088136.672973633,-10013148.307800293,-756876.1110305786,-1434687.852859497,-1421378.7317276,-47621982.57446289,32689048.767089844,19420997.619628906,32888938.903808594,7943440.4373168945,-9949752.807617188,-796434.1640472412,-388653.2783508301,-12966932.29675293,-18197532.653808594,12201076.50756836,29091321.94519043,28302190.78063965,-4312864.780426025,-6223034.381866455,-5710227.489471436,-7574396.61026001,-9540013.313293457,-9080422.401428223,11777934.074401855,28201086.044311523,19609842.30041504,31189191.818237305,249998.64399433136,-6105464.458465576,-2414106.845855713,-7833577.1560668945,-8284790.0390625,11096150.398254395,11695447.92175293,11876149.17755127,1671788.0964279175,-13108186.721801758,-4465737.342834473,-7927892.684936523,-7384083.271026611,-7852197.647094727,11410049.438476562,10730543.13659668,5336381.435394287,-12183872.22290039,-4908924.102783203,-7053807.258605957,-7877779.960632324,11843491.554260254,5782312.393188477,-11058367.729187012,-5492898.464202881,-5256529.331207275
0.44,11637268.06640625,-12090573.31085205,-26155855.178833008,5137773.9906311035,-8532013.893127441,25929040.908813477,14725320.816040039,15068911.5524292,29418422.69897461,-10135007.858276367,-1416188.7168884277,-2167252.779006958,-2250766.2773132324,-44941020.96557617,24781009.674072266,16549823.760986328,32722011.56616211,8044404.983520508,-9068228.721618652,-1632120.966911316,-923373.5203742981,-13043641.090393066,-18090902.32849121,8183223.724365234,27779920.57800293,27092561.721801758,-2664344.310760498,-5162141.799926758,-5781305.78994751,-7835371.017456055,-10578288.078308105,-10680094.718933105,12678447.723388672,27122591.018676758,20014890.670776367,30226995.46813965,326158.732175827,-6073878.765106201,-2844313.383102417,-8852079.391479492,-9248580.932617188,12111690.521240234,12599100.112915039,12730428.695678711,2559386.4917755127,-11500284.194946289,-4093213.0813598633,-8601551.055908203,-7811752.3193359375,-8729968.070983887,12362138.748168945,11677767.753601074,6764540.195465088,-10672692.29888916,-4527088.165283203,-7631866.931915283,-8471024.513244629,12444362.64038086,7018601.417541504,-9780536.651611328,-5108488.082885742,-4943589.210510254
0.445,10545909.881591797,-9408894.538879395,-22541086.196899414,6189124.10736084,-7191220.760345459,22186811.447143555,14248622.89428711,14833121.299743652,29714130.401611328,-8513595.581054688,-690577.8646469116,-1353360.1760864258,-1587287.6644134521,-42177253.72314453,21300907.135009766,15854413.032531738,34743690.490722656,8631815.910339355,-7389160.15625,-1321416.2588119507,-750160.2172851562,-12768876.075744629,-17723283.767700195,5926887.512207031,27487127.30407715,26546155.92956543,-1324952.3639678955,-4072300.434112549,-5681556.224822998,-7623646.259307861,-11294078.826904297,-12902383.804321289,12532903.671264648,26976844.787597656,20555629.73022461,30359972.00012207,371568.82882118225,-5767529.487609863,-2863739.7289276123,-10672206.87866211,-11076335.906982422,12009269.714355469,12523884.773254395,12560403.823852539,2851667.642593384,-10776579.856872559,-3829029.083251953,-10105940.818786621,-9213502.883911133,-10479187.965393066,12454486.846923828,11664405.822753906,7402688.026428223,-9878807.067871094,-4180708.885192871,-9120629.31060791,-9818987.846374512,9245171.546936035,7418704.509735107,-9057688.71307373,-4778721.332550049,-4694265.842437744
0.45,15367927.551269531,-4344433.307647705,-17634126.663208008,9538050.651550293,-3540702.3429870605,28003715.51513672,19176845.55053711,19954666.137695312,33254512.786865234,-6314169.883728027,1156062.0069503784,666880.4287910461,398144.6921825409,-42718963.623046875,27356401.443481445,20069549.560546875,38546298.98071289,10260827.06451416,-6493554.592132568,190623.49200248718,380622.4763393402,-12900398.254394531,-17914361.95373535,10357807.159423828,31899986.267089844,29489238.739013672,-785907.1493148804,-3684870.2430725098,-5861431.59866333,-7389180.1834106445,-11936673.164367676,-14684516.906738281,14563504.219055176,31288543.701171875,23261444.091796875,33174259.185791016,379416.0783290863,-5874695.777893066,-2897230.1483154297,-13026745.796203613,-13409745.216369629,13892048.835754395,14539663.314819336,14543982.50579834,3891597.7478027344,-11278147.69744873,-4404538.154602051,-12387872.695922852,-11635398.864746094,-12808159.828186035,14592676.162719727,13705267.906188965,9230525.016784668,-10190809.24987793,-4650166.988372803,-11509313.583374023,-12041922.569274902,8244609.832763672,9200507.164001465,-9256025.314331055,-5256669.521331787,-5192596.912384033
0.455,20245891.571044922,-1250608.8018417358,-14994778.633117676,11905611.991882324,-645029.604434967,34435276.03149414,23797599.79248047,24504951.47705078,36471649.169921875,-4501606.9412231445,3563706.874847412,3159494.8768615723,2994549.036026001,-43230274.20043945,33840026.85546875,24506616.592407227,41113529.205322266,12103639.602661133,-5525847.911834717,2412466.049194336,2534280.53855896,-12661872.863769531,-17175079.345703125,16550189.971923828,35983367.919921875,33019893.646240234,-152396.75343036652,-3093874.454498291,-5923834.800720215,-6550305.366516113,-12502025.604248047,-14958409.309387207,17094434.73815918,35179119.11010742,25575647.354125977,35508460.998535156,387530.50565719604,-6086319.923400879,-3049125.1945495605,-14758344.650268555,-15102503.776550293,16274986.267089844,16974033.35571289,17043684.005737305,4553759.574890137,-12308228.492736816,-5399174.213409424,-14227220.53527832,-13789776.802062988,-14495641.708374023,17031204.223632812,16232133.865356445,10509455.680847168,-11145397.186279297,-5547923.0880737305,-13506044.387817383,-13988572.120666504,10614090.919494629,10604069.709777832,-10180980.682373047,-6173626.899719238,-6083408.832550049
0.46,20235431.671142578,-1502659.0824127197,-14431387.901306152,11655578.61328125,523609.9362373352,33818088.53149414,23268701.553344727,23788463.592529297,36711734.771728516,-2474265.5754089355,6392049.789428711,5872679.233551025,5843118.667602539,-39600765.228271484,33169296.264648438,24980394.36340332,41139968.87207031,13186940.19317627,-3164016.2467956543,4811126.232147217,5231515.884399414,-11050256.729125977,-14030290.603637695,17864660.263061523,35107498.16894531,33447090.14892578,1043136.0006332397,-1612308.5021972656,-5345911.026000977,-4752055.644989014,-12472914.695739746,-13433347.702026367,17597896.575927734,34218307.49511719,24807130.813598633,34414268.493652344,366367.51890182495,-5705475.330352783,-3092212.200164795,-14717593.1930542,-15073406.219482422,16872140.884399414,17407115.936279297,17555053.7109375,3582714.796066284,-12477631.568908691,-5710310.459136963,-14389459.609985352,-14162299.156188965,-14392613.410949707,17437801.361083984,16862581.253051758,9746433.25805664,-11442951.202392578,-5818951.606750488,-13745718.002319336,-14251042.366027832,13431774.139404297,9948406.219482422,-10656724.92980957,-6488715.648651123,-6395483.493804932
0.465,21121469.497680664,318147.748708725,-11704652.786254883,12664208.41217041,3372517.5857543945,33016155.242919922,22064712.524414062,22597408.294677734,37185951.232910156,1073035.3593826294,10199715.614318848,9401469.230651855,9465575.218200684,-34088039.39819336,32337295.532226562,24474193.572998047,40917488.09814453,14189974.784851074,-119862.30313777924,7293979.167938232,7840993.404388428,-8543347.358703613,-9937169.075012207,16102481.842041016,33078990.936279297,32160354.614257812,1786584.2580795288,-130355.52203655243,-4489145.278930664,-2862542.8676605225,-11505801.2008667,-11232506.75201416,17036325.454711914,32169597.625732422,22415605.545043945,31789091.110229492,213461.05635166168,-4906857.013702393,-2869326.35307312,-13274724.006652832,-13689620.971679688,16562385.559082031,16797651.290893555,16985879.89807129,1583189.7258758545,-11951659.202575684,-5220695.495605469,-13269979.476928711,-12954108.238220215,-12907951.354980469,16889013.290405273,16402149.200439453,8538448.333740234,-11049441.33758545,-5404494.762420654,-12551355.361938477,-13067380.905151367,15415493.01147461,8785945.892333984,-10410698.890686035,-6091992.378234863,-6028928.756713867
0.47,30257839.20288086,9527475.357055664,-3659904.718399048,18565319.061279297,10320761.680603027,40932258.60595703,26634483.337402344,27388574.600219727,41641807.556152344,5451634.883880615,14626949.310302734,13569978.713989258,13682779.312133789,-31982107.162475586,40237831.115722656,27255304.33654785,42658477.783203125,16307558.059692383,1563403.606414795,9574703.216552734,9812383.651733398,-6611164.093017578,-7960712.432861328,17396049.49951172,35442974.09057617,32937709.80834961,1189065.2179718018,118205.91241121292,-4226089.954376221,-2019900.7987976074,-10153064.727783203,-9969442.367553711,17523290.634155273,34454536.43798828,21607902.52685547,31412874.221801758,-93776.50171518326,-4584400.177001953,-2514085.531234741,-11953731.536865234,-12427663.803100586,17163825.98876953,17164352.416992188,17417764.66369629,31255.848705768585,-12416059.494018555,-4903649.806976318,-12340562.82043457,-11798674.583435059,-11606592.178344727,17395515.44189453,16748506.546020508,8982762.336730957,-11445540.428161621,-5269508.838653564,-11452796.936035156,-12042987.823486328,17566038.131713867,9306299.209594727,-10689628.601074219,-5880311.489105225,-5822810.173034668
0.475,43336486.81640625,22818328.857421875,7088632.106781006,26424932.4798584,17967443.466186523,51784057.6171875,34699954.986572266,35559543.60961914,47644332.88574219,8021944.046020508,17733442.306518555,16634090.423583984,16741958.618164062,-33602466.58325195,51019458.77075195,31365179.06188965,45564220.4284668,19128349.30419922,1270267.0097351074,10806857.109069824,10746244.430541992,-5835267.066955566,-8866630.554199219,21619089.126586914,40179897.30834961,35910980.224609375,252894.3419456482,-588885.0688934326,-4741693.019866943,-2172281.265258789,-9419508.934020996,-9822134.971618652,18406463.623046875,39119400.02441406,22863763.8092041,33517955.780029297,-383261.91902160645,-5057609.081268311,-2276812.0765686035,-11632993.698120117,-12142654.418945312,17922676.08642578,17873100.28076172,18232969.284057617,-672116.3988113403,-14479585.647583008,-5306664.943695068,-12273060.79864502,-11682728.76739502,-11407122.611999512,18187963.485717773,17367731.09436035,10343601.22680664,-13343421.936035156,-5841343.402862549,-11248558.99810791,-12081359.86328125,19351518.630981445,10717001.914978027,-12322872.161865234,-6330973.148345947,-6229382.514953613
0.48,49926368.713378906,31477922.439575195,14639204.978942871,30729312.896728516,21320304.87060547,53219345.09277344,38923999.78637695,39610576.62963867,50198528.28979492,7809761.047363281,18393903.732299805,17472640.991210938,17508817.672729492,-34427211.76147461,52341464.99633789,32307243.34716797,47896785.736083984,21163572.311401367,483076.5426158905,10674545.288085938,10759143.829345703,-5439491.748809814,-10385048.866271973,22863784.790039062,41392024.993896484,37935722.35107422,638495.8028793335,-911038.8159751892,-5252318.859100342,-2338943.9582824707,-9552565.574645996,-9295608.520507812,17528434.75341797,40418594.36035156,24053747.177124023,35137722.01538086,-396743.506193161,-5581360.340118408,-2184834.4802856445,-11811014.175415039,-12297724.723815918,16858268.73779297,16912694.931030273,17268785.47668457,-1365070.104598999,-16659030.91430664,-5758684.6351623535,-12452875.137329102,-12014019.012451172,-11768965.721130371,17138164.520263672,16384737.014770508,10067688.941955566,-15526968.955993652,-6315921.783447266,-11380928.993225098,-12496084.213256836,18487087.24975586,10259437.561035156,-14357151.03149414,-6810430.526733398,-6656780.71975708
0.485,48296806.33544922,31599994.659423828,16047800.064086914,30565441.131591797,20261062.622070312,45130203.24707031,37494220.73364258,37971065.521240234,48948036.193847656,6674383.640289307,17802045.822143555,17064561.84387207,17008689.880371094,-32690525.05493164,44155670.166015625,30180629.73022461,49147621.154785156,21607864.379882812,355895.40004730225,9995512.008666992,10363126.754760742,-4978770.2560424805,-10907025.337219238,18970485.68725586,38500572.204589844,37365753.173828125,1933681.1304092407,-586866.1403656006,-4995841.979980469,-2236962.5568389893,-9907665.252685547,-7691180.70602417,14728073.120117188,37744026.18408203,23527391.43371582,34554172.51586914,-51201.98056101799,-5324069.023132324,-1992175.1022338867,-11641182.899475098,-11995477.676391602,13981768.608093262,14185890.197753906,14309507.369995117,-2703974.723815918,-17319532.39440918,-5264163.494110107,-12161331.176757812,-11774102.210998535,-11660720.825195312,14197476.387023926,13642658.233642578,7152354.2404174805,-16387506.484985352,-5705813.407897949,-11063829.42199707,-12238036.155700684,14582929.611206055,6960062.9806518555,-15231459.617614746,-6403562.068939209,-6213215.351104736
0.49,45279144.287109375,26699726.104736328,13032210.350036621,28637138.36669922,18063875.198364258,38180049.896240234,34400993.34716797,34907394.40917969,47023578.64379883,6049514.293670654,17235528.94592285,16503559.112548828,16403074.264526367,-31948463.439941406,37138851.165771484,28048284.53063965,48938022.61352539,20620067.596435547,186206.04276657104,9508932.113647461,9736957.550048828,-5372992.515563965,-11813077.926635742,14245130.53894043,35685779.5715332,35356224.060058594,2013499.0215301514,-781409.6212387085,-4182693.9582824707,-2711590.051651001,-10152452.46887207,-6792407.989501953,11652124.404907227,35098987.5793457,21405347.82409668,32855674.743652344,431632.6081752777,-4455746.650695801,-1623104.3338775635,-11185706.13861084,-11351672.172546387,10935229.301452637,11237932.205200195,11063214.302062988,-4150673.3894348145,-16490016.93725586,-3845054.864883423,-11622979.164123535,-11023994.445800781,-10992013.931274414,11103810.31036377,10562855.72052002,3233291.3875579834,-15689819.3359375,-4185862.5411987305,-10438902.854919434,-11408146.858215332,10009207.725524902,2833269.5960998535,-14590340.614318848,-5094120.025634766,-4850907.325744629
0.495,43897209.16748047,21453872.680664062,8409961.700439453,26234125.1373291,16060110.092163086,37106456.7565918,32056655.883789062,32759819.03076172,45564758.30078125,5414014.81628418,16333253.860473633,15504126.54876709,15401807.78503418,-34934181.213378906,36033870.697021484,26517129.89807129,46746959.6862793,19003078.46069336,-599400.8779525757,9100574.493408203,8874932.289123535,-7290925.5027771,-14653598.78540039,12579772.94921875,34704936.98120117,33493049.62158203,413946.09212875366,-1909606.3375473022,-3779050.588607788,-4157918.4532165527,-10802560.806274414,-8523217.20123291,9197889.32800293,34161361.69433594,18813743.591308594,31672262.19177246,703358.6502075195,-3984241.247177124,-1523567.795753479,-11425725.936889648,-11521303.176879883,8547192.573547363,8863025.665283203,8621342.658996582,-4697849.750518799,-15621497.15423584,-2852569.818496704,-11846067.428588867,-11007791.519165039,-10891410.827636719,8778041.83959961,8016307.830810547,389216.8700695038,-14727917.671203613,-3229921.1025238037,-10532556.533813477,-11280793.190002441,6860952.377319336,217257.17186927795,-13685738.563537598,-4084725.3799438477,-3772089.4813537598
0.5,40930397.033691406,17902996.063232422,4244082.450866699,23727668.76220703,14192627.906799316,36663623.80981445,29791194.915771484,30616315.841674805,44034736.63330078,5222507.476806641,15404543.87664795,14599019.050598145,14490117.073059082,-38064006.80541992,35664524.07836914,24515819.549560547,43888805.3894043,18262248.992919922,-416483.7598800659,8986356.735229492,8627899.169921875,-8897448.539733887,-17120718.002319336,12736227.989196777,33636863.708496094,32406642.91381836,-625549.31640625,-2480065.107345581,-4301498.4130859375,-5235799.789428711,-11782730.102539062,-11174169.540405273,7013969.898223877,33080318.450927734,16990570.068359375,31290214.53857422,618922.770023346,-4474253.177642822,-2086298.2273101807,-12891053.199768066,-13107567.78717041,6445580.959320068,6738630.294799805,6699767.112731934,-4425213.813781738,-16202247.619628906,-3701604.127883911,-13368472.0993042,-12571649.551391602,-12242878.913879395,6784069.538116455,5887898.4451293945,-1242001.4142990112,-15188817.977905273,-4207491.874694824,-11987372.398376465,-12700203.895568848,5080572.605133057,-1023012.1612548828,-14222922.325134277,-4734704.971313477,-4418154.716491699
