time,Fp1,Fpz,Fp2,AF3,AF4,F7,F5,F3,F1,Fz,F2,F4,F6,F8,FT7,FC5,FC3,FC1,FCz,FC2,FC4,FC6,FT8,T7,C5,C3,C1,Cz,C2,C4,C6,T8,TP7,CP5,CP3,CP1,CPz,CP2,CP4,CP6,TP8,P7,P5,P3,P1,Pz,P2,P4,P6,P8,PO7,PO5,PO3,POz,PO4,PO6,PO8,CB1,O1,Oz,O2,CB2
0.0,-2768891.3345336914,-3735857.7251434326,-3223713.159561157,-3512752.5329589844,-2019935.6079101562,-2190137.1479034424,-5955187.797546387,-2000401.258468628,-117402.65786647797,204236.0156774521,-494765.2816772461,-2712992.6681518555,-1286569.9529647827,-4495676.040649414,-4834296.703338623,-4436959.266662598,-261675.1790046692,547386.109828949,738236.1888885498,322973.1023311615,-661638.3790969849,-3177477.8366088867,-6896805.286407471,-2485647.678375244,-2946331.262588501,-1719389.2002105713,-18608.437851071358,1653153.7771224976,793445.9447860718,-838494.062423706,-2900309.0858459473,-5307795.524597168,-1769672.2745895386,-2039446.5923309326,-346500.33712387085,591430.3064346313,-2689546.1082458496,1101927.1612167358,77578.00817489624,-1493831.1576843262,-1604786.1576080322,-2243743.1812286377,-2214623.212814331,-943830.9669494629,-2173490.7627105713,-3464500.4272460938,-2323452.4726867676,-2051538.4674072266,-4448778.6293029785,-5929387.56942749,-4053442.4781799316,-4032674.789428711,-2622567.1768188477,-2896272.897720337,-3295170.0687408447,-3370216.3696289062,-7042815.208435059,-2576059.579849243,-2574141.025543213,-1625723.123550415,-3237809.896469116,-1784673.0947494507
0.005,51122814.1784668,56129711.15112305,47576835.63232422,44281887.05444336,42245277.404785156,26553777.69470215,25582414.627075195,31914932.250976562,29322666.16821289,29948385.23864746,31323020.935058594,38363105.77392578,49661033.630371094,-3240765.5715942383,13728363.990783691,17145900.72631836,26182182.31201172,26049539.56604004,25022815.704345703,26669244.76623535,29017847.061157227,23006570.81604004,-13507877.349853516,235131.11472129822,17128540.0390625,14958601.951599121,17096847.534179688,18921535.49194336,20908876.419067383,27442495.346069336,-1726351.9763946533,-18559164.04724121,4749774.932861328,11923398.0178833,13468980.78918457,18170864.10522461,7837426.18560791,17374933.24279785,24794473.64807129,20246873.85559082,7475300.7888793945,8447833.061218262,6280635.833740234,12018848.419189453,7703470.230102539,7472031.116485596,11036857.604980469,13975755.69152832,8907785.415649414,5900277.137756348,11696917.533874512,11793210.983276367,9323019.027709961,8868669.509887695,11269096.374511719,11100941.65802002,-126115829.46777344,8797896.385192871,8879301.071166992,11028682.708740234,11343828.201293945,12017045.021057129
0.01,56135913.84887695,59652500.15258789,48325389.86206055,49000900.26855469,47093711.853027344,32441699.981689453,27821931.838989258,37884674.072265625,35265735.6262207,36253143.310546875,38610076.904296875,48209598.541259766,63757770.53833008,-8772246.360778809,17007102.966308594,20642747.87902832,32882732.391357422,32506999.969482422,31461080.55114746,34367328.64379883,38411167.14477539,30284370.42236328,-19610528.94592285,588924.5271682739,23153766.632080078,19025112.15209961,21332963.943481445,25024568.557739258,28863000.869750977,37910053.25317383,-1754408.0018997192,-24525320.053100586,7379772.663116455,17074787.139892578,18028089.52331543,24653232.57446289,12240809.440612793,25738395.69091797,35972221.37451172,31062339.782714844,13673977.851867676,14530724.52545166,10733933.448791504,18294145.584106445,12309763.90838623,13423494.338989258,18537317.276000977,22628776.55029297,16727802.276611328,13213050.842285156,19255235.67199707,19448448.181152344,16513566.970825195,15383793.830871582,19928640.365600586,19678518.295288086,-173082946.77734375,15899538.040161133,15815847.396850586,19863245.010375977,20110980.987548828,21419799.8046875
0.015,12266949.653625488,6902096.271514893,186604.49981689453,11220267.295837402,14883225.440979004,16072685.241699219,2859602.451324463,18099060.05859375,20019186.01989746,21510179.51965332,24055027.00805664,29961204.528808594,44504455.56640625,-20321752.548217773,6226478.576660156,8441109.657287598,22271545.41015625,22255582.809448242,21994836.807250977,25356773.376464844,29429143.90563965,19991477.966308594,-24608259.201049805,-482298.5529899597,17035400.390625,12604728.698730469,14912309.646606445,21109540.939331055,25373991.012573242,32203632.354736328,-3183013.2007598877,-22435018.53942871,8270475.387573242,15003519.058227539,15111246.109008789,21813344.955444336,10471436.500549316,26450220.108032227,34540065.76538086,31913286.209106445,17791574.478149414,17297424.31640625,12392093.658447266,19102592.46826172,12102024.07836914,14385725.021362305,18973005.294799805,24276693.34411621,18895397.186279297,15925910.949707031,20598867.416381836,20861223.220825195,20451000.213623047,17395627.975463867,23593702.31628418,23294315.338134766,-148046508.7890625,20217369.079589844,19835111.618041992,26045104.98046875,24069002.151489258,27723266.6015625
0.02,-40838966.369628906,-56872680.6640625,-56142799.377441406,-33673515.31982422,-20867326.736450195,-1969731.2116622925,-21433128.356933594,-2952132.4634552,4230457.782745361,6319620.132446289,9227078.437805176,11084300.994873047,24084117.889404297,-30290252.685546875,-2909265.9950256348,-1742828.369140625,12119972.229003906,12272493.362426758,12161509.51385498,15859915.733337402,19697488.78479004,10710731.506347656,-25595195.770263672,807161.3907814026,12198943.138122559,7416689.872741699,9439517.974853516,16731821.060180664,20583162.307739258,25883525.848388672,-4511929.988861084,-15594654.083251953,13016354.56085205,14450612.06817627,13113701.820373535,19514799.118041992,7258225.440979004,25666723.251342773,32122882.843017578,32909942.626953125,23982549.6673584,22734933.853149414,15992354.393005371,20515182.495117188,11423421.859741211,14135047.912597656,16768081.665039062,25930870.056152344,21160697.93701172,20048852.920532227,24489990.234375,24722059.24987793,26685819.625854492,19881807.327270508,29380048.751831055,29105995.178222656,-105924476.62353516,26892929.077148438,26398132.32421875,34519523.62060547,30295482.635498047,36553569.79370117
0.025,-72826103.21044922,-97482505.79833984,-91893898.0102539,-59585060.119628906,-38542514.80102539,-5867755.41305542,-25415916.442871094,-10182600.021362305,-356771.8267440796,2200015.068054199,5785181.999206543,7061646.461486816,20845411.30065918,-32927307.12890625,1412117.1236038208,481949.1505622864,11803519.248962402,11372594.833374023,10181375.503540039,14604714.393615723,19140357.971191406,15928363.800048828,-19198387.145996094,6733802.795410156,16037967.681884766,8699933.052062988,9608039.855957031,16873291.015625,20639451.98059082,27706636.428833008,-3957286.1194610596,-6591393.947601318,22676910.400390625,19547800.064086914,14952681.541442871,21807495.1171875,6001342.296600342,27046588.897705078,35562072.75390625,40021118.1640625,34281681.060791016,33776714.32495117,23105077.743530273,24604255.67626953,12348471.641540527,14931090.354919434,17470937.728881836,32217285.15625,28281625.747680664,31170253.75366211,34136341.0949707,34258495.33081055,36737689.97192383,24965698.2421875,41553829.193115234,41412715.911865234,-85938224.79248047,37141036.98730469,36801403.0456543,47081768.03588867,42842411.041259766,50031570.43457031
0.03,-88142723.0834961,-119146560.66894531,-112284912.109375,-71758049.01123047,-45765586.853027344,-1174900.6509780884,-19455877.30407715,-11189164.161682129,-549012.5417709351,2250509.50050354,6219993.591308594,8615454.67376709,24334131.240844727,-31743179.321289062,12321017.265319824,6781763.553619385,14439032.554626465,13144387.245178223,10638177.871704102,15947732.925415039,21883697.509765625,27745979.30908203,-10068051.3381958,14045433.044433594,22333179.473876953,10919397.354125977,10188650.131225586,18250467.30041504,22588111.877441406,31968349.45678711,-2634059.190750122,709498.7630844116,31052064.895629883,25337984.085083008,16311391.830444336,24150663.375854492,5786326.4083862305,29043136.596679688,40513889.31274414,48202499.38964844,43741214.752197266,44676895.14160156,29203094.482421875,27694555.282592773,12918263.43536377,15246219.635009766,21486856.46057129,38969245.91064453,36195652.00805664,43847465.51513672,42106746.673583984,42170757.29370117,44691696.16699219,28915121.07849121,53476089.47753906,53527992.248535156,-84896720.88623047,45107749.938964844,44918888.092041016,57884666.442871094,54910583.49609375,61866912.841796875
0.035,-106561790.4663086,-140591369.62890625,-132220016.47949219,-88213623.046875,-57574012.756347656,-6246602.535247803,-31542766.571044922,-20040319.442749023,-6361842.632293701,-3287757.635116577,649670.4816818237,2227188.3487701416,19382787.704467773,-37141090.393066406,8791832.92388916,1145172.8343963623,10879961.013793945,9698644.638061523,7012799.7398376465,12833293.914794922,19688226.6998291,24168289.184570312,-14128694.534301758,15068739.891052246,20767253.875732422,8232092.85736084,7416197.776794434,17314350.128173828,21621551.513671875,30426939.010620117,-4741811.752319336,-1952698.5883712769,30883176.803588867,25023815.155029297,14799097.061157227,23055263.51928711,3925770.5211639404,29910491.943359375,40200618.743896484,48735687.255859375,44241020.20263672,44921844.482421875,28199661.254882812,27023984.909057617,11134235.382080078,12773928.64227295,23429821.014404297,37618793.48754883,34280757.904052734,42543231.96411133,38453388.21411133,38623310.08911133,43059574.127197266,26961668.014526367,51905574.798583984,52059158.32519531,-89152648.92578125,43523666.38183594,43230792.99926758,58091472.62573242,53318328.857421875,62857349.39575195
0.04,-132901718.13964844,-164254470.8251953,-150922363.28125,-112658950.80566406,-73714027.40478516,-28058258.056640625,-72402999.87792969,-37646274.56665039,-16650049.209594727,-12962041.854858398,-8908886.909484863,-10451213.836669922,8356062.889099121,-53410587.310791016,-19717838.287353516,-20082696.91467285,2411732.9120635986,2891993.761062622,1291728.3773422241,7276497.364044189,13999410.629272461,-3731205.2249908447,-40767280.57861328,6082907.676696777,10118080.139160156,2477858.066558838,4754615.306854248,15683485.984802246,18261257.17163086,24239665.985107422,-11822512.62664795,-17885906.219482422,22576131.82067871,18763439.178466797,13964459.419250488,21439325.3326416,-186399.444937706,31157648.08654785,35511573.791503906,41393531.799316406,35844509.12475586,32009422.302246094,20175344.467163086,25054275.512695312,8166616.439819336,8322561.264038086,19630327.224731445,27071088.790893555,19809253.692626953,21890665.05432129,23566034.3170166,23947465.896606445,32566478.729248047,20281763.076782227,34278785.705566406,34308494.567871094,-96767585.75439453,33174289.70336914,32635635.375976562,47516056.060791016,35634536.74316406,53331298.828125
0.045,-151753311.15722656,-177082687.3779297,-157956741.3330078,-130774215.69824219,-82692787.17041016,-49047569.274902344,-113974617.00439453,-51252246.85668945,-22993009.567260742,-18501064.30053711,-13978224.754333496,-17706037.521362305,3966511.9647979736,-68387298.58398438,-52229419.70825195,-40438156.12792969,-2936148.4050750732,-642819.344997406,-1246080.1601409912,5244081.020355225,11641096.115112305,-32720993.041992188,-70080657.95898438,-4623535.633087158,368774.9207019806,-894032.2399139404,5515132.904052734,15879109.382629395,16566982.26928711,21076623.916625977,-17848012.924194336,-32655349.731445312,15801114.082336426,13764901.161193848,16275314.331054688,22699407.57751465,-4170445.9190368652,34325622.55859375,33618530.2734375,36462852.478027344,30942886.352539062,19476299.285888672,13664697.647094727,25613262.176513672,6626325.607299805,5628990.650177002,14756629.943847656,18742128.372192383,7225488.185882568,2664731.26411438,11497684.478759766,11990193.367004395,24647150.03967285,16418888.092041016,19140228.271484375,18876335.14404297,-102132148.74267578,25361089.7064209,24748815.536499023,39557605.7434082,20443382.263183594,47191020.96557617
0.05,-147066192.62695312,-171398742.67578125,-151906219.48242188,-128180145.26367188,-78787750.24414062,-43715744.01855469,-112661560.05859375,-49086685.18066406,-21162096.02355957,-16284059.524536133,-11575772.285461426,-13862509.727478027,10478734.970092773,-63273914.3371582,-51304538.72680664,-38368171.69189453,-898461.2822532654,1011179.9240112305,-216524.57118034363,7483099.460601807,14533993.7210083,-26516321.182250977,-65372207.64160156,-2333017.8260803223,2261117.696762085,-171134.5911026001,6773509.502410889,16479005.813598633,18259397.506713867,24554357.528686523,-14746814.727783203,-23916244.506835938,20436929.70275879,16356115.341186523,17902921.676635742,24944942.474365234,-5259302.139282227,37395572.662353516,38557117.4621582,43125652.31323242,41092834.47265625,25608266.830444336,17858886.71875,28562892.91381836,7160322.189331055,7191431.522369385,16998785.0189209,25224475.860595703,14499470.710754395,13200678.825378418,17178064.346313477,17553493.49975586,30886009.216308594,21358697.89123535,29575338.36364746,29083726.88293457,-89673782.34863281,31553005.21850586,31128879.54711914,48746131.896972656,30864425.659179688,58025493.62182617
0.055,-122726669.31152344,-155426803.5888672,-142685577.39257812,-108209228.515625,-68179512.02392578,-11318449.974060059,-63150608.06274414,-33350261.688232422,-14501849.174499512,-10100448.608398438,-6173912.525177002,-4805465.6982421875,19820098.876953125,-37693706.51245117,-9609563.827514648,-13128339.767456055,5604250.431060791,4622453.689575195,1030165.6723022461,9851527.214050293,18199310.302734375,17828943.252563477,-21160552.978515625,15669392.585754395,14903366.088867188,2041164.3981933594,4815648.078918457,14944809.913635254,21013568.878173828,30256122.589111328,-4244362.831115723,7913474.559783936,34684158.32519531,24772838.592529297,14730957.03125,24566698.07434082,-3952514.171600342,37318290.71044922,46051101.68457031,57117683.41064453,60108093.26171875,50126960.75439453,31163549.423217773,30589580.535888672,7899538.993835449,10790305.137634277,26137041.091918945,43312480.92651367,38380348.205566406,50438980.10253906,37993900.299072266,38155193.32885742,48316551.208496094,31427871.704101562,62471431.732177734,61991977.69165039,-60030277.252197266,48854404.44946289,48649616.24145508,71444534.30175781,63885475.158691406,80578132.62939453
0.06,-101779212.95166016,-144395080.56640625,-139038314.81933594,-90846145.62988281,-61204376.220703125,16586427.688598633,-16553970.336914062,-19200597.763061523,-9015335.083007812,-5615691.661834717,-3276026.0105133057,-298384.8750591278,22685953.14025879,-16733547.21069336,30517566.680908203,9118488.311767578,10710303.30657959,7196553.2302856445,1123696.0887908936,9762871.742248535,18257745.74279785,55644401.55029297,17912223.81591797,32351749.420166016,25206016.540527344,2922716.6175842285,1845347.8813171387,12459554.672241211,21710786.819458008,31443439.483642578,1305749.8931884766,31389984.130859375,44947246.55151367,30551836.013793945,9708602.905273438,22147457.122802734,-4619915.008544922,34733924.865722656,48408569.3359375,63958110.80932617,68410659.79003906,69319374.08447266,40582187.65258789,29849662.78076172,6714798.450469971,11211328.506469727,31480655.670166016,54423702.239990234,53240734.1003418,75435897.82714844,52756477.35595703,52872650.146484375,59547992.70629883,35716819.763183594,85367637.63427734,85046516.41845703,-41180652.6184082,60050498.962402344,59876472.47314453,85875511.1694336,87018875.12207031,93275474.54833984
0.065,-102698875.4272461,-145340255.7373047,-140531295.7763672,-92260757.44628906,-62263774.87182617,11364851.951599121,-24534564.971923828,-19651987.075805664,-8073019.027709961,-5164743.423461914,-4316139.698028564,-3881258.964538574,18316919.326782227,-22637130.737304688,23858203.887939453,3499517.6792144775,10880822.18170166,8116300.582885742,1370479.941368103,8519049.644470215,15159566.879272461,45038009.64355469,8071707.725524902,29806173.32458496,22129461.28845215,1711805.1052093506,2328671.932220459,12291480.06439209,19920995.712280273,26631162.643432617,-5903913.0210876465,20436361.31286621,40938491.82128906,27754474.639892578,9000342.36907959,21074956.8939209,-11010633.46862793,33287212.371826172,43474033.35571289,56283813.4765625,57352302.55126953,62916210.17456055,36146827.697753906,27588119.506835938,3279082.0598602295,6018769.264221191,25089187.622070312,46303939.81933594,41661735.53466797,60151248.931884766,45054164.88647461,45362773.89526367,52141201.01928711,28308160.78186035,73954704.28466797,73686309.81445312,-53438056.94580078,52749984.74121094,52469432.83081055,77224281.31103516,75710319.51904297,83707977.29492188
0.07,-117709365.84472656,-151180328.36914062,-141023239.1357422,-106115211.4868164,-66409706.115722656,-15531943.321228027,-71785171.50878906,-31031837.463378906,-10428118.705749512,-6632184.982299805,-6323811.5310668945,-9655077.934265137,13939773.559570312,-44322738.64746094,-17209011.07788086,-21815727.23388672,7380280.017852783,7808486.461639404,2535197.4964141846,8442530.632019043,12894219.398498535,3790247.917175293,-33119091.033935547,13118557.929992676,10403275.489807129,-760603.129863739,5433980.464935303,14635009.765625,18191431.045532227,21029417.037963867,-17300046.920776367,-8732082.36694336,28846401.21459961,19955524.444580078,12545948.028564453,22067358.016967773,-21058479.30908203,34561004.638671875,37249221.80175781,44068771.36230469,41975147.24731445,41183300.01831055,23869112.014770508,25663419.723510742,-809688.150882721,-1194153.904914856,13158219.337463379,29534852.981567383,18377349.853515625,26442735.67199707,24649990.08178711,25149183.27331543,34883502.96020508,16049863.815307617,44773651.123046875,44356422.424316406,-77663513.18359375,35590106.96411133,35238178.25317383,57511730.1940918,46367000.579833984,65502616.88232422
0.075,-122543754.57763672,-150224975.5859375,-136652862.54882812,-111587417.60253906,-65532669.06738281,-26953653.33557129,-94167785.64453125,-37634845.73364258,-11995172.500610352,-6180693.14956665,-5390353.202819824,-9273871.421813965,16205230.712890625,-50380752.56347656,-36805805.20629883,-35243766.78466797,4619678.497314453,7110153.675079346,3946408.0333709717,10212563.514709473,14356170.654296875,-11402931.213378906,-47657943.72558594,4314470.7679748535,4853856.563568115,-3039568.6626434326,6357265.472412109,16491111.755371094,19130277.633666992,20465509.41467285,-18286966.32385254,-16583726.88293457,23771188.735961914,15779236.793518066,14058987.617492676,22716913.2232666,-28367250.442504883,36382648.46801758,36759010.314941406,42478492.736816406,42109054.56542969,32436569.213867188,18532655.715942383,24472150.802612305,-3560144.4244384766,-4821821.212768555,8418925.285339355,24550655.364990234,11754007.339477539,18271408.081054688,15877778.053283691,16322053.909301758,27260902.404785156,10583479.881286621,34772918.701171875,34179676.0559082,-80711761.47460938,27916400.909423828,27545839.309692383,50811386.10839844,36174346.923828125,61274723.052978516
0.08,-108956398.0102539,-141208541.8701172,-130067581.17675781,-101194969.1772461,-58645164.489746094,-10766917.22869873,-66856674.19433594,-32308063.507080078,-10483051.300048828,-2844894.6475982666,-1410653.3527374268,-2566744.089126587,23270450.592041016,-32558910.369873047,-12877092.361450195,-24334875.106811523,5201487.064361572,7156745.910644531,5107458.591461182,12725377.082824707,18082698.822021484,16902982.711791992,-18039739.60876465,12003031.730651855,10703352.928161621,-4106073.8563537598,4163155.0788879395,16431211.471557617,22227491.37878418,24303871.154785156,-8361330.032348633,5787741.661071777,29623249.053955078,17851451.873779297,10622721.672058105,21938707.35168457,-29769069.67163086,36629497.52807617,41476196.2890625,51876422.88208008,56020748.138427734,44509433.74633789,24161149.978637695,23584056.854248047,-4419409.275054932,-4043759.346008301,13058039.665222168,34628467.55981445,25669616.69921875,41482910.15625,25148979.18701172,25367464.065551758,33754692.07763672,13732170.104980469,51727233.88671875,51131488.80004883,-63159240.72265625,34282356.26220703,33841854.095458984,61291679.38232422,53176464.08081055,72619125.36621094
0.085,-95834182.73925781,-134994949.3408203,-127298088.07373047,-90833427.42919922,-53719028.47290039,4694995.403289795,-37698478.69873047,-25560544.967651367,-8198383.331298828,-56266.363710165024,1135334.7301483154,1576963.9015197754,26541679.38232422,-17445560.455322266,12568385.124206543,-11787486.07635498,7011985.301971436,8174076.080322266,6085067.272186279,14206493.377685547,19774274.826049805,42932441.71142578,8789685.249328613,20313703.536987305,16872755.05065918,-4291959.285736084,3224128.7231445312,16334505.081176758,24226613.998413086,26116247.177124023,-2078963.9949798584,24886917.114257812,34419986.724853516,19971775.05493164,6927017.2119140625,21600135.803222656,-28982385.635375977,36243324.279785156,44298973.083496094,57668327.33154297,63609611.51123047,54791172.02758789,29332284.927368164,22955621.71936035,-4656004.428863525,-3357923.5076904297,16467538.833618164,42412399.29199219,35635688.78173828,57343410.49194336,32968544.006347656,33062980.65185547,38756755.82885742,15977200.508117676,65454071.044921875,64980682.373046875,-55915969.84863281,39246227.2644043,38699092.864990234,68929389.95361328,67033645.62988281,79217338.56201172
0.09,-101085067.74902344,-139132431.03027344,-130131134.03320312,-96031196.59423828,-56885807.037353516,-6105251.789093018,-54427940.368652344,-29287569.046020508,-8692982.67364502,-1108552.4559020996,-1191016.0779953003,-2909949.779510498,21595499.03869629,-27295387.268066406,-2633272.647857666,-20558948.516845703,6668519.973754883,9012156.48651123,6646065.711975098,13705517.768859863,17482141.494750977,26072162.628173828,-7968925.952911377,13850275.039672852,12651770.59173584,-4658748.626708984,6172716.14074707,17778589.248657227,23182746.88720703,22119443.893432617,-8540493.01147461,13736927.032470703,28454244.61364746,16688632.96508789,7843441.963195801,23145198.822021484,-31005128.860473633,37128963.470458984,41132652.282714844,51004058.837890625,54738552.09350586,44492160.79711914,24521314.62097168,22775157.928466797,-5720734.119415283,-6022578.239440918,11067625.045776367,35277523.040771484,24955827.713012695,40000469.20776367,23337604.522705078,23489057.540893555,30229282.37915039,10457711.219787598,53166374.20654297,52711486.81640625,-71512046.81396484,30769083.02307129,30233169.555664062,59601467.13256836,54607364.654541016,68901550.29296875
0.095,-115517684.93652344,-146822860.71777344,-133425231.93359375,-109190132.14111328,-63612991.33300781,-29044940.948486328,-95185836.79199219,-39062423.70605469,-11517743.110656738,-4375916.481018066,-5907302.8564453125,-10780741.691589355,14347568.51196289,-48083553.314208984,-39021327.97241211,-40490879.05883789,4567618.370056152,8851588.249206543,6463633.5372924805,12046808.242797852,14050733.56628418,-10622312.545776367,-44485115.05126953,377740.0851249695,3142896.4138031006,-5347491.74118042,9888959.884643555,19473119.735717773,20972280.502319336,16252681.732177734,-19269598.00720215,-11128862.380981445,18457653.045654297,11193831.443786621,11338258.743286133,25194091.796875,-35370777.13012695,38892875.67138672,35925899.505615234,40507034.30175781,41832309.72290039,26015985.4888916,15680705.070495605,22837997.436523438,-7510123.252868652,-9945510.864257812,2580466.2704467773,22297433.853149414,7236689.567565918,12088252.067565918,7016677.8564453125,7219748.497009277,17109466.552734375,2268975.7347106934,31315475.463867188,30688013.076782227,-87253349.30419922,17648553.8482666,17284517.288208008,44882518.76831055,32425540.924072266,54495174.407958984
0.1,-118042144.77539062,-147099945.06835938,-132024642.94433594,-112118904.11376953,-65391143.798828125,-34315898.89526367,-105995368.95751953,-41718200.68359375,-12996166.229248047,-5649159.908294678,-8124687.194824219,-13347413.063049316,12951152.801513672,-51920261.38305664,-48473892.21191406,-46192317.962646484,3761806.9648742676,8440505.027770996,5962793.350219727,10867305.755615234,13062527.656555176,-18904981.61315918,-52407947.5402832,-2795499.324798584,518988.6689186096,-5570487.022399902,10470712.661743164,19676366.806030273,20546943.66455078,14478563.30871582,-21591743.46923828,-17606721.878051758,16708402.633666992,9893505.096435547,12266299.2477417,25744031.90612793,-37922229.7668457,39575206.7565918,34316768.646240234,38483543.395996094,40218887.32910156,22937046.05102539,14140640.258789062,22711475.372314453,-8863098.14453125,-11790606.498718262,236939.80276584625,18867158.889770508,3481609.82131958,7674202.442169189,4010774.1355895996,4134425.640106201,14762339.59197998,-118159.7113609314,27915361.404418945,27099962.23449707,-84540100.09765625,15257931.70928955,15037908.554077148,42891113.28125,28966434.478759766,53392658.23364258
0.105,-107770576.47705078,-141004119.87304688,-128005203.24707031,-103747428.89404297,-62026546.478271484,-21692005.157470703,-82963378.90625,-35821681.97631836,-11894670.486450195,-4227996.349334717,-7395320.892333984,-10843567.848205566,16645593.643188477,-38057117.4621582,-27742982.864379883,-36301071.16699219,4554820.537567139,8692731.857299805,5978481.769561768,10712919.235229492,14039887.428283691,2113964.080810547,-31431692.123413086,4303286.552429199,5305353.64151001,-5392892.360687256,8810402.870178223,19114164.352416992,21892164.23034668,16505889.892578125,-16456762.313842773,-4967362.880706787,22357639.31274414,12388197.898864746,10149155.616760254,25020040.51208496,-37646888.732910156,38765037.536621094,35713554.38232422,43218013.763427734,46988769.53125,34571262.35961914,19217277.52685547,22196382.522583008,-9556045.532226562,-12502807.6171875,2963690.996170044,23928220.748901367,10930074.691772461,22332635.8795166,13077603.340148926,13108854.293823242,21494806.28967285,2256826.877593994,40309806.82373047,39487972.259521484,-79101013.18359375,22101903.915405273,21801235.19897461,50815170.28808594,41691707.611083984,61899002.07519531
0.11,-102563621.5209961,-138545593.26171875,-126987884.52148438,-99451591.49169922,-60319740.295410156,-16801809.310913086,-70813972.47314453,-32605613.708496094,-10924342.155456543,-3142292.9763793945,-7067707.538604736,-10050565.719604492,18285402.297973633,-29982381.82067871,-17831308.364868164,-32436077.117919922,3888661.1461639404,9097905.158996582,6724890.70892334,10977932.929992676,14182408.332824707,11993025.779724121,-21969076.15661621,6407351.970672607,6885525.226593018,-6143874.168395996,8296098.709106445,19539659.50012207,22720849.990844727,17237295.150756836,-14450091.361999512,1312357.0680618286,23765048.98071289,12458027.839660645,8694064.140319824,24547424.31640625,-37818107.60498047,38040245.056152344,35585952.75878906,43900035.8581543,48739795.68481445,39579788.20800781,20459846.49658203,21261581.420898438,-10715030.670166016,-15380072.593688965,2602701.6639709473,24444795.608520508,11022115.707397461,26039428.7109375,15599857.330322266,15650074.95880127,22480010.986328125,1355863.8095855713,43340164.18457031,42653015.13671875,-93846397.39990234,23404191.970825195,22849300.384521484,51340965.270996094,44963626.861572266,63090572.357177734
0.115,-108115249.63378906,-141625625.61035156,-128593048.09570312,-104564926.14746094,-61775917.053222656,-27860092.163085938,-86584533.69140625,-36843605.041503906,-11864633.560180664,-3456928.491592407,-7588019.847869873,-11763893.127441406,16360414.505004883,-36407169.342041016,-35229274.74975586,-42296878.814697266,681023.1804847717,8701437.950134277,7783721.446990967,11634678.840637207,13644023.895263672,-1801264.762878418,-35858043.6706543,-1300905.5852890015,1311941.0276412964,-8404249.19128418,9133509.635925293,20621322.631835938,22509349.822998047,15269600.868225098,-18200799.9420166,-6466294.765472412,17269882.202148438,8121818.542480469,8986428.260803223,24436418.533325195,-40364326.47705078,38394031.5246582,33620067.59643555,38978836.05957031,43589027.404785156,30656057.357788086,14859331.130981445,19860677.71911621,-12966880.798339844,-19935237.884521484,-2258295.0592041016,17977397.918701172,1105712.1753692627,13776963.233947754,6261115.550994873,6352687.358856201,13881334.30480957,-4582539.081573486,31754066.467285156,31146743.774414062,-119560256.95800781,15046880.722045898,14296016.693115234,41215858.459472656,33170158.38623047,54306102.75268555
0.12,-108993743.89648438,-140893157.95898438,-126374031.06689453,-106079658.50830078,-60033939.361572266,-33900890.3503418,-94910736.08398438,-39378250.12207031,-12589615.821838379,-2490273.2372283936,-5565197.944641113,-9443701.74407959,17100557.327270508,-39331237.79296875,-47974563.59863281,-48177249.908447266,-1897602.3197174072,7888408.660888672,8846838.95111084,13442954.063415527,15328216.552734375,-5966523.170471191,-39364562.98828125,-6396512.985229492,-2823734.760284424,-10830243.110656738,8575614.929199219,20513803.482055664,23148296.356201172,14706264.49584961,-19341709.13696289,-7666548.728942871,12196395.874023438,4514594.078063965,8029869.079589844,23430561.065673828,-43029838.56201172,38913181.30493164,34204051.97143555,38212860.107421875,42943397.521972656,24376033.782958984,10998932.838439941,18097391.12854004,-15352864.265441895,-21910255.432128906,-4408284.664154053,16261053.085327148,-1784703.6123275757,11673806.190490723,726487.0405197144,759222.0902442932,8302823.066711426,-8395058.631896973,27674945.831298828,27030086.517333984,-127938430.78613281,9356270.790100098,8608327.865600586,35928977.966308594,28783216.47644043,50567150.1159668
0.125,-95791816.71142578,-131657943.72558594,-118053413.39111328,-95590682.98339844,-52346473.693847656,-21699867.248535156,-71854476.92871094,-33141639.709472656,-10780010.223388672,1103501.796722412,-405587.3453617096,-1386302.2327423096,23400484.085083008,-26114044.189453125,-32405906.677246094,-38460601.806640625,-1268651.2470245361,7902808.666229248,9910403.25164795,16056314.468383789,19396682.739257812,18751586.9140625,-13128328.323364258,-1097286.9396209717,563241.0645484924,-11970850.944519043,6149301.528930664,19171026.2298584,25348049.16381836,17669712.06665039,-13332208.633422852,9254665.37475586,14887502.670288086,5242933.27331543,4592041.969299316,21431142.807006836,-43496555.32836914,38604339.599609375,38592269.89746094,45791511.53564453,51885334.01489258,32127887.725830078,14151248.931884766,16332525.253295898,-16824361.80114746,-20054693.2220459,-478316.60509109497,24643032.07397461,9862221.717834473,31153173.446655273,8592063.903808594,8553252.220153809,13330842.018127441,-6051121.234893799,42247650.146484375,41578132.62939453,-115975402.83203125,14035200.119018555,13426227.569580078,43602809.90600586,43487407.68432617,59276248.931884766
0.13,-82635826.11083984,-122561302.1850586,-109990608.21533203,-84781867.98095703,-45627468.10913086,-9446512.222290039,-48616905.212402344,-25710220.336914062,-7804296.016693115,4374441.146850586,3222271.9192504883,4442736.625671387,28898420.333862305,-11853166.580200195,-14667996.406555176,-28804414.749145508,490567.5947666168,9004194.259643555,11018581.39038086,17632452.0111084,21929039.001464844,41104442.59643555,11622959.13696289,4184736.2518310547,4330820.083618164,-12301695.823669434,5005892.276763916,18856952.667236328,27044239.044189453,20061899.185180664,-7448436.260223389,24470497.131347656,18203079.223632812,6445237.636566162,2064176.082611084,20188051.223754883,-43225025.17700195,38108184.814453125,41811664.58129883,52237689.97192383,59879997.25341797,40546585.08300781,17156047.821044922,14834703.44543457,-17874872.2076416,-18973789.21508789,2854206.5620422363,31430080.41381836,19731130.599975586,46878482.818603516,16326423.645019531,16355787.27722168,18356279.373168945,-3826374.292373657,54771781.92138672,54168209.075927734,-109545387.2680664,18852128.982543945,18381177.90222168,50587882.99560547,56460002.89916992,67059951.78222656
0.135,-86010818.48144531,-122796051.02539062,-108495903.01513672,-87846389.77050781,-46524707.79418945,-18934009.552001953,-63415752.41088867,-27836971.282958984,-6470990.6578063965,4466082.0960998535,2093882.7991485596,1878650.0692367554,27285945.892333984,-16353071.212768555,-29555759.42993164,-38115169.525146484,-77372.4690079689,10181205.749511719,12220833.778381348,17341169.357299805,20590442.657470703,26554870.60546875,-448451.5190124512,-2534777.879714966,-827196.6576576233,-13372380.256652832,7166257.381439209,20864551.544189453,26594551.08642578,17726413.72680664,-9520007.133483887,16071146.011352539,13081793.785095215,3002268.7911987305,3399703.025817871,20859256.744384766,-44923572.5402832,38685886.38305664,39797695.15991211,48275405.88378906,56086170.1965332,32713600.158691406,11741281.509399414,13516920.08972168,-19608570.098876953,-22879598.61755371,-1100702.166557312,24924182.891845703,11571227.073669434,34252590.17944336,8066222.190856934,8232396.125793457,10999904.63256836,-8883416.175842285,43488426.208496094,42909481.048583984,-119991569.51904297,11607581.13861084,11197744.369506836,41979984.283447266,45306297.302246094,59723114.013671875
0.14,-98656753.54003906,-128145401.00097656,-111015777.58789062,-98962898.25439453,-51182746.88720703,-40649715.423583984,-99414909.36279297,-36370761.87133789,-6665873.050689697,3105269.432067871,-369240.76080322266,-3692761.182785034,22273687.3626709,-32673099.517822266,-63437767.028808594,-57772830.963134766,-2472015.380859375,10627148.628234863,13524732.58972168,16869134.9029541,18372083.66394043,-7222449.779510498,-33263511.657714844,-15086837.768554688,-11180076.599121094,-15406829.833984375,10245312.690734863,23488811.492919922,25463644.02770996,13202716.827392578,-15673507.690429688,-5195485.591888428,3496273.994445801,-3018766.8800354004,6366753.578186035,22194692.611694336,-48139003.75366211,40214653.01513672,35698688.50708008,39094188.69018555,45647552.490234375,15948762.893676758,2132715.7020568848,12334074.974060059,-21704637.52746582,-29208341.598510742,-8698784.828186035,11780632.019042969,-5746065.616607666,7831068.992614746,-8541822.43347168,-8370993.614196777,-2713623.285293579,-17823595.04699707,20023969.650268555,19290313.720703125,-124005828.85742188,-1849099.040031433,-2275522.232055664,25242393.493652344,21461954.11682129,44490890.50292969
0.145,-99371131.89697266,-127180290.22216797,-110017135.62011719,-100066276.55029297,-50574920.654296875,-45830486.29760742,-106409622.19238281,-38249427.795410156,-5779566.764831543,4037312.9844665527,1085162.0435714722,-2726300.4779815674,22799810.4095459,-35803207.39746094,-71353263.85498047,-62489280.700683594,-3057764.5301818848,10673415.184020996,14715530.395507812,18195728.302001953,19375453.94897461,-13589783.668518066,-40405540.466308594,-17136112.213134766,-14380123.138427734,-16930376.052856445,10705923.080444336,24332443.237304688,26044517.517089844,12335053.443908691,-15933852.195739746,-9395733.833312988,1562600.7318496704,-4775115.013122559,6649197.578430176,22157159.80529785,-49997245.78857422,41222434.997558594,35420871.73461914,37129196.16699219,42926883.697509766,12695569.038391113,-262371.0334300995,11663105.010986328,-22699720.38269043,-31822574.615478516,-11174665.451049805,8272983.551025391,-10252685.546875,1959816.813468933,-11903890.609741211,-11858485.221862793,-5844669.818878174,-21007423.400878906,14355028.15246582,13408030.50994873,-100882446.2890625,-4837191.104888916,-5308362.007141113,20764934.539794922,15471689.224243164,40742118.83544922
0.15,-83746383.66699219,-117868324.27978516,-103666740.41748047,-87047637.93945312,-43399517.05932617,-27439939.498901367,-73287582.39746094,-29516159.057617188,-2919135.570526123,7506403.44619751,5874139.785766602,4808040.618896484,30185979.84313965,-18815998.077392578,-42488739.013671875,-46646575.927734375,-585216.8798446655,11053024.291992188,15498361.587524414,20681238.174438477,22897571.563720703,16068033.218383789,-11109957.695007324,-5719723.224639893,-7063621.997833252,-16926509.857177734,8678134.91821289,23451219.55871582,28028747.55859375,15701913.833618164,-9000444.412231445,10183921.813964844,10064508.438110352,-424751.4307498932,3924576.5209198,20621664.04724121,-49623550.41503906,40759662.62817383,38940292.35839844,44139438.62915039,51287193.298339844,27941810.607910156,6856441.497802734,11764202.117919922,-22360795.974731445,-29538339.614868164,-7250616.073608398,17173904.418945312,1828988.1944656372,22288082.122802734,2374454.4982910156,2371307.849884033,5091592.311859131,-16532678.604125977,32230003.356933594,31273162.841796875,-70274078.36914062,6043395.519256592,5585572.719573975,32919670.10498047,33583904.26635742,52530281.06689453
0.155,-69675338.74511719,-109949127.19726562,-98027313.23242188,-75048515.31982422,-37583549.49951172,-9415329.933166504,-42274745.94116211,-20804695.12939453,-316381.87170028687,10087277.41241455,8537779.808044434,9553481.101989746,35827304.84008789,-2825218.915939331,-14983825.68359375,-31714008.331298828,1939162.015914917,11774538.99383545,15886831.283569336,21802089.69116211,24527437.210083008,41781673.431396484,16274314.880371094,4750704.288482666,534195.4231262207,-16384935.37902832,7262171.745300293,22832914.352416992,28896837.23449707,17781457.901000977,-4171423.91204834,27785911.560058594,18400789.260864258,4161015.9873962402,1747923.2549667358,19252752.30407715,-49274791.7175293,39436687.46948242,40408340.45410156,49044338.22631836,58472373.962402344,42011631.01196289,13623456.954956055,11992309.5703125,-22391292.572021484,-27708473.205566406,-4195180.892944336,24470563.888549805,11637321.472167969,39286636.35253906,15379951.477050781,15473599.433898926,15208142.280578613,-12982490.539550781,47928493.49975586,47198047.63793945,-69221443.17626953,15979269.027709961,15651654.243469238,44163635.25390625,49782436.37084961,63129077.91137695
0.16,-71181503.29589844,-110798080.44433594,-98500656.12792969,-76416046.14257812,-39002101.89819336,-12632206.916809082,-47718475.341796875,-21957677.841186523,-104389.57065343857,9579627.03704834,6493677.616119385,5810187.816619873,32569595.336914062,-7117468.357086182,-20596920.013427734,-35347251.892089844,1539386.510848999,12161546.70715332,16096227.645874023,20513055.8013916,22265813.82751465,32946846.00830078,9578502.655029297,2825624.2275238037,-912547.7075576782,-16993412.017822266,7867693.901062012,23425661.087036133,27557891.845703125,14873448.371887207,-8188428.87878418,21507604.598999023,17246047.973632812,3449295.2823638916,2107514.3814086914,19046222.686767578,-50794944.763183594,38458614.349365234,36708564.75830078,43956340.78979492,53791488.64746094,38495311.73706055,11933143.615722656,11285444.259643555,-24054357.528686523,-30682353.973388672,-6766287.326812744,19778747.55859375,5052630.90133667,30715164.184570312,11969296.4553833,12135055.541992188,12359189.0335083,-17006444.931030273,41188961.029052734,40652114.86816406,-100293144.22607422,12951085.090637207,12803205.490112305,39872615.814208984,43156185.150146484,58677108.76464844
0.165,-80277442.9321289,-116056266.78466797,-102957031.25,-84687461.85302734,-44039310.455322266,-28131370.544433594,-71938957.21435547,-29053516.387939453,-1551433.0863952637,7554967.880249023,3157673.8357543945,-1318647.027015686,24148506.16455078,-23265075.68359375,-43077339.17236328,-48540943.14575195,-839762.9261016846,11759925.842285156,15997831.344604492,18494401.931762695,18875513.076782227,7970440.38772583,-15364017.486572266,-5553917.88482666,-7801577.568054199,-18849325.18005371,8597297.668457031,24176908.493041992,25700775.146484375,10108672.142028809,-16227222.442626953,2383979.320526123,10294029.235839844,-746458.113193512,3058463.0966186523,19262741.088867188,-53021263.122558594,38251800.537109375,31840076.446533203,34779865.26489258,42622177.12402344,25846073.150634766,5683195.5909729,9577227.592468262,-26186408.99658203,-36076423.64501953,-11112230.30090332,10043025.016784668,-8725816.72668457,10419631.004333496,653793.454170227,770488.2025718689,2927493.3338165283,-24126491.54663086,23567493.438720703,22982481.002807617,-128223373.41308594,3474000.930786133,3395084.3811035156,27422788.619995117,25178277.96936035,46288516.998291016
0.17,-81453590.3930664,-117394409.1796875,-105441482.54394531,-86396293.64013672,-45639221.19140625,-33732860.56518555,-77744361.8774414,-31837324.142456055,-2548329.5917510986,6584845.066070557,2700255.6324005127,-3705859.899520874,20156553.268432617,-28691667.556762695,-47833011.627197266,-52024242.40112305,-2259200.33454895,10779636.38305664,15212050.437927246,17778888.702392578,17821031.57043457,2514516.592025757,-22409759.521484375,-7785071.849822998,-10589278.221130371,-20532546.997070312,7479240.417480469,24008680.34362793,25237649.91760254,8651476.860046387,-18988588.333129883,-3588978.5289764404,7346113.204956055,-2864607.334136963,2169527.769088745,18880004.8828125,-53865882.873535156,38327541.35131836,31011096.954345703,31957912.44506836,38135482.78808594,22690353.393554688,3594145.2980041504,7970199.5849609375,-26818515.77758789,-38817012.786865234,-11900737.762451172,7679230.213165283,-12699526.7868042,4738648.891448975,-1417774.4388580322,-1318506.0024261475,435513.34738731384,-25909439.086914062,18333002.0904541,17572334.28955078,-129287643.43261719,1137689.471244812,944558.6800575256,23303169.25048828,19635017.39501953,41771629.333496094
0.175,-73848548.88916016,-114160240.17333984,-104074821.47216797,-80252006.53076172,-42723754.8828125,-25219137.19177246,-60662094.11621094,-28338714.599609375,-2552146.4347839355,6996839.0464782715,4806963.4437561035,-400157.5708389282,24281482.696533203,-17266523.361206055,-31527168.27392578,-43603099.82299805,-1995559.9308013916,9712636.947631836,13926637.649536133,18408258.43811035,19239315.032958984,20409893.035888672,-4944311.141967773,-2208046.9131469727,-7446331.977844238,-21241031.646728516,5245750.427246094,23371601.104736328,26000535.96496582,10881079.67376709,-14498943.328857422,8942912.101745605,10824533.462524414,-1360750.3175735474,-124341.98707342148,18031871.795654297,-53448261.26098633,38172874.450683594,33759365.08178711,36444034.576416016,43412860.87036133,31689874.64904785,7138318.061828613,7363596.9161987305,-25954576.49230957,-38177474.97558594,-10191758.155822754,13022251.12915039,-5788346.290588379,15805805.206298828,7119426.727294922,7361657.14263916,6478816.032409668,-21779457.092285156,27922010.42175293,27079277.03857422,-118833679.19921875,7450054.64553833,7075382.232666016,30084884.643554688,29282819.747924805,47672096.252441406
0.18,-68726165.77148438,-112162895.20263672,-102102874.75585938,-75695220.94726562,-39816696.16699219,-17041763.305664062,-45328483.58154297,-25091281.89086914,-2637377.7389526367,7485549.449920654,6390685.081481934,3409373.0449676514,31324684.143066406,-3532145.7386016846,-18801994.32373047,-36634929.65698242,-1783120.2745437622,8875811.576843262,13047723.770141602,19160564.422607422,20971397.399902344,37122116.08886719,12996537.208557129,2556045.7706451416,-4580505.847930908,-21726009.368896484,3834281.2061309814,23302326.202392578,26690519.332885742,13041950.225830078,-8462309.837341309,22073091.506958008,14869502.067565918,577495.5749511719,-1816625.952720642,17447881.6986084,-53598457.33642578,37787357.330322266,35733310.69946289,40658939.361572266,49426097.86987305,39831470.48950195,10871633.529663086,7507012.844085693,-25339721.6796875,-37535861.96899414,-10243702.88848877,16565235.137939453,-607763.8268470764,24253820.419311523,13785563.468933105,14178657.531738281,11784308.433532715,-18263715.744018555,35949989.318847656,35112335.205078125,-119221397.39990234,12948255.53894043,12492575.645446777,36578643.798828125,37487739.56298828,53364082.33642578
0.185,-69931892.39501953,-113475257.87353516,-102014762.87841797,-76342994.6899414,-39276645.66040039,-16818122.86376953,-42174007.415771484,-25133815.76538086,-3165006.8759918213,7625421.047210693,6425169.467926025,4753172.874450684,35137287.13989258,1038067.2216415405,-19729856.491088867,-36751605.98754883,-2420097.3510742188,8445322.036743164,13126882.553100586,19621629.71496582,21878562.927246094,40643077.8503418,16900135.040283203,2535854.5780181885,-5083272.933959961,-22734764.099121094,3452794.7902679443,23828918.45703125,26952846.52709961,13015934.944152832,-5222238.063812256,23772811.889648438,15833954.811096191,937242.6271438599,-2362433.910369873,17216035.842895508,-54893913.26904297,37335395.81298828,35282649.993896484,40505168.91479492,49611915.588378906,40522712.70751953,12178665.161132812,7698977.470397949,-25729063.034057617,-38399490.35644531,-11746294.021606445,14738655.090332031,-2568211.793899536,21334535.598754883,13665755.271911621,13997164.726257324,12467716.217041016,-18430353.16467285,35161468.505859375,34255573.27270508,-122750816.34521484,13649657.249450684,13230329.513549805,37222812.65258789,36702442.16918945,53463005.06591797
0.19,-69291213.98925781,-113907066.34521484,-102533103.9428711,-75504730.22460938,-38747112.27416992,-15712306.022644043,-36114364.62402344,-23963983.5357666,-3113740.2057647705,8132771.4920043945,6466382.5035095215,5443398.475646973,35341884.61303711,1411859.631538391,-17994924.545288086,-35128849.029541016,-2481373.7869262695,8606959.342956543,13584088.325500488,20329639.434814453,22508647.918701172,43635074.615478516,17901897.430419922,3229272.8424072266,-4909692.287445068,-23642826.080322266,2713108.3011627197,24174678.802490234,27434343.338012695,12267700.1953125,-3834547.519683838,21991479.873657227,16647500.991821289,1317733.4070205688,-2820586.681365967,16910890.579223633,-55947322.845458984,36798637.39013672,34682880.40161133,39364013.671875,47521858.21533203,41384616.85180664,14099740.982055664,7742155.075073242,-25942537.307739258,-38649765.01464844,-10560059.547424316,13726391.792297363,-4038534.164428711,18779813.766479492,15088239.669799805,15209362.983703613,14386816.97845459,-18548509.59777832,35571437.83569336,34535167.6940918,-108907814.0258789,15493771.55303955,15090228.080749512,38668498.99291992,37087722.77832031,54046707.15332031
0.195,-62929283.142089844,-111769233.70361328,-102891487.12158203,-69815078.73535156,-37277301.78833008,-7982496.738433838,-20256319.046020508,-19242488.861083984,-2213616.132736206,8793835.639953613,6778099.536895752,6183769.702911377,34158691.40625,4090898.5137939453,-4738327.503204346,-27077547.073364258,-1177818.775177002,9266019.821166992,13430670.738220215,20991596.221923828,22883476.25732422,53461181.640625,24863239.288330078,7803875.44631958,-1648386.3592147827,-23699796.676635742,1224149.8231887817,24097528.4576416,28145175.93383789,11888517.379760742,-3474585.2947235107,24668325.424194336,19131567.001342773,2531866.7888641357,-3713845.96824646,16529638.290405273,-55899051.666259766,36177005.767822266,34980178.83300781,39504909.51538086,46869396.2097168,47268825.53100586,17669815.063476562,7608825.68359375,-25054407.119750977,-37279457.092285156,-6574209.213256836,16735908.508300781,-727488.8157844543,23846328.735351562,22029235.83984375,22057279.586791992,19811162.9486084,-16311336.517333984,42455467.224121094,41415786.74316406,-85465042.11425781,20867828.369140625,20358810.424804688,44515995.025634766,44174564.361572266,58184696.197509766
0.2,-60291198.73046875,-112820144.65332031,-106190673.828125,-67281036.37695312,-39136093.13964844,-4728452.682495117,-13325990.676879883,-16986438.751220703,-2191970.5867767334,7876019.477844238,4873215.675354004,3337240.45753479,30530183.792114258,2258125.3051757812,1993257.999420166,-23090391.159057617,-442053.4372329712,9767683.029174805,12502741.813659668,20011390.686035156,21582201.00402832,54883270.263671875,24133863.44909668,9271437.644958496,-392921.7457771301,-23806560.516357422,379538.56587409973,24115535.736083984,28048503.875732422,10077643.394470215,-7010218.620300293,22402370.45288086,18407476.4251709,1738771.677017212,-4413780.212402344,16485322.952270508,-55953159.33227539,35657886.50512695,33534797.66845703,36679244.99511719,42642414.09301758,48785797.119140625,17820100.784301758,6760687.351226807,-24099767.684936523,-37121292.11425781,-5310251.235961914,17070911.407470703,-1208883.6431503296,23540288.9251709,24262189.865112305,24395362.854003906,20363002.77709961,-16092212.677001953,43518863.677978516,42632537.841796875,-83173278.80859375,21376220.703125,20722595.21484375,45625621.7956543,45521442.41333008,57031734.466552734
0.205,-70062904.35791016,-122010742.1875,-114814094.54345703,-75488105.77392578,-47696716.30859375,-17480417.251586914,-30252553.939819336,-22918899.536132812,-4459502.696990967,4600159.645080566,-658031.5828323364,-5349956.512451172,22073244.094848633,-13062993.049621582,-14652967.45300293,-33050338.745117188,-2346055.746078491,9522033.69140625,11622609.13848877,16624961.853027344,17840507.50732422,34828861.236572266,1974034.9054336548,604680.597782135,-6228653.430938721,-25469137.19177246,1266426.44405365,24520898.818969727,26591094.970703125,5173469.066619873,-15999570.846557617,4024492.7406311035,9822981.834411621,-3255704.402923584,-4539421.558380127,16778152.465820312,-57502902.98461914,35201251.98364258,28228408.813476562,27143337.24975586,29251163.482666016,36508899.6887207,10695758.819580078,4757922.172546387,-24624414.443969727,-40763561.2487793,-10225414.276123047,8603815.078735352,-13399420.738220215,4894212.72277832,12709841.72821045,12949212.074279785,9359828.94897461,-22276548.385620117,27713901.51977539,26887126.922607422,-109099594.11621094,10227442.741394043,9574545.860290527,33558250.427246094,29711946.487426758,42966197.9675293
0.21,-84708251.953125,-134055145.26367188,-124468185.42480469,-88040580.74951172,-58222484.58862305,-37177787.78076172,-53832656.86035156,-32338642.120361328,-7467189.788818359,1128649.8308181763,-6759332.656860352,-15008808.135986328,11621659.278869629,-34276645.66040039,-40138950.34790039,-48526706.69555664,-5655378.818511963,8879160.88104248,11633089.065551758,12669960.021972656,13521434.783935547,8331441.879272461,-27605644.22607422,-12638206.481933594,-15061813.354492188,-28238931.65588379,2897835.7315063477,24905920.028686523,24872852.325439453,-742763.9961242676,-25647851.943969727,-20502199.172973633,-2009837.3889923096,-9276409.149169922,-4732082.366943359,16820854.18701172,-59812713.623046875,34281970.9777832,21556741.71447754,15581080.436706543,12579257.96508789,18656759.26208496,1191433.1912994385,2317595.4818725586,-26419029.235839844,-46202823.638916016,-17438442.23022461,-3184000.4920959473,-29718954.08630371,-20923004.150390625,-3958417.1772003174,-3783394.8135375977,-5439224.720001221,-31299619.674682617,5866906.642913818,4817637.920379639,-131756134.03320312,-4826090.335845947,-5265122.413635254,16411933.898925781,7552952.289581299,24530248.641967773
0.215,-89296241.7602539,-138804626.46484375,-127869789.12353516,-91866844.1772461,-62324966.43066406,-44206539.154052734,-56359722.13745117,-35699638.36669922,-8406568.52722168,243306.42819404602,-9067395.210266113,-18568267.822265625,6095990.6578063965,-43929779.052734375,-47004341.12548828,-52892524.71923828,-7311789.989471436,8701543.807983398,12415695.190429688,10796349.52545166,11378069.877624512,951815.4263496399,-38135986.328125,-18306369.78149414,-18310308.4564209,-29947458.267211914,3375263.9293670654,24797830.58166504,24448167.80090332,-3856893.539428711,-29529907.2265625,-30080640.79284668,-7456058.979034424,-11137354.850769043,-5572226.524353027,16267229.080200195,-60981975.55541992,32598617.553710938,17932411.193847656,10369583.129882812,4593825.817108154,12453361.511230469,-2129471.0636138916,868482.9473495483,-27809358.596801758,-49209701.53808594,-20911216.735839844,-7729846.477508545,-35693302.154541016,-30985609.05456543,-9097399.711608887,-9092596.054077148,-10143112.182617188,-35478176.11694336,-1548603.5346984863,-2927750.587463379,-124158203.125,-9731440.544128418,-9893801.68914795,10388606.071472168,-132194.99588012695,17735052.10876465
0.22,-81713867.1875,-134519393.92089844,-124184432.98339844,-84941230.77392578,-58900978.088378906,-35184459.6862793,-38023113.25073242,-31789108.276367188,-7186069.965362549,1514723.6585617065,-7712377.548217773,-16139657.974243164,7699758.529663086,-38253589.63012695,-33118537.90283203,-44135314.94140625,-6762653.827667236,9050988.19732666,12937008.85772705,11179059.982299805,11590701.10321045,14021059.036254883,-26705766.677856445,-13847819.328308105,-14570182.800292969,-29694231.033325195,2230712.413787842,24242462.158203125,25318273.544311523,-3469064.474105835,-27782419.204711914,-21771512.985229492,-4019628.0479431152,-8500067.710876465,-6644255.638122559,15538033.485412598,-60662895.20263672,30790927.88696289,18227060.317993164,12934373.85559082,7618514.060974121,21221858.978271484,2209451.913833618,954585.611820221,-27802824.020385742,-48627925.872802734,-19953413.009643555,-3488980.770111084,-29167148.59008789,-21425884.246826172,-57590.302079916,-175124.48132038116,-2467177.391052246,-32941471.099853516,8405180.931091309,6918230.056762695,-100606781.00585938,-2036357.8796386719,-2083200.216293335,18745996.475219727,9799699.783325195,25533779.14428711
0.225,-73673072.8149414,-129331680.29785156,-120124015.80810547,-77643310.546875,-55410682.678222656,-25275163.650512695,-22465311.05041504,-28225042.34313965,-6607309.341430664,1719594.4786071777,-7225672.245025635,-14676275.253295898,10678995.132446289,-31039550.78125,-20420513.153076172,-35375297.54638672,-6376220.226287842,9056496.620178223,12287834.167480469,11364404.678344727,11473207.473754883,26088479.99572754,-14613172.53112793,-8217892.646789551,-10347951.889038086,-28953714.37072754,759456.5749168396,23558088.302612305,25898290.634155273,-2690605.878829956,-26328311.920166016,-13498759.269714355,1494230.6280136108,-5770839.691162109,-7316403.865814209,15239883.422851562,-60380580.90209961,29675558.09020996,19354320.526123047,16983093.26171875,12300157.54699707,31498550.415039062,7801630.973815918,1681803.9417266846,-26996837.615966797,-46943729.400634766,-18464990.615844727,1468574.88155365,-21282564.163208008,-10142357.82623291,10292925.834655762,10144636.154174805,6997936.725616455,-29054746.627807617,19759216.30859375,18447145.462036133,-93046043.3959961,7625617.027282715,7489701.747894287,29210592.26989746,21247135.162353516,35622856.14013672
0.23,-72769966.12548828,-129187316.89453125,-120626426.69677734,-77034576.41601562,-57379367.82836914,-24480489.73083496,-20567211.151123047,-29473134.994506836,-8223373.4130859375,-668685.9726905823,-10369471.549987793,-18256332.397460938,8923545.837402344,-32893936.157226562,-20566976.54724121,-34561161.041259766,-7471048.355102539,8342563.629150391,10737111.09161377,9593891.143798828,8950255.393981934,24791042.32788086,-14888151.168823242,-7995715.618133545,-9912822.723388672,-29171485.900878906,265388.8761997223,23002956.39038086,25002510.07080078,-4338150.0244140625,-28665008.544921875,-17129320.14465332,3017169.713973999,-5685298.442840576,-7825255.393981934,15336365.699768066,-61261489.86816406,28967054.36706543,18638830.184936523,17515729.904174805,11483643.531799316,32637413.024902344,9437846.183776855,1811932.08694458,-26564914.70336914,-46603996.27685547,-18833198.54736328,1376821.1603164673,-20009799.95727539,-10144918.441772461,12327125.549316406,12210075.378417969,9869955.062866211,-28635625.8392334,21167322.158813477,20062009.811401367,-105634796.14257812,10629792.213439941,10386183.738708496,31621732.711791992,22730550.76599121,37991378.78417969
0.235,-74961532.59277344,-131337615.96679688,-123182922.36328125,-79583084.10644531,-62014610.290527344,-27387176.513671875,-23188222.885131836,-32139343.26171875,-10229972.839355469,-3486940.622329712,-14821719.1696167,-23706087.112426758,3128155.7083129883,-40017078.3996582,-25390209.197998047,-37141788.482666016,-8584647.178649902,7778382.301330566,9650160.789489746,6969241.142272949,5076519.012451172,16903387.06970215,-21443851.470947266,-10879579.544067383,-11300298.690795898,-29919830.322265625,896505.0578117371,22973409.65270996,23105018.615722656,-8150892.25769043,-32909469.604492188,-26334566.116333008,1173124.074935913,-7023284.912109375,-8708073.616027832,15255206.108093262,-62973564.14794922,27712194.442749023,16095659.255981445,15073400.497436523,7307516.574859619,27307266.235351562,7540051.460266113,833091.8550491333,-27249248.504638672,-48339630.126953125,-20565786.361694336,-2354067.087173462,-23354343.41430664,-17218597.412109375,8343420.028686523,8325721.740722656,7292403.221130371,-31714303.970336914,15851550.102233887,14773806.57196045,-115878738.40332031,7946422.100067139,7746809.959411621,27377454.75769043,17523431.7779541,34237236.02294922
0.24,-75308830.26123047,-131086822.50976562,-122957946.77734375,-80335655.21240234,-63962322.23510742,-28069458.0078125,-25929149.627685547,-32743431.091308594,-10312962.532043457,-4079991.8174743652,-16903917.31262207,-26761369.705200195,-1942685.604095459,-45807270.05004883,-29416772.842407227,-38906501.77001953,-8324939.727783203,8302131.652832031,10144707.679748535,5700320.720672607,2466048.240661621,8659197.807312012,-29379411.697387695,-13621231.079101562,-12556009.292602539,-30315496.44470215,2053204.7748565674,23912931.442260742,21522983.55102539,-12098701.477050781,-36651523.59008789,-33466701.50756836,-1386903.2859802246,-8468438.148498535,-9637068.748474121,14696042.06085205,-64970634.46044922,26014747.619628906,12939795.49407959,11615964.889526367,3615884.54246521,21621797.561645508,4146467.685699463,-911696.4340209961,-29101001.739501953,-52063899.993896484,-23324836.73095703,-7182959.55657959,-28143285.751342773,-24570701.599121094,3012046.0987091064,3159600.4962921143,2823951.482772827,-36594482.421875,8872725.486755371,7697739.601135254,-113070777.8930664,3240425.3482818604,3167193.88961792,21196500.778198242,10682342.529296875,29247819.900512695
0.245,-75280754.08935547,-128477905.2734375,-119239158.6303711,-80104301.45263672,-62542190.55175781,-30084852.21862793,-35752849.57885742,-32854358.673095703,-8735221.862792969,-2662547.5883483887,-16212917.32788086,-27696540.83251953,-4078765.392303467,-50976615.90576172,-38331996.91772461,-42843311.30981445,-7548285.484313965,9620805.740356445,11871437.072753906,6259350.299835205,2172157.2875976562,-3259046.0777282715,-43394229.888916016,-17445234.298706055,-15107280.731201172,-30760055.541992188,3115222.215652466,25535963.05847168,20940212.24975586,-14740963.93585205,-40019775.390625,-41451808.92944336,-4385954.856872559,-10540810.585021973,-9749707.221984863,14025661.46850586,-67265953.06396484,25193878.173828125,10238943.099975586,7694501.3999938965,11865.261010825634,16177223.205566406,84085.91896295547,-2510486.125946045,-31376457.21435547,-56723018.646240234,-27200166.702270508,-12911512.37487793,-35072963.71459961,-33491439.819335938,-3483474.7314453125,-3193352.460861206,-2864363.193511963,-42223430.63354492,-666096.9257354736,-1897621.0355758667,-110581451.41601562,-2552880.28717041,-2611846.685409546,14091666.221618652,1144483.8047027588,23844537.73498535
0.25,-75073112.48779297,-124700607.29980469,-113902503.96728516,-79465538.02490234,-59880023.95629883,-34540725.70800781,-47993373.87084961,-33490497.589111328,-7156709.671020508,-1070361.4950180054,-14733296.394348145,-28219936.37084961,-4157216.5489196777,-55696456.90917969,-49043483.73413086,-48430912.017822266,-7290467.262268066,10710898.399353027,13401748.657226562,7296191.215515137,3150447.8454589844,-15592921.257019043,-59075691.22314453,-21488399.505615234,-18360569.00024414,-31889823.91357422,3504955.768585205,26589015.96069336,21167140.96069336,-15603897.094726562,-42717533.111572266,-50897537.23144531,-6640915.393829346,-12427194.595336914,-9142959.594726562,13777884.483337402,-69434303.2836914,25808361.053466797,9395583.152770996,5284227.8480529785,-2765340.0897979736,11947394.371032715,-2359154.462814331,-2875200.5100250244,-32760059.356689453,-59648380.279541016,-30008535.385131836,-17283813.4765625,-41747528.076171875,-42762611.389160156,-9004849.433898926,-8686553.955078125,-7311944.007873535,-46225196.838378906,-9867204.666137695,-11072795.867919922,-117340232.8491211,-6862144.947052002,-7044925.689697266,8630824.089050293,-8220992.088317871,19785396.575927734
0.255,-69691360.47363281,-118218093.87207031,-107539863.58642578,-74762725.83007812,-56266319.274902344,-32988910.675048828,-44457462.310791016,-31597627.639770508,-6029120.445251465,148311.3169670105,-13482926.368713379,-27569845.19958496,-3049782.0377349854,-54089607.23876953,-46045898.4375,-47543582.916259766,-6750689.98336792,11136570.930480957,13779285.430908203,7631043.434143066,3986962.7952575684,-15093958.854675293,-59713855.7434082,-20203842.163085938,-17919931.411743164,-33033573.150634766,2900520.086288452,26149995.803833008,21722240.447998047,-15080718.994140625,-42717227.935791016,-52273952.48413086,-4766718.38760376,-11468116.760253906,-8994864.463806152,13966107.368469238,-70467781.06689453,26670835.494995117,11235986.709594727,7546061.038970947,-49220.14847397804,13880477.905273438,-20081.816241145134,-1710092.306137085,-32637969.970703125,-59154926.30004883,-28842430.114746094,-15999459.266662598,-41539165.49682617,-43680774.6887207,-7576137.065887451,-7315750.1220703125,-5517886.161804199,-45689949.03564453,-9741024.9710083,-10915900.230407715,-121422584.5336914,-4834257.60269165,-5100178.241729736,10510904.312133789,-8178767.204284668,21892795.56274414
0.26,-58484169.006347656,-108850112.91503906,-100489547.72949219,-65361106.872558594,-51322761.53564453,-21421566.009521484,-24128013.610839844,-26022630.69152832,-4739999.294281006,1708290.457725525,-12124164.581298828,-25056856.155395508,-1393536.5676879883,-44901203.15551758,-27855197.90649414,-37935798.64501953,-4989058.971405029,11269276.61895752,13372077.941894531,7338120.460510254,4260216.71295166,-452360.4214191437,-43114299.77416992,-12651432.991027832,-12807276.725769043,-33201995.849609375,1751195.0731277466,24924613.95263672,22246065.139770508,-14425507.545471191,-40064521.78955078,-42335308.07495117,1084871.530532837,-7746709.823608398,-9926980.018615723,14097594.261169434,-70516067.50488281,26641641.61682129,14316694.259643555,13607238.76953125,8747875.213623047,22050529.47998047,5562603.950500488,-143811.6878271103,-32068584.442138672,-57703895.568847656,-24930963.51623535,-9984970.092773438,-34237533.56933594,-34692729.94995117,614811.360836029,826626.2412071228,1848070.740699768,-41928180.69458008,161492.63083934784,-1016586.0652923584,-111996635.43701172,2664726.495742798,2459848.8807678223,19237442.016601562,1879255.5332183838,29701187.133789062
0.265,-49222850.79956055,-100482055.6640625,-94453208.92333984,-57303184.509277344,-46525177.001953125,-9427158.35571289,-10850005.149841309,-20940050.12512207,-3094268.321990967,3854695.3201293945,-10499506.950378418,-22868574.142456055,-571317.3747062683,-37331974.029541016,-15255751.609802246,-29540998.458862305,-2794864.4161224365,11604479.789733887,13177864.074707031,7146369.934082031,4467627.52532959,10788236.618041992,-30659994.12536621,-6429465.293884277,-8540812.492370605,-32771541.595458984,952945.9476470947,24426616.668701172,22626356.12487793,-14680764.198303223,-38070178.9855957,-34200828.552246094,5477083.206176758,-5160740.852355957,-11137512.20703125,13825773.239135742,-71382644.65332031,26283494.94934082,16178953.170776367,18260187.14904785,16318881.98852539,28230409.622192383,8472769.737243652,414568.12620162964,-32566139.221191406,-59349090.576171875,-23039773.94104004,-6217044.830322266,-29035163.87939453,-27999650.955200195,6538043.49899292,6733918.190002441,6882530.212402344,-40223331.451416016,7215288.6390686035,6047396.183013916,-99175842.28515625,7712168.6935424805,7577193.737030029,25638315.200805664,9134652.137756348,34938140.869140625
0.27,-45788974.76196289,-94898468.01757812,-89624595.64208984,-53778488.15917969,-42599323.27270508,-4950268.745422363,-16391681.671142578,-18851110.458374023,-1187797.7848052979,6305159.091949463,-8486804.962158203,-22558349.609375,-682734.0722084045,-37037223.81591797,-19426860.809326172,-28964698.791503906,-1118593.0967330933,12333206.176757812,13551575.660705566,7602325.916290283,5387445.449829102,8870794.296264648,-35348648.07128906,-5931046.485900879,-8587675.094604492,-32750259.399414062,615090.9066200256,24895280.838012695,23079208.374023438,-15092627.52532959,-38359745.025634766,-37967227.935791016,5993104.457855225,-5337207.317352295,-11631171.226501465,13381538.391113281,-74108390.80810547,26649511.337280273,16828418.731689453,19519199.37133789,17641290.66467285,28548419.952392578,7269688.129425049,189137.23528385162,-33922805.78613281,-63699535.36987305,-24795539.85595703,-7642832.279205322,-30982099.533081055,-31119464.874267578,5925601.482391357,6100561.618804932,6117890.357971191,-42381156.92138672,4434345.245361328,3326262.4740600586,-97567001.34277344,6965811.729431152,6735097.408294678,25067420.959472656,6375247.478485107,33562725.06713867
0.275,-41363716.12548828,-88167709.35058594,-83277069.09179688,-49650093.07861328,-37545047.760009766,-1763729.8107147217,-21452077.865600586,-16326551.43737793,1000641.2267684937,8876951.217651367,-5592062.473297119,-22135782.24182129,422857.9103946686,-36647487.64038086,-23824405.670166016,-29058334.350585938,545571.0291862488,13175997.734069824,13808009.147644043,8602965.354919434,7110058.784484863,6497354.030609131,-41829536.43798828,-5050692.081451416,-8795798.301696777,-33196048.736572266,-109648.17553758621,25002273.559570312,23720632.553100586,-14352966.30859375,-38607021.33178711,-44261421.20361328,7527606.48727417,-4778532.981872559,-11488868.713378906,13211124.420166016,-77392654.41894531,27333070.755004883,18275371.551513672,21153013.229370117,17480545.043945312,30226520.538330078,7614226.341247559,720410.406589508,-34514564.514160156,-66083732.60498047,-26828069.68688965,-9190295.219421387,-33676670.07446289,-34998744.96459961,5969008.922576904,6130624.294281006,5960846.900939941,-44058982.849121094,964503.3478736877,-76286.94176673889,-103554260.25390625,6913713.455200195,6478392.601013184,24393442.153930664,2849502.0866394043,32162967.681884766
0.28,-31986494.064331055,-78408256.53076172,-74653938.29345703,-42177989.9597168,-30987337.112426758,6015578.746795654,-11796241.760253906,-11766255.378723145,2616144.895553589,10824040.412902832,-2417999.505996704,-20375583.64868164,3178666.830062866,-30576398.849487305,-15287111.282348633,-23906475.067138672,2324938.7741088867,13297054.290771484,13101926.803588867,9352939.60571289,8483490.943908691,12918058.395385742,-36007217.40722656,608061.3732337952,-5777272.2244262695,-33854309.08203125,-1554208.517074585,23846551.8951416,23976503.372192383,-13498169.898986816,-37692760.4675293,-42076702.11791992,12865714.073181152,-1527564.287185669,-11374065.399169922,13272257.804870605,-79813186.64550781,27140403.747558594,20199134.826660156,24701707.83996582,20893531.799316406,37321647.64404297,12108935.356140137,2259210.1097106934,-34037822.72338867,-64805610.65673828,-27336757.65991211,-8090029.716491699,-32404911.041259766,-32395221.710205078,11010977.745056152,11219119.07196045,10454504.013061523,-42568866.72973633,3684184.3128204346,2659281.7306518555,-104801940.91796875,11538583.755493164,11016736.030578613,28509061.813354492,5634887.6953125,35241741.18041992
0.285,-26898370.74279785,-71542175.29296875,-67895515.44189453,-38969650.26855469,-27084609.985351562,8882482.528686523,-7778818.130493164,-10905893.325805664,2079959.3925476074,10849621.772766113,-1137322.0682144165,-20622337.341308594,3872561.454772949,-28679008.48388672,-11447452.545166016,-22757328.033447266,2485835.7906341553,12068426.132202148,11632262.229919434,9132199.28741455,8224907.875061035,12702259.063720703,-33664005.279541016,2958130.121231079,-4727868.08013916,-35443096.16088867,-2727281.8088531494,22279844.284057617,23038917.541503906,-15311041.831970215,-38904823.303222656,-40777469.635009766,15223631.858825684,-179939.1210079193,-11451541.900634766,12994598.388671875,-82233169.55566406,26159471.51184082,19347774.505615234,24841146.46911621,22795150.756835938,39591907.5012207,13923981.666564941,2846829.414367676,-34417579.650878906,-64310539.24560547,-29895303.72619629,-10691201.210021973,-34999233.24584961,-34753185.2722168,11655684.471130371,11943764.686584473,11812057.495117188,-42494621.27685547,1520090.4607772827,464686.3341331482,-103088485.71777344,12920690.536499023,12535231.590270996,29074718.475341797,3548990.9648895264,34697753.90625
0.29,-33385673.52294922,-72022209.16748047,-65799972.53417969,-45336898.80371094,-28315532.684326172,-1811676.9790649414,-29355165.481567383,-17081272.12524414,-23909.70103442669,9485958.099365234,-2436345.338821411,-25539592.742919922,-45526.12081170082,-40571804.04663086,-30970664.978027344,-34276569.36645508,480527.28176116943,10462710.3805542,10747443.199157715,8419351.577758789,6903338.432312012,-7920722.484588623,-53612140.65551758,-5471452.236175537,-10847468.376159668,-38313930.51147461,-2739890.0985717773,21615419.387817383,21234563.82751465,-19865295.41015625,-44220706.939697266,-54465641.021728516,8587932.586669922,-4840349.6742248535,-11573827.743530273,12081783.294677734,-86028427.12402344,25534852.981567383,14947238.92211914,18140476.22680664,16375654.220581055,28211782.455444336,7283208.847045898,990979.7310829163,-37057704.92553711,-68564529.41894531,-37100948.333740234,-21632112.503051758,-48609699.24926758,-53250518.798828125,-243360.60881614685,66537.95391321182,2660746.0975646973,-48457935.33325195,-16108089.447021484,-17192693.71032715,-109310447.6928711,3631058.931350708,3461339.235305786,17934490.203857422,-14227573.39477539,22727344.512939453
0.295,-40064010.62011719,-72935432.43408203,-64054702.75878906,-51114315.032958984,-29681598.663330078,-12458796.501159668,-53250980.377197266,-21922626.495361328,-34387.78966665268,9885629.653930664,-3503329.277038574,-31062467.575073242,-4666652.679443359,-54972850.79956055,-54366638.18359375,-46373096.46606445,-357479.989528656,10707128.524780273,11518394.470214844,8526420.593261719,6641963.481903076,-29874523.162841797,-78952583.31298828,-14916083.335876465,-17901008.60595703,-40596237.18261719,-2306627.2735595703,21777538.299560547,20096862.79296875,-23362981.79626465,-49284271.240234375,-73366485.59570312,273040.86089134216,-10728568.077087402,-12002635.955810547,11089138.984680176,-90099037.17041016,25361103.057861328,11214684.48638916,10996039.390563965,7058920.383453369,14401380.53894043,-1199147.4628448486,-1923609.972000122,-40461387.634277344,-74652603.14941406,-44437522.888183594,-32831008.911132812,-63649341.58325195,-73976264.95361328,-14122582.43560791,-13851083.755493164,-8956422.805786133,-56261425.01831055,-36009071.350097656,-37114074.70703125,-120208213.80615234,-8176512.718200684,-8258928.298950195,4244289.875030518,-34392902.37426758,8237853.050231934
0.3,-30554813.385009766,-64578628.54003906,-57118179.32128906,-42795837.40234375,-24946928.024291992,-2423706.0546875,-41002780.91430664,-15377086.639404297,4306514.739990234,13937083.24432373,-1525024.7716903687,-31186483.38317871,-4331266.8800354,-52367019.65332031,-46911087.03613281,-39903804.779052734,3348466.157913208,13533481.59790039,13268498.420715332,9687521.934509277,8264561.653137207,-23524580.001831055,-76695228.57666016,-9588807.106018066,-15278359.413146973,-40087665.55786133,-2869657.7548980713,21596706.39038086,20526407.24182129,-23044553.756713867,-49002983.09326172,-74051948.54736328,2592778.205871582,-9689988.136291504,-13170805.931091309,10808933.25805664,-92241577.1484375,24500530.242919922,11880577.087402344,11764635.08605957,6682137.966156006,16828674.31640625,-397719.9196815491,-3366182.565689087,-42008354.18701172,-76725593.56689453,-45428413.39111328,-32859733.58154297,-64579452.51464844,-73354255.67626953,-12658673.286437988,-12381235.122680664,-8542210.578918457,-57699459.075927734,-35775749.20654297,-36941051.4831543,-118961959.83886719,-7805721.282958984,-7967587.947845459,4515533.447265625,-34157550.81176758,7316641.807556152
0.305,-9703332.901000977,-50162818.908691406,-47382946.0144043,-25235134.12475586,-16477619.171142578,22766012.19177246,-314745.57518959045,-2033982.0384979248,9755321.502685547,18777822.494506836,2027614.5935058594,-27039985.65673828,-42265.262454748154,-34904354.095458984,-13734990.119934082,-19077522.27783203,9290269.85168457,16542579.650878906,14088086.128234863,10457190.51361084,10059081.077575684,5211577.415466309,-49476230.62133789,7262502.193450928,-4800001.621246338,-37919521.33178711,-4613003.730773926,20531019.21081543,21569890.97595215,-21113780.975341797,-45557418.82324219,-56085857.39135742,13896022.79663086,-2672201.8718719482,-14915022.850036621,11198826.789855957,-93060928.34472656,22800384.521484375,14784759.521484375,18030443.19152832,15262910.842895508,33620647.43041992,8701717.376708984,-3105264.902114868,-41411205.29174805,-74320083.61816406,-41026893.615722656,-24126028.060913086,-53399227.142333984,-54366718.29223633,2357301.4736175537,2714144.706726074,3476624.9656677246,-52599552.154541016,-17545843.12438965,-18830707.550048828,-101668342.59033203,4368993.282318115,4111802.577972412,18222112.65563965,-15584480.285644531,19647050.857543945
0.31,1222948.670387268,-42358936.30981445,-42021560.66894531,-16718259.811401367,-12087276.458740234,35714221.9543457,21804931.640625,3608397.0069885254,11158812.522888184,20144996.643066406,3583137.9890441895,-25100917.81616211,2081995.964050293,-24676912.307739258,3712004.1847229004,-8202841.758728027,11635353.088378906,16812503.814697266,13088375.091552734,9846298.217773438,10413111.686706543,20833517.07458496,-33784870.14770508,15797652.244567871,462331.8314552307,-37658485.412597656,-6395494.46105957,19146863.93737793,21845432.28149414,-21300777.435302734,-45315536.49902344,-44595279.693603516,19716968.536376953,947685.7781410217,-16699737.548828125,11409719.467163086,-95444869.99511719,21789510.72692871,15357161.521911621,19959781.646728516,20169624.32861328,44033866.88232422,14218947.410583496,-3179852.9624938965,-40804821.0144043,-72473022.4609375,-38556880.950927734,-20009080.88684082,-47497856.14013672,-44189456.939697266,11840833.66394043,12231654.167175293,12022482.872009277,-49079681.396484375,-6252643.585205078,-7645616.53137207,-86470939.63623047,13071994.78149414,12854786.87286377,28011716.842651367,-3973334.550857544,28435909.271240234
0.315,-5167520.523071289,-44814846.03881836,-42036720.275878906,-23143918.991088867,-13424410.820007324,25376033.782958984,5812175.273895264,-2716778.516769409,8389171.600341797,18339046.478271484,2825695.514678955,-27467252.731323242,-137220.29328346252,-32136203.76586914,-13209600.448608398,-17619485.85510254,8944916.725158691,14716361.045837402,11552525.520324707,8989368.438720703,10087536.811828613,8378729.820251465,-46832790.37475586,7959994.792938232,-5229524.612426758,-40270366.66870117,-7332447.052001953,18088993.072509766,21403341.29333496,-23699184.41772461,-49524131.774902344,-53719547.271728516,13559258.460998535,-3165858.9839935303,-18271688.46130371,11040777.206420898,-99776145.9350586,22440382.00378418,13089733.123779297,14560158.729553223,14481285.095214844,37915996.55151367,10655860.900878906,-4649375.915527344,-41627399.44458008,-74378311.15722656,-42164875.03051758,-26217710.494995117,-54911491.39404297,-55547943.115234375,6429582.595825195,6738964.557647705,8681434.631347656,-51956146.240234375,-14546539.306640625,-15956149.101257324,-89776535.03417969,9670321.464538574,9609909.057617188,24045375.82397461,-12253802.299499512,23933357.23876953
0.32,-13709186.553955078,-47667007.44628906,-41230213.1652832,-31244928.35998535,-14539006.233215332,10194568.634033203,-18187610.626220703,-10382709.503173828,6267055.034637451,17587509.155273438,2509542.226791382,-30106813.430786133,-2954605.1025390625,-44081565.856933594,-37842117.30957031,-31493179.321289062,5994592.666625977,13467400.550842285,11330464.363098145,9446557.04498291,10371849.060058594,-10649360.656738281,-66842369.079589844,-2379961.0137939453,-13069817.543029785,-42568367.00439453,-7423056.602478027,17471048.35510254,21180149.07836914,-25833755.493164062,-53599849.700927734,-69267532.34863281,5111506.462097168,-8824991.226196289,-19483386.993408203,10807215.690612793,-102780532.83691406,23644901.275634766,10858085.632324219,8481824.87487793,5616922.855377197,27049461.364746094,5185863.018035889,-6234476.566314697,-43046867.37060547,-78018066.40625,-49081012.72583008,-35180870.056152344,-65741302.490234375,-72129829.40673828,-3356795.310974121,-3102192.6403045654,857609.4508171082,-57308654.78515625,-29000902.17590332,-30369365.692138672,-105349411.01074219,1638496.1605072021,1692582.8456878662,14588151.931762695,-26841838.836669922,14098355.293273926
0.325,-11155538.558959961,-43090740.20385742,-36084018.70727539,-29722101.21154785,-11874301.91040039,8311050.4150390625,-21353435.516357422,-10552549.362182617,7724070.5490112305,19811811.447143555,3566581.7260742188,-30529659.271240234,-3523917.9134368896,-46418308.25805664,-42260581.970214844,-33800354.00390625,6813691.139221191,14907625.198364258,12665615.08178711,10763666.152954102,10553696.632385254,-15700968.742370605,-71760063.17138672,-1808130.0258636475,-13874839.782714844,-41798633.57543945,-6811848.163604736,17341207.50427246,21300184.24987793,-27186500.549316406,-54743892.669677734,-73845077.51464844,4510917.186737061,-9343454.360961914,-19888231.27746582,11532669.067382812,-102454353.33251953,23919540.405273438,9664395.332336426,6887200.832366943,2840421.676635742,24073980.3314209,5013935.089111328,-6506020.069122314,-43669738.76953125,-80382171.63085938,-55016654.96826172,-39471069.3359375,-69930854.79736328,-76825988.76953125,-6106284.141540527,-5705535.411834717,-2231614.351272583,-59742050.17089844,-34502117.15698242,-35889430.99975586,-115552474.97558594,-1512396.8124389648,-1497761.9647979736,10245315.551757812,-32343395.233154297,9462461.471557617
0.33,-2988320.1122283936,-35207866.66870117,-30019495.010375977,-23245750.427246094,-8425130.844116211,14791715.621948242,-12491502.76184082,-6684983.730316162,10747284.889221191,22678480.14831543,4206304.550170898,-30714056.01501465,-3021061.1820220947,-41852573.39477539,-32259338.37890625,-28468252.182006836,9824349.403381348,17565921.783447266,14406457.901000977,11372028.350830078,9469314.575195312,-12528348.922729492,-67321952.81982422,5176215.171813965,-9821375.846862793,-39298324.58496094,-5578213.691711426,17916749.954223633,21282796.85974121,-29014696.12121582,-54559211.73095703,-69294532.7758789,9136181.831359863,-6206650.257110596,-19370695.114135742,12891917.22869873,-101357780.45654297,23483688.354492188,8413198.471069336,7823382.85446167,5751081.466674805,26354667.66357422,7917296.409606934,-5762728.214263916,-43380214.69116211,-81379730.22460938,-58345729.82788086,-40449497.22290039,-69590072.63183594,-73270454.40673828,-3886560.4400634766,-3216995.0008392334,-1115260.362625122,-59186790.466308594,-33218212.127685547,-34725540.16113281,-114572593.68896484,-187486.97638511658,-310062.4680519104,10901822.090148926,-30925403.594970703,9929210.662841797
0.335,840220.5109596252,-30776371.002197266,-26616594.314575195,-20114112.854003906,-6725816.72668457,17733577.728271484,-9164629.936218262,-4805749.893188477,12765310.287475586,24267662.048339844,3938845.634460449,-31556331.634521484,-2311742.067337036,-38100307.46459961,-24309970.85571289,-25510063.17138672,11683123.588562012,19310443.878173828,15868527.41241455,11257623.672485352,8294212.341308594,-11992111.206054688,-65105941.77246094,8800178.527832031,-7143218.517303467,-37873775.482177734,-4347923.755645752,19019851.684570312,21455749.51171875,-30683298.110961914,-54155651.0925293,-64538650.51269531,11942646.980285645,-4053488.7313842773,-18872732.162475586,13780756.950378418,-102899559.0209961,23400939.94140625,7698698.043823242,8945763.58795166,9527764.320373535,27687784.19494629,9408293.724060059,-4982691.764831543,-42898059.8449707,-82273895.26367188,-58421535.49194336,-40931816.10107422,-69088752.74658203,-70592826.84326172,-2163590.1927948,-1382208.5857391357,712765.1572227478,-58116802.21557617,-31990682.60192871,-33637119.29321289,-110701705.93261719,1916515.827178955,1688754.3201446533,13135370.254516602,-29608678.817749023,11570590.019226074
0.34,2689261.6748809814,-28794227.600097656,-24653697.967529297,-18284622.192382812,-4589202.404022217,19585796.356201172,-4660608.768463135,-3224434.1373443604,14293271.0647583,25881973.266601562,4659227.8480529785,-30548002.243041992,41438.46035003662,-33498428.344726562,-15173748.016357422,-22807420.73059082,12386684.41772461,20057838.439941406,17297262.19177246,11787364.00604248,9078747.749328613,-8501846.313476562,-59305973.052978516,10928970.336914062,-5329586.505889893,-37638282.775878906,-4084026.81350708,19863973.61755371,22595310.21118164,-30087663.650512695,-52305664.0625,-58163753.509521484,13783024.787902832,-2723512.649536133,-19547449.111938477,13750222.206115723,-106486061.0961914,23521621.704101562,9213949.203491211,11870969.772338867,13573477.745056152,31812395.095825195,11276563.64440918,-4236430.1681518555,-42555320.739746094,-82907844.54345703,-54625263.21411133,-38767707.82470703,-65480934.143066406,-65237998.962402344,1813474.2975234985,2409928.0834198,5122279.167175293,-56688793.18237305,-27561092.376708984,-29284986.49597168,-109851501.46484375,6434676.170349121,6164345.264434814,19028007.50732422,-25180858.612060547,15787842.750549316
0.345,8799333.572387695,-25437500.0,-22257648.468017578,-12851643.562316895,-750669.9562072754,27453828.811645508,11515247.344970703,1132148.5042572021,16242700.576782227,28502704.620361328,6647984.981536865,-27318002.700805664,3526181.936264038,-24849834.442138672,2660023.6892700195,-14926000.595092773,13486165.046691895,20664598.46496582,18540437.698364258,12980450.630187988,11015428.54309082,3685644.1497802734,-44084697.72338867,17468975.067138672,-1191757.6789855957,-36972023.010253906,-4895513.05770874,19903089.52331543,24163637.161254883,-27911157.608032227,-49580894.470214844,-47106170.654296875,18642705.9173584,208026.09622478485,-21184772.491455078,13401877.403259277,-109050033.56933594,22896295.54748535,11560668.9453125,16475374.221801758,18553636.55090332,42675907.135009766,16442499.160766602,-3235699.415206909,-42320682.525634766,-82338958.74023438,-49186004.638671875,-33231704.711914062,-57149864.196777344,-52654907.2265625,10920510.292053223,11188101.768493652,13419395.446777344,-54223934.173583984,-16761453.628540039,-18507661.819458008,-107964210.5102539,14685519.218444824,14367573.738098145,29225046.157836914,-14391179.084777832,23493356.704711914
0.35,14918107.986450195,-22253553.39050293,-20567060.470581055,-7926601.886749268,1464367.8665161133,34938144.68383789,24463258.743286133,4040862.560272217,17030668.258666992,30003763.19885254,7253487.110137939,-25850002.28881836,4514472.484588623,-18412187.576293945,15626087.188720703,-8435195.922851562,14046795.845031738,20785329.818725586,18717155.45654297,13127171.516418457,11192965.507507324,11905442.237854004,-33215267.181396484,23519954.681396484,2225727.5581359863,-36125411.98730469,-5777136.80267334,19583421.70715332,24556642.532348633,-27638702.392578125,-49256053.92456055,-39757144.927978516,23036876.678466797,2919951.4389038086,-22353628.158569336,13366887.092590332,-109891662.59765625,21855566.024780273,11242405.891418457,17781898.498535156,20972930.908203125,51755668.64013672,21167840.9576416,-2473905.086517334,-42314487.45727539,-80641830.44433594,-46960391.998291016,-30167282.104492188,-51964286.80419922,-43096633.91113281,18038297.653198242,18073329.92553711,19542165.756225586,-52263137.81738281,-8861178.398132324,-10583940.505981445,-100939292.90771484,20743759.155273438,20365535.736083984,35992008.209228516,-6482684.135437012,28231283.18786621
0.355,12728960.037231445,-22577871.322631836,-20245119.094848633,-10519453.048706055,-87884.64218378067,30115118.0267334,13016399.383544922,-27288.7721657753,15288510.3225708,28595470.428466797,5337901.592254639,-28140636.444091797,1888922.095298767,-21455783.84399414,4925804.615020752,-13693890.571594238,12142276.763916016,19664239.88342285,17812770.84350586,11680386.543273926,9241588.592529297,1835189.4617080688,-41605762.48168945,19571769.71435547,-794912.8746986389,-36913280.48706055,-5813271.999359131,19840448.3795166,23505401.611328125,-30409040.451049805,-52232273.10180664,-45524044.036865234,19952140.80810547,1379207.6110839844,-22208438.873291016,13548813.819885254,-110950256.34765625,21972368.240356445,8194933.891296387,13057162.284851074,17441930.770874023,47876136.779785156,19600435.256958008,-2657303.0948638916,-42607753.75366211,-78782974.24316406,-49868198.39477539,-34325004.57763672,-57241420.74584961,-49470127.10571289,14494490.623474121,14485971.450805664,17094793.31970215,-52843555.45043945,-14293129.920959473,-15909295.082092285,-94435348.51074219,18237165.451049805,17879537.58239746,32134700.775146484,-11917029.38079834,23774080.276489258
0.36,5145840.644836426,-24038484.573364258,-18658708.572387695,-17510543.823242188,-1619845.7479476929,16159891.128540039,-13731768.608093262,-7444073.20022583,13299444.198608398,26665300.369262695,3924781.560897827,-30126161.575317383,-235485.82196235657,-29029232.025146484,-21147853.85131836,-26590085.983276367,9142718.315124512,18281469.345092773,17454080.58166504,10609916.687011719,8288585.662841797,-17657854.080200195,-59343132.01904297,8323398.590087891,-8486042.022705078,-39099460.60180664,-5074335.098266602,20954469.680786133,22804321.2890625,-33068084.716796875,-55212833.404541016,-57998008.728027344,10968084.335327148,-3555704.8320770264,-21450628.28063965,13565201.759338379,-112895614.62402344,23627264.02282715,6170598.50692749,7204800.605773926,11260449.409484863,34803920.74584961,13338775.634765625,-3522325.9925842285,-42917015.075683594,-77571388.2446289,-54056095.123291016,-41175277.70996094,-67308151.24511719,-65980949.40185547,3895229.8164367676,3981399.2977142334,9402654.647827148,-55320899.963378906,-27486936.569213867,-28944797.51586914,-97789062.5,10441391.944885254,10222122.192382812,22303344.7265625,-25104461.669921875,14540247.917175293
0.365,3739352.7030944824,-21235460.28137207,-13820218.086242676,-18555295.944213867,1457802.653312683,9572332.382202148,-24203327.178955078,-8914266.586303711,14523522.37701416,28049034.118652344,6119438.171386719,-27231843.948364258,1966919.0645217896,-29086641.311645508,-33502151.489257812,-31620885.848999023,8846188.54522705,18726676.94091797,19063459.396362305,11775156.97479248,10465391.159057617,-23413444.51904297,-62952770.2331543,3005433.3209991455,-12375031.471252441,-39830585.47973633,-4169273.853302002,22240066.528320312,23954620.361328125,-32647144.317626953,-55523193.359375,-61329784.39331055,5866600.036621094,-6270904.064178467,-21347160.33935547,13364019.393920898,-114168945.3125,25009359.35974121,7079380.989074707,6692462.921142578,9368736.267089844,27783952.713012695,10097414.016723633,-4173574.924468994,-42939270.01953125,-77235000.61035156,-54617233.27636719,-42231929.779052734,-69756378.17382812,-73171936.03515625,-1433606.1477661133,-1202353.596687317,5925210.952758789,-57096397.399902344,-32530380.249023438,-33933773.040771484,-109446029.66308594,6850824.356079102,6767730.236053467,17935878.75366211,-30112905.502319336,11120532.989501953
0.37,13216585.159301758,-13541796.684265137,-7828958.988189697,-9821418.762207031,8171628.952026367,19369306.564331055,-3691005.4683685303,-1498763.918876648,18788820.266723633,32751995.086669922,10750572.204589844,-20454322.814941406,7186902.046203613,-17152328.491210938,-17978013.99230957,-21396589.279174805,12425791.74041748,21394601.821899414,21921363.830566406,14313946.723937988,14008357.048034668,-6138120.651245117,-44778839.111328125,9942985.534667969,-7870059.967041016,-37340068.81713867,-3584810.733795166,22864809.036254883,26250703.811645508,-29952760.696411133,-54036537.170410156,-49510154.724121094,10224610.328674316,-3546750.30708313,-22433845.52001953,13071008.682250977,-114373489.37988281,24298624.03869629,9253903.38897705,11801146.507263184,14538211.822509766,34734966.27807617,13939978.59954834,-4209412.097930908,-42577434.53979492,-77046997.0703125,-50817691.802978516,-35338455.20019531,-60450130.462646484,-61321109.771728516,4832821.846008301,5166988.849639893,11108366.012573242,-56152530.670166016,-22180242.53845215,-23708694.458007812,-113593650.8178711,11978964.805603027,11889770.5078125,24032600.40283203,-19749362.94555664,17949756.622314453
0.375,26657758.712768555,-5420274.73449707,-3613567.82913208,2274459.12361145,14238590.240478516,37496845.24536133,31112789.154052734,8767977.714538574,22739465.713500977,37163589.47753906,14344786.643981934,-13987797.737121582,11876907.348632812,186114.19200897217,10627049.446105957,-4132367.1340942383,16984867.095947266,24351037.979125977,24163690.5670166,15926519.393920898,16119239.807128906,21446365.356445312,-18044479.370117188,21879875.18310547,872699.2011070251,-33319335.9375,-3528547.2869873047,22797586.44104004,27945337.295532227,-27398027.420043945,-52108734.130859375,-31295465.46936035,19332534.790039062,1996648.4308242798,-24174903.869628906,12671633.72039795,-115899269.1040039,21966119.76623535,11634835.243225098,18039806.365966797,23429384.231567383,48791313.17138672,21247493.743896484,-3801028.01322937,-41711128.23486328,-75527786.25488281,-45453929.90112305,-25719871.520996094,-46392768.85986328,-39719833.37402344,17621219.635009766,17955291.748046875,20948366.165161133,-52217247.009277344,-3978864.6697998047,-5630484.580993652,-96813903.80859375,21798528.67126465,21577257.15637207,35530052.185058594,-1573015.9282684326,29795108.795166016
0.38,35559276.58081055,-314946.2342262268,-984060.8239173889,10260018.348693848,17927953.720092773,50068206.787109375,55234767.91381836,15391833.305358887,24518659.591674805,38951305.3894043,15673237.800598145,-9718409.538269043,14850597.381591797,13561914.443969727,29782583.236694336,7915682.792663574,19439220.428466797,25807586.669921875,25219997.40600586,15881105.422973633,16579929.35180664,40980907.44018555,1888005.8526992798,29213245.391845703,6960900.783538818,-30706676.483154297,-3915640.8309936523,22759004.592895508,28406881.33239746,-25712148.666381836,-49475566.86401367,-18539438.247680664,25330064.77355957,5916306.018829346,-25489002.227783203,12131822.58605957,-120684326.171875,20052925.10986328,14898966.789245605,22096035.00366211,30586256.02722168,58768627.16674805,26172058.10546875,-3100350.6183624268,-40322078.704833984,-72258178.7109375,-41322082.51953125,-19213073.73046875,-36303676.60522461,-23968946.45690918,27941680.908203125,28232357.025146484,28793655.395507812,-47016189.57519531,9989288.330078125,8441353.797912598,-66746612.548828125,29624460.220336914,29272491.455078125,44419536.59057617,12422979.354858398,38633571.62475586
0.385,37037586.2121582,1322356.5816879272,1201386.9285583496,11843367.576599121,19860239.028930664,49848995.208740234,57150199.89013672,16683444.97680664,25062377.9296875,38918647.76611328,15825473.78540039,-7372168.064117432,16307590.48461914,16991149.90234375,29948587.41760254,9155376.434326172,19295732.498168945,25838569.64111328,25985450.744628906,15339546.203613281,16787403.106689453,42634025.57373047,7831124.305725098,29461015.701293945,7178381.443023682,-30550065.994262695,-4292809.009552002,23275186.53869629,28164966.583251953,-24702121.73461914,-47063758.850097656,-17359987.258911133,25112579.345703125,6249808.311462402,-25545806.884765625,11542379.379272461,-127120986.93847656,19751455.307006836,16915082.931518555,22713375.091552734,31748405.45654297,59378036.49902344,26104713.439941406,-2366894.483566284,-39046005.24902344,-69293540.95458984,-40120136.26098633,-18559400.55847168,-34395317.07763672,-22396865.844726562,29988279.342651367,30335504.53186035,30245351.791381836,-44174732.20825195,12312670.707702637,11014410.018920898,-47460659.02709961,31123476.028442383,30710426.330566406,45631591.796875,14849932.670593262,39589405.05981445
0.39,32836742.401123047,138044.68512535095,2181866.8842315674,8608125.686645508,20033220.291137695,39630363.46435547,42149475.09765625,13789116.859436035,24978076.934814453,38303009.033203125,15539127.349853516,-6782866.477966309,15966936.111450195,11266600.608825684,17049568.17626953,1869500.756263733,17376352.310180664,25189435.958862305,26778528.213500977,15357985.496520996,17209526.06201172,29927505.493164062,967752.2778511047,25457937.240600586,2866771.936416626,-31866039.276123047,-4448414.8025512695,23909479.14123535,27790523.529052734,-24601381.301879883,-47154357.91015625,-25369392.39501953,20874992.37060547,3825449.4667053223,-24771102.905273438,10826903.343200684,-131644653.3203125,20526767.73071289,12960496.90246582,19894014.358520508,26935052.8717041,52866840.36254883,22518579.483032227,-2270114.4218444824,-38734119.4152832,-68669715.88134766,-41883235.931396484,-22769283.294677734,-39299690.24658203,-31334209.442138672,24173761.36779785,24684467.315673828,25526538.848876953,-45886772.15576172,4309636.59286499,3093026.638031006,-51661327.36206055,26550682.067871094,26113384.246826172,39863525.390625,6857911.109924316,33680587.76855469
0.395,27586734.771728516,-1984206.199645996,1666989.2072677612,4298993.110656738,18928190.231323242,29749223.709106445,27138750.076293945,8996952.056884766,23245761.87133789,37001121.520996094,15022897.720336914,-6676424.980163574,15156494.140625,5885826.587677002,6099118.232727051,-6140765.190124512,14352820.39642334,23826471.32873535,26723857.879638672,15875053.405761719,17691204.071044922,18859256.744384766,-7491801.738739014,21231695.1751709,-1824947.1187591553,-33339744.567871094,-5013317.108154297,23717451.095581055,27721851.348876953,-24613246.91772461,-48551574.70703125,-31658735.275268555,16974241.256713867,951304.2569160461,-24805765.15197754,9701972.961425781,-132480026.24511719,21339868.545532227,3451000.690460205,16913017.27294922,22389558.792114258,46669994.35424805,19471752.166748047,-3100273.847579956,-39047443.38989258,-68763954.16259766,-43566982.26928711,-26491138.458251953,-43776317.59643555,-37597511.291503906,17947807.31201172,18516355.514526367,20672128.677368164,-48880924.224853516,-3238614.082336426,-4642013.5498046875,-64494606.018066406,21783594.131469727,21323205.947875977,34566875.45776367,-885439.9919509888,28371246.337890625
0.4,27093158.721923828,-1609386.920928955,2278956.890106201,3703969.955444336,19245618.82019043,30274038.314819336,28683935.165405273,6039077.281951904,19899734.497070312,35090976.71508789,15244992.25616455,-4042743.20602417,17298721.313476562,11808892.250061035,10608035.08758545,-6427872.180938721,11440361.022949219,21713350.296020508,25628683.09020996,16447847.366333008,18766456.604003906,25252664.56604004,-2121343.8510894775,20701416.015625,-2624094.4862365723,-34103683.47167969,-6568749.42779541,22544010.162353516,28475664.138793945,-22428316.116333008,-46171916.96166992,-25059665.67993164,16988801.956176758,133961.34972572327,-26507183.074951172,8299390.79284668,-130681091.30859375,21862022.399902344,-3795852.1842956543,19282585.14404297,25398794.174194336,48168746.94824219,20682888.03100586,-3892698.287963867,-38403640.74707031,-65953643.798828125,-40928833.0078125,-23448831.55822754,-39313304.90112305,-29596763.610839844,20408679.962158203,20761131.286621094,23160896.30126953,-47122959.13696289,1551705.4796218872,-41079.189628362656,-63227756.50024414,24154565.811157227,23686817.169189453,38117229.46166992,3699290.5139923096,31724641.799926758
0.405,33004177.09350586,2639720.678329468,6116698.265075684,8481674.194335938,22732290.267944336,40754009.24682617,46540763.85498047,7705087.184906006,17468664.169311523,33905227.66113281,16888053.89404297,1884845.8528518677,23141252.517700195,28138149.26147461,29453222.274780273,2068543.6725616455,10486022.94921875,20014703.75061035,24991409.301757812,16845350.26550293,20657007.217407227,46250621.7956543,19019706.72607422,25252645.49255371,1221785.6645584106,-33590862.27416992,-8243111.610412598,21431184.768676758,29972040.1763916,-17497396.46911621,-38316207.88574219,-7439483.165740967,21154369.354248047,2252806.4250946045,-28273569.107055664,7417582.5119018555,-128108078.00292969,22301771.16394043,-3157922.9831695557,27749109.268188477,35175785.064697266,57272933.95996094,25953924.17907715,-3265088.7966156006,-35935337.06665039,-60146049.49951172,-33813022.61352539,-13918591.499328613,-25894472.122192383,-10528226.852416992,32035366.05834961,32040679.931640625,33155761.71875,-39652893.06640625,17736656.188964844,16194732.666015625,-46654113.76953125,33975017.54760742,33538032.53173828,49673046.11206055,19944419.860839844,42904052.734375
0.41,39947612.76245117,7534317.0166015625,11006128.311157227,14504209.518432617,26952661.514282227,50136619.567871094,62803314.208984375,12375472.068786621,18037410.736083984,34351097.106933594,18699947.357177734,7456905.841827393,28550462.72277832,41777240.75317383,46334472.65625,11121241.569519043,11939385.414123535,20077083.587646484,26063312.530517578,16933155.059814453,22096290.588378906,61901237.48779297,39283123.01635742,31442104.33959961,6075962.066650391,-31775667.190551758,-8364118.576049805,21387113.571166992,31149257.65991211,-12822054.862976074,-30080789.56604004,7112373.352050781,26033979.415893555,5688052.177429199,-27634256.36291504,7613789.081573486,-125619598.38867188,22687017.4407959,1195882.5588226318,35761356.353759766,43260257.720947266,65711662.29248047,31287425.994873047,-1147866.129875183,-32741539.001464844,-55443195.34301758,-27079618.453979492,-5526873.588562012,-13603689.193725586,4333060.264587402,43048267.36450195,42875251.77001953,42287075.04272461,-32204330.444335938,31304988.861083984,29939262.39013672,-32913455.963134766,43142517.08984375,42787849.42626953,59012928.0090332,33763999.938964844,52252132.415771484
0.415,42504821.77734375,9751096.725463867,13741895.67565918,17284450.53100586,28938028.33557129,51287498.474121094,65838073.73046875,16208179.473876953,20449674.606323242,35566108.70361328,19226242.065429688,9884700.775146484,30519624.710083008,45325546.26464844,49919269.56176758,14113573.07434082,14035188.674926758,21509338.37890625,27878044.12841797,16861330.032348633,22164413.452148438,62274410.247802734,46258899.6887207,35086193.0847168,8757812.5,-29401407.24182129,-6820712.089538574,22055551.528930664,31262651.443481445,-10973724.365234375,-25939687.728881836,11692983.627319336,28737461.09008789,8524695.39642334,-24615129.470825195,8284182.548522949,-123104011.53564453,22738746.643066406,2074800.2529144287,38086074.82910156,45483615.87524414,67744934.08203125,34206516.26586914,1121486.783027649,-30404392.24243164,-54062820.43457031,-24112674.713134766,-3140613.317489624,-9665264.129638672,7893498.420715332,46182956.69555664,46081783.294677734,44627319.3359375,-29174474.716186523,33903759.00268555,32588123.321533203,-31057582.85522461,45688293.45703125,45481075.286865234,60131549.83520508,36463226.318359375,54112644.19555664
0.42,42778953.552246094,10873628.616333008,15176087.379455566,18368608.474731445,30234249.114990234,50265003.2043457,66313903.80859375,18465721.130371094,22105875.01525879,36347591.400146484,19566005.70678711,12100381.851196289,32291877.74658203,47219593.0480957,48601631.16455078,15174438.4765625,15074517.250061035,22571424.48425293,28566476.821899414,17362188.3392334,22378349.30419922,61574733.73413086,49547462.463378906,37049949.645996094,10748048.782348633,-27308017.73071289,-5500336.647033691,22225021.362304688,31131362.915039062,-10131092.071533203,-23221858.978271484,16024942.398071289,30512908.935546875,10981993.675231934,-21951938.62915039,8298667.907714844,-120341529.8461914,22330192.56591797,-130293.41399669647,38217266.08276367,47257041.931152344,67934494.01855469,36804489.13574219,2495904.4456481934,-28984395.98083496,-53006324.768066406,-22455726.623535156,-2345899.3434906006,-8880378.723144531,10404606.819152832,46135768.89038086,46167419.43359375,44328983.306884766,-28144815.44494629,33775974.27368164,32390842.43774414,-30768184.661865234,45442146.30126953,45413986.20605469,59036823.27270508,36183555.603027344,53959095.0012207
0.425,45828796.38671875,14036334.037780762,18191991.806030273,21864028.930664062,34170246.12426758,55109359.74121094,78296768.18847656,21215557.098388672,22414596.557617188,36816761.0168457,21894721.98486328,18140964.50805664,38093929.290771484,57178485.87036133,55911018.37158203,21410093.307495117,15384893.417358398,22462696.075439453,28029800.415039062,18967046.7376709,24718336.10534668,74967582.70263672,63112751.00708008,40936161.041259766,14912899.9710083,-25586158.752441406,-5737619.876861572,21503166.19873047,31981101.989746094,-7024442.195892334,-17494628.90625,29251846.313476562,33945819.85473633,14206601.1428833,-21395614.624023438,7511533.260345459,-117493408.203125,21769199.37133789,411617.9645061493,42100158.69140625,53220153.80859375,73182563.78173828,41404682.15942383,3327260.4942321777,-27342967.987060547,-48998107.91015625,-18637413.024902344,2601710.319519043,-2961396.9326019287,21785118.103027344,50906314.849853516,50981922.1496582,47968513.48876953,-25127311.70654297,41099346.16088867,39739753.72314453,-23187808.990478516,48870235.443115234,48935146.33178711,63197608.947753906,43377223.96850586,58431106.56738281
0.43,50700485.22949219,18009025.57373047,22232484.817504883,26966569.900512695,39710838.317871094,62464820.861816406,95778839.11132812,24519947.052001953,22743593.215942383,37609352.111816406,25686763.763427734,26174390.79284668,45877235.412597656,70554130.55419922,69703674.31640625,30806957.244873047,16033576.965332031,22049114.227294922,27736442.56591797,20871376.037597656,28185567.85583496,94707389.83154297,81682907.10449219,46532581.3293457,20231271.743774414,-23769882.202148438,-6605186.939239502,20644422.53112793,33429782.86743164,-2276602.029800415,-10350901.60369873,44337047.5769043,38457725.524902344,17763715.744018555,-21548131.942749023,6961596.488952637,-114891342.16308594,21507802.963256836,4851450.443267822,48400550.842285156,59066860.19897461,81767509.46044922,46276691.43676758,4611430.644989014,-24792480.46875,-43531223.29711914,-13812644.958496094,9532094.00177002,6600680.351257324,35705028.53393555,59518123.626708984,59600017.54760742,54596965.78979492,-20806577.682495117,52145397.1862793,50951663.970947266,-15234736.442565918,55301460.26611328,55286197.662353516,70362037.6586914,54521659.85107422,65164978.02734375
0.435,52819190.979003906,19474641.799926758,24254941.940307617,29710538.864135742,42738517.76123047,64646659.85107422,104420997.6196289,26185358.04748535,23618751.525878906,38308208.46557617,28076179.50439453,31112075.805664062,50523868.560791016,77646972.65625,79240806.57958984,36336139.67895508,16759344.100952148,22084806.442260742,28075155.25817871,21534320.831298828,29801687.240600586,104894462.58544922,92054092.40722656,50720840.45410156,23568916.32080078,-21758520.126342773,-6720078.945159912,20092882.15637207,33951122.28393555,758784.830570221,-6006825.4470825195,51166774.74975586,41778549.19433594,20317155.838012695,-20593622.2076416,7336545.467376709,-112512382.50732422,21640417.098999023,8593403.816223145,51668731.689453125,60141090.393066406,87368919.3725586,48931484.22241211,6604248.046875,-21546792.98400879,-39802375.79345703,-10625915.52734375,13388132.095336914,13270315.170288086,42315322.87597656,65935150.146484375,66045494.079589844,59610546.11206055,-17483636.8560791,58564594.26879883,57473529.81567383,-14166814.804077148,60364887.23754883,60189990.99731445,75071411.1328125,61107368.46923828,69286758.42285156
0.44,53308422.08862305,19613149.642944336,24430044.174194336,30808322.90649414,42961029.052734375,64337066.650390625,107824760.43701172,26460281.372070312,24020406.72302246,38075992.584228516,28196268.08166504,32792888.641357422,52317638.3972168,81281600.95214844,85844322.20458984,38686714.17236328,16592828.750610352,22020586.013793945,27781621.9329834,20733663.55895996,29027118.682861328,109086608.88671875,98610389.70947266,53538799.28588867,25084291.458129883,-20165372.848510742,-6524050.235748291,19227664.947509766,33284805.297851562,1674883.3656311035,-3219360.3515625,55550819.396972656,44200942.99316406,21903388.97705078,-19539171.21887207,7917831.897735596,-109829521.17919922,21802589.416503906,9688089.370727539,52342292.78564453,61472381.591796875,90204811.0961914,50829338.07373047,8461248.397827148,-18098731.994628906,-37135505.67626953,-7454510.688781738,16088100.43334961,18122303.009033203,47111888.88549805,70531921.38671875,70609436.03515625,63939540.86303711,-13565218.925476074,63952033.99658203,62781326.29394531,-11868197.441101074,64838821.41113281,64624664.306640625,79781486.51123047,66508216.857910156,73689414.97802734
0.445,57480079.650878906,22374454.498291016,26013683.319091797,34800354.00390625,44401443.48144531,70026191.71142578,121206687.9272461,28518287.658691406,23547945.022583008,37402107.23876953,28458009.719848633,35939605.712890625,55998004.91333008,91640754.69970703,99120697.02148438,44652519.22607422,15819664.95513916,21304161.071777344,26447776.794433594,20177713.39416504,28736787.796020508,122820724.48730469,115936065.67382812,57397464.752197266,27383657.455444336,-19663549.423217773,-7308404.445648193,17655645.3704834,33014793.395996094,3749418.020248413,2582756.996154785,69370208.74023438,47306076.04980469,23285768.508911133,-20675106.048583984,7546167.373657227,-106423370.36132812,21656681.060791016,11651716.232299805,55810455.322265625,69728950.50048828,95249389.6484375,54351970.67260742,9014293.670654297,-15173996.925354004,-32641571.044921875,-1161867.0225143433,23128036.499023438,27220027.923583984,61484008.7890625,77989341.73583984,77911590.57617188,71131500.24414062,-6598604.202270508,76795776.3671875,75533706.66503906,1903379.4403076172,72009574.89013672,71917373.65722656,89376419.06738281,79294601.44042969,83210380.55419922
0.45,63902683.25805664,26379495.62072754,28973031.997680664,40949947.357177734,48246559.143066406,79280097.96142578,142119506.8359375,32896827.697753906,23333168.029785156,37693271.63696289,30608566.284179688,41975360.87036133,61983478.54614258,106989120.48339844,115431457.51953125,53681064.60571289,15715729.713439941,20721324.920654297,25712717.056274414,21453702.926635742,31080499.64904785,143864776.61132812,139822998.046875,60764854.431152344,30069862.365722656,-20107572.555541992,-8731716.15600586,16383266.44897461,34304435.72998047,8622495.651245117,10510588.645935059,87636810.30273438,49488952.63671875,23838897.705078125,-23543191.90979004,6285896.301269531,-102572631.8359375,21407102.584838867,16670740.127563477,62249347.68676758,79861137.39013672,101181007.3852539,57272945.404052734,7965394.020080566,-13694573.402404785,-27064420.700073242,5966198.921203613,32607833.862304688,38595043.18237305,80140159.6069336,86136589.05029297,85914321.89941406,78008758.54492188,572873.8307952881,91807075.50048828,90666931.15234375,19789072.036743164,78720504.76074219,78728630.06591797,98786514.28222656,94380920.41015625,92641937.25585938
0.455,63945064.544677734,25222370.147705078,28773296.356201172,42251468.658447266,50191936.49291992,80119041.4428711,149910430.90820312,35519138.33618164,23984132.766723633,38932697.29614258,32893100.73852539,46472557.067871094,65089744.567871094,113949447.63183594,119244712.82958984,56969425.201416016,16503477.096557617,21212221.145629883,26684446.334838867,23927474.975585938,34481990.814208984,152317001.34277344,148702728.27148438,59305076.599121094,30132692.337036133,-20320596.69494629,-9022841.453552246,16592454.91027832,36170490.26489258,13698726.654052734,14683958.053588867,93091217.04101562,47611663.818359375,22758073.806762695,-24727664.947509766,5507635.593414307,-98886520.38574219,21645761.489868164,21684371.948242188,65413169.860839844,80715087.890625,100989753.72314453,55731853.48510742,6639660.835266113,-13481115.341186523,-24213800.43029785,8014979.362487793,36620346.06933594,43152538.29956055,85856643.67675781,87461372.37548828,87276634.2163086,77597312.9272461,2832340.955734253,94500915.52734375,93659088.13476562,25607980.728149414,78179489.13574219,78123497.00927734,97894569.39697266,97214645.38574219,91830245.97167969
0.46,55059932.708740234,17718639.373779297,23630598.068237305,36129993.4387207,47185302.734375,70247467.04101562,137319534.3017578,33523738.861083984,24175825.119018555,39161041.259765625,32752033.233642578,46274353.02734375,63117080.68847656,107806266.78466797,108186904.90722656,51816944.12231445,16967094.42138672,22012735.36682129,27658737.182617188,25458778.381347656,36047164.91699219,141588973.99902344,136347732.5439453,54059204.1015625,27903625.48828125,-18996835.708618164,-7577198.028564453,17699441.90979004,36758831.02416992,16113922.119140625,13807757.377624512,82734085.08300781,43133457.18383789,21742641.44897461,-22051532.745361328,6232693.672180176,-95594459.5336914,22606321.334838867,23586513.51928711,62852333.068847656,72401100.1586914,94224006.65283203,51630481.7199707,7157800.197601318,-12520422.93548584,-24498180.389404297,4313905.239105225,33640148.1628418,39261631.01196289,76050239.56298828,81994415.28320312,81986038.20800781,71038650.51269531,1030277.9674530029,83932601.92871094,83313491.82128906,18323467.254638672,71536231.9946289,71365669.25048828,87877784.7290039,86582275.390625,81801284.79003906
0.465,46841384.88769531,11709144.592285156,18552612.3046875,30086282.73010254,42797653.19824219,62854816.43676758,123845046.99707031,30196451.18713379,22634384.155273438,37087348.93798828,30675628.662109375,44483913.42163086,60862190.24658203,100476409.91210938,100207336.42578125,47654926.30004883,16437690.734863281,21445644.37866211,26236154.556274414,24977291.107177734,35416736.6027832,130112503.05175781,123632225.0366211,52264587.40234375,28037830.352783203,-16010232.925415039,-5916560.173034668,17841072.08251953,35684982.29980469,16574584.9609375,13762888.90838623,73799072.265625,42033172.607421875,23668039.321899414,-17312473.29711914,7869902.13394165,-92484367.37060547,23689367.294311523,23978385.92529297,60375652.31323242,67427886.96289062,90103004.4555664,51562438.96484375,10273450.85144043,-8963068.962097168,-23310350.41809082,1357360.1245880127,31551397.3236084,36680728.912353516,68486801.14746094,79550216.67480469,79649490.35644531,68240303.03955078,1614952.564239502,76479972.83935547,75849739.07470703,13155313.491821289,68593612.67089844,68460411.07177734,81978790.28320312,78829208.37402344,75588447.57080078
0.47,48096271.51489258,13273627.281188965,18278205.87158203,31677600.860595703,42097496.032714844,67975044.25048828,128354019.16503906,30670429.229736328,20324615.478515625,34019157.40966797,29230323.791503906,45454170.22705078,62687908.17260742,103403823.85253906,108503639.2211914,52828174.59106445,15788091.659545898,19369239.807128906,22894546.508789062,23524486.541748047,34585716.247558594,134933944.70214844,129264801.02539062,57375526.428222656,32791858.673095703,-12752774.238586426,-5681107.044219971,16360822.677612305,34253826.14135742,17509504.318237305,18608135.223388672,79171936.03515625,46869415.283203125,28218074.798583984,-14016412.734985352,8894897.4609375,-89306327.81982422,23999195.098876953,25838590.621948242,63247932.43408203,72815628.05175781,94999626.15966797,57470676.42211914,14175021.171569824,-3770178.0796051025,-17431543.350219727,4234548.091888428,36080703.73535156,42609123.22998047,76222053.52783203,86040893.5546875,86080879.21142578,74356719.97070312,7391566.276550293,83109565.73486328,82322654.7241211,19209821.701049805,74583900.45166016,74616897.58300781,87569778.44238281,85225463.8671875,80738731.38427734
0.475,53956508.63647461,17362508.77380371,19787809.371948242,37456497.19238281,43997230.529785156,78090904.23583984,143401611.328125,34493946.07543945,19044824.600219727,32059703.826904297,29156023.025512695,48343173.98071289,65855171.20361328,112479705.81054688,123254264.83154297,62675964.35546875,15806825.637817383,17420818.328857422,20426391.6015625,22631565.09399414,34715930.9387207,149071594.23828125,145086166.38183594,63736389.16015625,38219638.82446289,-10818650.245666504,-6706234.931945801,14658671.379089355,33615730.28564453,19321592.330932617,24642866.134643555,91102722.16796875,52837188.720703125,31595935.821533203,-13463765.144348145,8597537.04071045,-85723121.6430664,23371301.651000977,28665075.302124023,68534584.04541016,81059822.08251953,103680686.9506836,63476634.97924805,16238323.211669922,171570.83749771118,-9603832.244873047,10547366.14227295,43157726.2878418,52062541.96166992,90954742.43164062,95306388.85498047,95225677.49023438,82832397.4609375,13895503.997802734,95356773.37646484,94455741.88232422,29262599.94506836,83142936.70654297,83240562.43896484,96821640.01464844,97538574.21875,89956581.11572266
0.48,53195018.76831055,15237733.840942383,16914459.228515625,38057647.705078125,43056480.407714844,79610282.89794922,148318466.18652344,36206558.22753906,18613721.84753418,31188083.64868164,28592887.87841797,49002597.80883789,64969665.52734375,115676033.02001953,127517349.24316406,66720153.80859375,15775899.887084961,16683082.580566406,20024385.452270508,22414728.16467285,34806320.19042969,154347839.35546875,150800643.92089844,64476745.60546875,39481155.39550781,-10319466.590881348,-7500188.827514648,14157407.760620117,33463428.497314453,20432792.66357422,26352016.44897461,95442276.00097656,53990631.103515625,31460973.739624023,-13944228.172302246,7804737.091064453,-81196456.90917969,22584745.407104492,29966070.1751709,70040512.08496094,82348510.7421875,107014945.98388672,63910617.82836914,15958067.893981934,1689863.8010025024,-4550134.181976318,14919510.841369629,46000701.904296875,56279205.322265625,97566764.83154297,98434623.71826172,98312011.71875,85076278.68652344,16403177.261352539,99408126.83105469,98526168.82324219,33810264.587402344,85629226.68457031,85573509.2163086,98882072.44873047,101802658.08105469,92576835.63232422
0.485,44788627.62451172,7772952.079772949,10269718.170166016,31938152.313232422,37751338.958740234,71823898.31542969,138351043.70117188,33223579.40673828,17429899.215698242,29695787.42980957,26244407.653808594,46333190.91796875,59962459.564208984,109200691.22314453,120894729.61425781,63104976.654052734,14804761.88659668,16497953.414916992,20027280.807495117,21842767.7154541,33539146.423339844,146204376.22070312,141930496.2158203,60423789.978027344,37204681.396484375,-9864486.694335938,-6973430.156707764,14400874.137878418,32713253.021240234,20026054.38232422,24041191.10107422,90901573.18115234,50606079.1015625,29844125.747680664,-13240643.501281738,7744074.34463501,-75683998.10791016,22347389.221191406,29442680.35888672,66918304.443359375,77566726.68457031,103510871.88720703,60347175.59814453,15248763.084411621,2454232.4542999268,-2906177.043914795,15954397.201538086,44314758.30078125,54399364.47143555,94332405.09033203,95259338.37890625,95184310.91308594,81289230.34667969,16008745.193481445,94286064.14794922,93532272.33886719,33798999.78637695,81943443.29833984,81667213.4399414,93677024.8413086,96732215.88134766,88036285.40039062
0.49,39053424.83520508,3866566.6580200195,6429141.044616699,27466798.782348633,32674507.14111328,66769645.69091797,129713699.34082031,29970699.310302734,15607254.981994629,27327030.181884766,23588796.615600586,43697635.650634766,55779067.99316406,100858428.95507812,117979797.36328125,60352729.79736328,13817483.901977539,16025072.09777832,18941259.384155273,20558986.66381836,31363582.611083984,137226181.03027344,133151550.29296875,58039112.09106445,36300479.888916016,-8296006.202697754,-5488746.643066406,13887256.622314453,31114631.65283203,19275205.612182617,22486852.645874023,87386627.19726562,48247291.564941406,30176460.26611328,-11200180.053710938,8409945.487976074,-70189270.01953125,22259401.321411133,29084283.82873535,63769378.662109375,74512519.83642578,99690780.63964844,58435985.56518555,15707046.508789062,4147028.4461975098,-1507503.1518936157,16304275.512695312,43014377.59399414,52713222.50366211,91809829.71191406,92823684.69238281,92774818.42041016,78365158.08105469,16811492.919921875,90128784.1796875,89575378.41796875,35506343.841552734,78848358.15429688,78481857.29980469,89465156.55517578,92430404.66308594,84130912.78076172
0.495,42550170.8984375,6551852.226257324,7439423.084259033,30903293.60961914,31943574.905395508,73163871.76513672,138559051.51367188,32370166.778564453,15256179.809570312,26038024.90234375,23045698.165893555,44555404.66308594,55839378.356933594,100348190.30761719,128816146.85058594,66358016.96777344,14614179.611206055,15586409.568786621,17620059.967041016,19581581.115722656,30189764.02282715,141214202.88085938,139320220.94726562,61488288.87939453,39934967.041015625,-5985984.802246094,-4547108.173370361,12172234.535217285,29737380.981445312,20149576.18713379,24811594.009399414,92338363.64746094,51133625.03051758,33273101.806640625,-9726078.033447266,8518891.334533691,-65786407.470703125,21297981.26220703,30379961.013793945,64626670.837402344,77047714.23339844,101990051.26953125,60801788.330078125,16740001.678466797,6333765.029907227,1922171.5927124023,18461238.861083984,45566860.19897461,56586631.774902344,98755218.50585938,96415596.00830078,96259384.15527344,81072654.7241211,20644485.473632812,94904769.89746094,94606552.12402344,41237438.2019043,81343955.99365234,81022789.00146484,92082534.79003906,97125350.95214844,86951057.43408203
0.5,50017570.49560547,9403980.255126953,8212752.342224121,38574832.916259766,34388267.517089844,87161445.61767578,162867843.6279297,40075405.12084961,17126861.572265625,27076616.287231445,25001968.383789062,49032649.993896484,59337936.40136719,110073326.11083984,149180877.68554688,79766609.19189453,17059436.798095703,15657186.508178711,17406003.952026367,19974061.965942383,31366659.16442871,159754119.87304688,160809844.97070312,69510803.22265625,46627502.44140625,-4058269.500732422,-5331875.801086426,10274878.50189209,29693153.381347656,23639322.28088379,30574087.142944336,104938796.99707031,58227958.67919922,37434837.341308594,-10318754.196166992,7266065.59753418,-62265785.217285156,19391105.65185547,33321739.196777344,69686157.2265625,83062576.29394531,110876945.49560547,65588668.82324219,17107009.887695312,8104433.059692383,6756808.280944824,22857345.581054688,51644485.47363281,66358947.75390625,114839981.07910156,105424972.53417969,105048179.62646484,88514625.5493164,26743432.998657227,108010772.70507812,107956893.92089844,49510402.67944336,88789199.82910156,88524185.18066406,100681549.07226562,110365058.89892578,96084220.88623047
0.505,53685127.25830078,8342568.397521973,5965476.036071777,43471443.17626953,36650417.32788086,98525199.89013672,185693893.4326172,46729755.40161133,19011259.078979492,28841720.581054688,27488121.032714844,54493186.950683594,63684707.64160156,123480926.51367188,167560836.7919922,92236907.95898438,18826715.46936035,15660730.361938477,17683654.78515625,21305519.104003906,34115489.9597168,181339385.98632812,184665084.8388672,77862442.01660156,52532535.552978516,-2668576.717376709,-7189304.828643799,9203481.674194336,30578378.677368164,28632017.135620117,37542381.286621094,119085319.51904297,65009178.161621094,41031288.146972656,-11846213.340759277,5694727.897644043,-58527801.513671875,17843473.434448242,37056015.01464844,76139053.34472656,89149261.47460938,121029815.67382812,69977973.93798828,17275897.979736328,10175152.778625488,11378244.400024414,28429927.825927734,58677211.76147461,77989761.35253906,132567245.48339844,115351623.53515625,114828269.9584961,96563888.54980469,33781974.79248047,122593322.75390625,122641212.4633789,58373397.82714844,96994102.47802734,96746192.9321289,110389610.29052734,125095298.76708984,106226150.51269531
