time,Fp1,Fpz,Fp2,AF3,AF4,F7,F5,F3,F1,Fz,F2,F4,F6,F8,FT7,FC5,FC3,FC1,FCz,FC2,FC4,FC6,FT8,T7,C5,C3,C1,Cz,C2,C4,C6,T8,TP7,CP5,CP3,CP1,CPz,CP2,CP4,CP6,TP8,P7,P5,P3,P1,Pz,P2,P4,P6,P8,PO7,PO5,PO3,POz,PO4,PO6,PO8,CB1,O1,Oz,O2,CB2
0.0,-1674454.927444458,-1422721.8627929688,-675797.9989051819,122392.56501197815,-1366566.6580200195,-630947.9475021362,24326.128885149956,152479.3952703476,-1783984.0650558472,-967786.2524986267,-509527.8024673462,345148.38457107544,255234.92693901062,906764.1496658325,-318682.0149421692,159774.7504711151,237617.89500713348,-887920.618057251,-922938.2872581482,451280.9216976166,1112685.203552246,1030862.2121810913,711068.0937767029,119394.86861228943,-556741.9528961182,-164176.43427848816,-1042144.5369720459,-284358.5014343262,1060422.420501709,923144.4597244263,1365907.3114395142,561755.7168006897,-1318422.0790863037,-781850.6956100464,-518896.34132385254,398439.55636024475,-53334.58632230759,559865.6535148621,433987.73670196533,698313.4746551514,1115616.9176101685,831776.7977714539,529928.3266067505,172812.8343820572,843601.5844345093,1216777.5630950928,359388.2620334625,1450326.4427185059,1163150.668144226,1230419.1589355469,-28889.838606119156,20660.055801272392,-1113324.2845535278,1488978.9819717407,323327.1539211273,1148383.617401123,974774.181842804,1152671.217918396,707624.9122619629,555042.028427124,1816009.759902954,317979.4251918793
0.005,-20149976.73034668,-22342941.284179688,-17705905.91430664,-14483914.375305176,-22285184.860229492,-13004279.136657715,-5328268.527984619,-4270860.67199707,-13104112.62512207,-12098272.323608398,-12769905.090332031,-11018099.784851074,-8211640.357971191,-522551.2385368347,-1879724.9794006348,-4470107.555389404,-6695175.1708984375,-8107023.239135742,-7726490.497589111,-3620257.616043091,-1386694.6697235107,-3669322.729110718,-4609671.115875244,-4832320.213317871,-13190438.270568848,-10229256.629943848,-8703166.007995605,-3341102.361679077,2813017.6067352295,4435093.879699707,3332935.571670532,-7564505.100250244,-7646151.065826416,-16785371.780395508,-12919142.723083496,-5766119.480133057,-1607962.3699188232,5386374.950408936,5824179.649353027,6243124.961853027,-3119302.749633789,1044794.6786880493,-3990208.625793457,-12183611.869812012,-854662.1799468994,5673263.072967529,5603766.918182373,9735100.746154785,13188016.891479492,11844693.183898926,-1471890.0918960571,-1281818.151473999,-6305438.51852417,4314246.654510498,10159323.692321777,11518325.805664062,9378649.711608887,8623921.394348145,-1593322.8731155396,-1413840.7707214355,9563425.064086914,-4344903.469085693
0.01,-24132875.442504883,-26406204.223632812,-21389709.47265625,-15384167.671203613,-28197570.80078125,-12270071.029663086,-2978931.427001953,-1470547.5568771362,-13791646.003723145,-15677960.395812988,-17061492.919921875,-14074602.127075195,-10340356.826782227,-1401672.36328125,2536332.130432129,-2200361.490249634,-6936202.526092529,-9518877.983093262,-9913587.57019043,-5551852.226257324,-1299135.684967041,-4515524.864196777,-6231308.937072754,-2135595.7984924316,-13552007.675170898,-12032402.038574219,-10265753.746032715,-4538885.593414307,2702132.225036621,6003034.1148376465,4687235.8322143555,-9761575.698852539,-5850790.023803711,-18698202.13317871,-14494037.628173828,-6658165.454864502,-2051211.8339538574,6659485.340118408,8082700.729370117,8727798.461914062,-3454879.7607421875,5546156.406402588,-881057.2624206543,-13922217.36907959,370120.4061508179,7231503.009796143,6669112.682342529,12016435.623168945,17815738.677978516,17364315.032958984,2790887.5942230225,2877561.8076324463,-4045118.808746338,5324608.325958252,14486705.780029297,16538105.010986328,13800732.612609863,14814207.077026367,1467982.6498031616,1268789.291381836,14304077.1484375,-4912515.640258789
0.015,-18403549.194335938,-18322463.989257812,-14751048.08807373,-7002768.516540527,-21602876.663208008,-5558093.070983887,2891820.9075927734,4304066.181182861,-6889990.80657959,-11955205.917358398,-13569128.99017334,-9629323.959350586,-6970689.77355957,-1600496.0536956787,6995524.4064331055,2651449.680328369,-2475018.9781188965,-5653097.629547119,-7354717.254638672,-4604254.722595215,1105083.3463668823,-2482462.167739868,-5116534.233093262,2683243.5131073,-6808878.421783447,-7745886.325836182,-6686605.930328369,-3809145.68901062,1417763.9484405518,5195086.479187012,4439671.993255615,-8012887.001037598,-1722468.4953689575,-12272608.757019043,-8948711.395263672,-4053965.0917053223,-1599311.7094039917,4718379.497528076,6738977.909088135,7264348.983764648,-2023043.6325073242,9559568.405151367,4704284.191131592,-9258409.50012207,2428393.840789795,5275217.056274414,3593250.036239624,7981385.231018066,14044742.584228516,16164728.164672852,7613205.432891846,7485743.999481201,-50717.60714054108,3088517.427444458,11488718.98651123,14234558.10546875,12046088.218688965,16625543.594360352,5418196.678161621,4133051.872253418,13155401.229858398,-3620533.227920532
0.02,-18346679.6875,-15508423.805236816,-11027853.965759277,-4452804.5654296875,-16832593.91784668,-8698183.059692383,2201603.412628174,3240689.992904663,-4065881.2522888184,-7741871.8338012695,-9325892.448425293,-5498669.147491455,-4159510.612487793,-1079474.0915298462,2135344.7437286377,1123050.2128601074,-829602.5395393372,-2269397.258758545,-4264607.4295043945,-2442262.4111175537,2995085.9546661377,-1314291.000366211,-4425030.708312988,-430994.8980808258,-6690801.620483398,-5934038.6390686035,-3888687.1337890625,-2755695.8198547363,762093.186378479,3334949.9702453613,2765887.73727417,-7743717.193603516,-5609644.412994385,-12526448.249816895,-7568790.435791016,-3387160.062789917,-1255195.0216293335,2931452.2743225098,4380859.375,4375827.789306641,-2566012.6209259033,6741899.490356445,3126656.7707061768,-9383403.778076172,1947539.210319519,2372468.7099456787,718916.4757728577,3069964.88571167,7994525.43258667,11825465.202331543,5029725.551605225,4887904.167175293,-3652822.732925415,-730856.2397956848,5730830.192565918,8719518.661499023,6950299.7398376465,13382816.314697266,3141990.6616210938,1080252.4089813232,7959447.860717773,-4699189.66293335
0.025,-26672721.86279297,-22781665.802001953,-14869587.898254395,-11793518.06640625,-20474256.51550293,-20941297.53112793,-5787441.730499268,-5116941.452026367,-9396595.95489502,-7941715.717315674,-9493310.928344727,-6469737.529754639,-5381996.631622314,119361.84018850327,-8775472.640991211,-6151567.459106445,-4757596.492767334,-3391541.2425994873,-4440372.467041016,-1777500.033378601,2307475.5668640137,-2134061.813354492,-4558408.737182617,-9321098.327636719,-14770458.221435547,-9677976.608276367,-5185503.005981445,-2851065.3972625732,914932.7874183655,2307557.8212738037,1831180.0956726074,-9044687.271118164,-14963597.297668457,-20614826.202392578,-12672369.956970215,-5822168.827056885,-1401176.2142181396,3530145.4067230225,4170552.7305603027,4073955.535888672,-3576317.071914673,735414.1473770142,-4036320.209503174,-15312585.830688477,214155.31635284424,2088785.171508789,2077958.106994629,2617851.972579956,6722531.795501709,10228235.244750977,-2048542.0227050781,-1973739.3856048584,-11623478.889465332,-1298442.3637390137,4903674.602508545,7437865.257263184,5357572.555541992,9922577.857971191,-2878648.042678833,-4319597.7210998535,6219094.753265381,-6899908.065795898
0.03,-29738513.946533203,-27210250.854492188,-17720352.172851562,-16975145.33996582,-25070722.579956055,-25068195.343017578,-10316962.242126465,-9831667.90008545,-14732349.395751953,-10472153.663635254,-12174722.671508789,-9350876.808166504,-8246683.120727539,1306970.1194763184,-12177256.58416748,-9012708.66394043,-8967658.042907715,-7055875.778198242,-7207184.314727783,-3132442.2359466553,315273.7021446228,-2651933.431625366,-3674475.66986084,-11828880.310058594,-19362409.591674805,-13716279.029846191,-8470836.639404297,-3995226.8600463867,875267.0288085938,2970503.807067871,3377425.4322052,-7935684.680938721,-17509843.826293945,-24273418.426513672,-16543880.462646484,-7819775.104522705,-1613093.8529968262,5484919.548034668,6647680.759429932,7439550.399780273,-1143728.256225586,570164.0844345093,-6424777.984619141,-18192794.799804688,910358.190536499,4985826.49230957,6729303.359985352,6291225.910186768,10953620.910644531,13345227.241516113,-3558520.555496216,-3306293.249130249,-12976429.93927002,3580103.635787964,10977334.022521973,12896329.879760742,10336257.934570312,10907256.126403809,-3950767.0402526855,-3880119.562149048,12277952.194213867,-5655583.85848999
0.035,-17602699.279785156,-18264942.169189453,-11902468.68133545,-9355389.595031738,-22040428.161621094,-12214820.861816406,-3326788.902282715,-2715724.229812622,-11902363.777160645,-10410424.23248291,-12483658.790588379,-8665689.468383789,-8719912.5289917,1456193.5663223267,-2453684.091567993,-1955598.7119674683,-7500936.985015869,-8422939.30053711,-8826976.776123047,-4146014.69039917,-37708.65499973297,-1295926.2132644653,-1861251.2350082397,-3431198.1201171875,-13640843.391418457,-12748538.970947266,-10167237.281799316,-4877211.093902588,613549.0536689758,4412480.83114624,5976656.913757324,-4475653.171539307,-10069283.485412598,-18415821.075439453,-14641362.190246582,-7297525.882720947,-1603503.3464431763,6452721.59576416,9180513.381958008,10919379.234313965,3332077.980041504,6841734.409332275,-940746.9630241394,-14351428.985595703,3550590.0382995605,7641976.356506348,9727297.78289795,9174955.368041992,14853831.29119873,16843120.574951172,2367888.6890411377,2582358.3602905273,-6704856.395721436,9301793.098449707,16822328.567504883,18855886.459350586,16256929.397583008,14065350.532531738,1291486.382484436,1775340.9147262573,20005281.448364258,-1172839.1647338867
0.04,1623313.9038085938,-2953350.782394409,-1521531.343460083,5677142.62008667,-13742238.998413086,5902569.770812988,9903638.83972168,10939875.602722168,-3867516.7560577393,-7230475.902557373,-9648402.214050293,-4402863.502502441,-6270092.964172363,584459.5432281494,10747372.6272583,8644589.4241333,-1171391.7255401611,-5835243.701934814,-7554436.683654785,-3103884.220123291,1879235.029220581,505867.71965026855,-1452980.399131775,6855583.667755127,-4526308.059692383,-7879624.843597412,-9350809.097290039,-4585612.773895264,878307.8193664551,4873469.829559326,6562628.746032715,-3414038.896560669,-3059277.296066284,-11967434.883117676,-11125027.656555176,-5922114.849090576,-1583174.3478775024,5706408.0238342285,9125281.33392334,10684500.694274902,4482576.370239258,11313806.533813477,4568302.631378174,-10044366.836547852,4234856.128692627,6992609.50088501,8235616.683959961,8440184.593200684,13830162.048339844,16034440.994262695,7249954.700469971,7331002.712249756,-3010881.6623687744,10006177.90222168,15457542.419433594,18492004.39453125,16104425.430297852,14131707.191467285,5348273.754119873,4255528.450012207,20523588.180541992,1436602.234840393
0.045,12216222.763061523,4167339.80178833,4326778.411865234,14350681.30493164,-9129173.278808594,13602126.121520996,17852840.423583984,19343742.37060547,177919.26860809326,-5116870.403289795,-7517768.859863281,-1506603.0025482178,-3928638.696670532,-311913.99693489075,15982718.467712402,13678219.79522705,4225193.977355957,-2256379.8427581787,-5596817.0166015625,-1573970.1986312866,3497594.8333740234,670763.1945610046,-3439042.806625366,9937870.025634766,-1187788.3672714233,-3670346.49848938,-7564086.437225342,-3592956.066131592,1363997.3402023315,3642081.0222625732,4536189.079284668,-6616525.173187256,-4348972.797393799,-12503070.831298828,-10432017.32635498,-5250877.857208252,-1690039.7539138794,4537113.666534424,7106448.650360107,7795217.037200928,1612309.217453003,9989402.770996094,4342092.037200928,-10300993.919372559,2556347.370147705,4557974.338531494,5089430.809020996,6941088.676452637,10629469.871520996,12781418.800354004,5788968.086242676,5839932.918548584,-6719846.725463867,6929182.052612305,10304781.913757324,14384555.81665039,11968721.389770508,11633805.274963379,3884706.735610962,1170383.9302062988,15410532.95135498,72199.9853849411
0.05,9449537.27722168,-543473.1245040894,3948618.173599243,11767083.168029785,-11785804.748535156,10075055.122375488,16605085.372924805,18256175.994873047,-2633367.3000335693,-6485890.865325928,-8546651.840209961,-2826273.9181518555,-4621180.534362793,-1350935.8167648315,13446028.709411621,12156816.482543945,5132670.879364014,-1008022.5467681885,-5505898.475646973,-1801555.2759170532,2635757.2078704834,-916136.2051963806,-6418057.441711426,7562936.782836914,-3255013.2274627686,-2394336.223602295,-6496455.669403076,-3045370.101928711,1052463.6507034302,1953741.9080734253,2453071.355819702,-10261618.614196777,-8686806.678771973,-15717164.039611816,-10945847.511291504,-4460757.255554199,-1716299.057006836,4359833.240509033,6129168.0335998535,6733879.566192627,-62354.26291823387,7966612.339019775,2439030.408859253,-11796553.611755371,2652906.1794281006,4300110.816955566,4818273.544311523,8817455.291748047,11307947.158813477,13110171.3180542,2809347.629547119,2962802.8869628906,-10521448.135375977,6610533.714294434,10661084.175109863,15089859.008789062,12432942.390441895,11979655.265808105,1370115.7569885254,-572492.0630455017,14651088.71459961,-1654164.9103164673
0.055,1892961.2636566162,-7885130.882263184,3297937.3931884766,5429465.770721436,-16861873.626708984,5219971.656799316,11988088.607788086,13490544.319152832,-6238188.26675415,-8393662.452697754,-10231633.186340332,-5698308.46786499,-8340831.756591797,-4121311.1877441406,10458744.049072266,9341532.707214355,3220304.7275543213,-1819063.5442733765,-6389801.979064941,-2906380.6533813477,483128.04102897644,-2986367.94090271,-9121641.159057617,5962246.894836426,-5007518.768310547,-3191590.5475616455,-6591548.442840576,-3238377.332687378,248770.46048641205,1613420.009613037,2300929.546356201,-10975410.461425781,-8133868.217468262,-15050741.195678711,-9880612.37335205,-3008980.9894561768,-1575515.5086517334,5137100.696563721,7427971.363067627,8989397.048950195,2032881.736755371,9287595.748901367,4046327.590942383,-10296611.785888672,6081295.967102051,6631911.277770996,7349730.968475342,13068411.827087402,16187545.776367188,18084487.915039062,3794874.668121338,4074452.4002075195,-7969316.005706787,10619370.460510254,17530405.044555664,21878391.26586914,19209976.196289062,15958253.860473633,2337913.751602173,2751658.6780548096,20830020.904541016,-1014637.9470825195
0.06,-1657187.2234344482,-9507263.18359375,6169947.147369385,3321148.633956909,-18547998.428344727,3911503.553390503,9849514.961242676,11191619.873046875,-5015079.021453857,-7011373.996734619,-8990583.419799805,-6249259.471893311,-12423582.077026367,-8719577.78930664,9507527.351379395,8148860.931396484,1855847.8355407715,-2034468.650817871,-5499506.47354126,-2239795.446395874,-306211.6801738739,-4678363.32321167,-11465634.3460083,5625086.784362793,-5061927.795410156,-4491996.288299561,-6909654.140472412,-3242153.6445617676,362373.4712600708,2773576.498031616,2914435.863494873,-10333681.106567383,-4782112.598419189,-12626002.311706543,-8590920.448303223,-2343362.808227539,-1533030.390739441,5681502.819061279,8761198.997497559,10913087.844848633,3621220.588684082,10104563.71307373,6731969.356536865,-8169004.440307617,8483837.127685547,7485751.628875732,8291316.032409668,14387001.037597656,18721912.384033203,21392887.115478516,6133805.274963379,6468360.900878906,-3563610.315322876,12593410.49194336,21219570.15991211,25634460.44921875,23335893.630981445,17498661.041259766,4000925.064086914,4962154.388427734,24170537.9486084,-663299.1433143616
0.065,-1046078.8011550903,-6946663.856506348,9947954.177856445,4747537.136077881,-16796504.974365234,3038164.1387939453,9715226.173400879,11092326.164245605,-1246829.0328979492,-3562000.7514953613,-5631924.629211426,-4519032.955169678,-14090600.967407227,-11953917.503356934,7631665.7066345215,7425542.35458374,2036031.0077667236,-762278.2588005066,-2789714.574813843,147514.4624710083,686976.4924049377,-5567238.807678223,-12819978.713989258,3547470.3311920166,-5954649.925231934,-5129959.583282471,-6217406.749725342,-2336470.603942871,1554790.2584075928,3822587.013244629,2276458.0249786377,-11017685.890197754,-5544056.8923950195,-13710905.075073242,-9294474.601745605,-3305428.5049438477,-1762536.7641448975,5163673.877716064,7803959.369659424,9172898.292541504,876782.9537391663,6604243.278503418,5906715.393066406,-9420393.943786621,6267092.704772949,4498075.96206665,5496447.0863342285,10509716.033935547,14562388.42010498,18143587.112426758,4966456.890106201,5273126.125335693,-4337048.530578613,8072711.944580078,15483782.768249512,20072242.736816406,18149330.139160156,13154706.001281738,2058005.5713653564,511295.6166267395,17689279.556274414,-3497954.3685913086
0.07,-758025.050163269,-6437140.941619873,11287255.28717041,4539752.960205078,-15907121.658325195,737471.342086792,8752810.47821045,10240763.664245605,-1254238.0094528198,-3019729.1374206543,-4461985.5880737305,-3512548.9234924316,-13090142.250061035,-10751357.078552246,4670594.692230225,6697906.970977783,2438376.4266967773,-132328.68909835815,-1533184.52835083,1230997.085571289,1595177.173614502,-5101776.123046875,-12003973.007202148,1229433.0596923828,-7749734.401702881,-4461596.488952637,-4866470.813751221,-1375540.9717559814,2377119.541168213,3609297.752380371,851061.8209838867,-12243037.223815918,-9555860.51940918,-16615694.046020508,-10636407.852172852,-4261826.515197754,-2049078.9413452148,4055418.4913635254,5761112.689971924,5732818.126678467,-2869972.9442596436,3166603.5652160645,3568593.0252075195,-12177590.370178223,2703420.877456665,1284583.9262008667,2373422.622680664,5675004.005432129,8019588.470458984,12202654.838562012,2189174.175262451,2454173.3264923096,-8618272.78137207,2308662.176132202,7197516.441345215,11859892.845153809,9896671.295166016,8258476.257324219,-1266834.7358703613,-5560302.257537842,9298759.460449219,-6889218.807220459
0.075,-2585585.832595825,-9657495.498657227,11224909.782409668,1547937.512397766,-18509332.65686035,-274993.360042572,7099391.460418701,8567247.39074707,-6711467.742919922,-7338142.871856689,-7338671.684265137,-4584569.931030273,-11821557.04498291,-6640685.558319092,4338277.816772461,7326148.03314209,1854714.8704528809,-2151818.7522888184,-3831100.2254486084,-446711.8978500366,1436488.6283874512,-3333585.739135742,-9762729.64477539,2966045.141220093,-8077927.589416504,-3212508.201599121,-5028896.808624268,-1907332.3011398315,2149801.49269104,2936846.4946746826,855611.0262870789,-11914849.281311035,-9710821.151733398,-15958644.86694336,-10432431.2210083,-3726189.613342285,-2135589.361190796,3512854.814529419,5721781.7306518555,5005453.586578369,-2147228.479385376,5964550.018310547,4833183.765411377,-11901438.71307373,3192136.287689209,2784058.094024658,3067522.5257873535,5077215.671539307,6319457.530975342,10824762.344360352,3124924.421310425,3446848.154067993,-10082592.010498047,3346006.155014038,6537382.60269165,11578975.677490234,9205074.310302734,9464623.45123291,-657203.3166885376,-5065247.058868408,10871094.703674316,-6325661.182403564
0.08,-4808600.425720215,-12572240.829467773,12699544.906616211,-701517.4627304077,-22329402.923583984,965058.3267211914,6407361.030578613,7755309.581756592,-12678338.050842285,-12598643.30291748,-11032139.778137207,-5845449.924468994,-12176732.063293457,-4120941.162109375,6894205.570220947,8662249.565124512,308979.6304702759,-5698727.130889893,-7430282.5927734375,-2509514.331817627,1442073.8220214844,-1450475.573539734,-8547319.412231445,7488051.414489746,-7321965.69442749,-3390734.4341278076,-7921045.303344727,-3934540.033340454,2053259.1342926025,3327253.818511963,2969076.8718719482,-10451427.459716797,-5090020.656585693,-12597509.384155273,-10060300.827026367,-3063630.3424835205,-2066993.236541748,4013135.4331970215,8215380.668640137,7730432.987213135,2272227.0488739014,12308073.997497559,8683722.496032715,-9340200.424194336,6830883.979797363,7939142.227172852,6659183.979034424,8292992.59185791,10057710.647583008,14636744.499206543,7168499.46975708,7678581.714630127,-8339937.210083008,10236985.206604004,12677408.218383789,18776807.78503418,16078607.559204102,14876802.444458008,3454651.8325805664,654922.9025840759,20437833.786010742,-2692506.3133239746
0.085,-5493707.656860352,-11343683.242797852,16041328.430175781,209854.1110754013,-22652032.85217285,1247769.1173553467,6274950.5043029785,7602056.503295898,-13738059.997558594,-13707694.053649902,-11242640.495300293,-4830452.919006348,-12592312.812805176,-4309200.763702393,7505799.770355225,7720622.539520264,-1493074.5363235474,-7762102.6039123535,-8464885.711669922,-2151905.298233032,2925918.1022644043,-271103.8887500763,-8491249.084472656,8255658.149719238,-8307955.741882324,-5756380.558013916,-11415803.909301758,-5527994.155883789,3103908.061981201,5018451.21383667,5645348.54888916,-9146944.046020508,-2961458.683013916,-12436659.812927246,-12053609.848022461,-4386621.475219727,-1999356.6274642944,4926037.788391113,10726855.278015137,10706980.70526123,5213409.423828125,13640210.151672363,9090190.887451172,-9359601.974487305,7696934.700012207,10677118.301391602,8783524.513244629,10866385.459899902,13663619.041442871,17912509.91821289,8414719.581604004,9096707.344055176,-8139206.886291504,14230825.424194336,16505130.767822266,23564079.28466797,20980573.654174805,16911161.422729492,5260492.324829102,3277081.7279815674,25173013.68713379,-1128543.9729690552
0.09,-3700180.5305480957,-6416834.831237793,19432512.283325195,2892275.094985962,-17559907.913208008,-567443.4304237366,5587672.710418701,7034743.785858154,-9872556.686401367,-10175831.79473877,-7617210.865020752,-1158196.210861206,-9791560.173034668,-3321473.5984802246,4252522.945404053,4259144.306182861,-2707576.5132904053,-7146396.636962891,-6373716.831207275,93662.40352392197,5321950.912475586,1133142.590522766,-6374708.652496338,3421261.3105773926,-10864712.715148926,-8099601.745605469,-12195021.629333496,-5230135.440826416,4439164.638519287,6896951.675415039,7534200.191497803,-6911514.759063721,-6958016.395568848,-16283721.923828125,-15047801.01776123,-6830197.334289551,-1932227.2539138794,5416354.656219482,11510496.139526367,11899773.597717285,5437804.698944092,8046283.721923828,4834430.21774292,-12701503.75366211,3979546.070098877,8211587.905883789,7792994.022369385,10867189.407348633,14023262.977600098,17636726.37939453,5062001.705169678,5716758.251190186,-10319631.576538086,11240701.675415039,14714607.238769531,21442153.930664062,19282667.16003418,13234251.976013184,2326993.703842163,480672.32966423035,20393587.112426758,-3174006.700515747
0.095,755220.2939987183,-1123205.7809829712,21839998.245239258,5077115.058898926,-10503170.96710205,-475896.32868766785,5599418.163299561,7109515.190124512,-5682864.189147949,-6024466.514587402,-3620238.3041381836,3502900.1235961914,-3911365.509033203,1397374.0339279175,2178303.7185668945,2483333.8260650635,-2623515.6059265137,-5689802.646636963,-4407481.1935424805,1478219.1514968872,7037484.645843506,3767225.980758667,-953612.3871803284,-398829.04291152954,-11328879.356384277,-7708717.346191406,-10114385.604858398,-4044046.8788146973,4652577.877044678,7970796.585083008,8764962.196350098,-2574682.4741363525,-11050732.612609863,-18165678.024291992,-15190689.086914062,-7300812.721252441,-1822854.0420532227,5352704.048156738,11514384.269714355,12533825.874328613,6382622.241973877,2890078.7830352783,1743568.0627822876,-14486864.08996582,790683.3291053772,4740887.641906738,6306897.163391113,10487776.756286621,13591958.045959473,16621700.286865234,2068308.8302612305,2546729.803085327,-10725601.196289062,6941759.5863342285,12809185.981750488,18097032.54699707,16238368.98803711,9278498.649597168,-1180158.1382751465,-1634002.5663375854,14984694.480895996,-4710648.536682129
0.1,5887233.734130859,1411030.7693481445,22946378.707885742,6076359.272003174,-7260597.229003906,3844367.504119873,7864491.939544678,9226578.712463379,-5175584.316253662,-5017089.366912842,-2470398.6644744873,6813114.166259766,88081.0096859932,5862419.605255127,5329925.537109375,5026198.863983154,-1451315.999031067,-5685622.692108154,-5361104.965209961,690735.1613044739,7276385.78414917,6086206.436157227,3042258.7394714355,2253952.980041504,-8711178.77960205,-5248523.712158203,-8435587.882995605,-4015960.693359375,3851506.471633911,8093902.587890625,9377899.169921875,729328.2151222229,-9332796.096801758,-15042178.1539917,-12181574.821472168,-4820532.79876709,-1736677.646636963,5096148.0140686035,11856093.406677246,13563333.511352539,8589044.570922852,3668151.617050171,3555651.4263153076,-11912406.921386719,2453004.3601989746,5262752.056121826,6628644.4664001465,11312932.014465332,14318685.531616211,16809383.392333984,3012669.801712036,3434002.637863159,-8048800.468444824,7518965.721130371,14143957.138061523,18355440.139770508,16454092.025756836,9310842.514038086,-1307528.1381607056,511852.56242752075,16084266.662597656,-3105631.8283081055
0.105,7206691.741943359,-266654.3126106262,21656988.1439209,5706004.1427612305,-10010404.586791992,7492043.972015381,10119580.268859863,11248462.677001953,-8020582.19909668,-7069955.825805664,-4273954.391479492,7065107.822418213,-2123261.6901397705,3899764.5378112793,9162342.071533203,8169405.937194824,-646800.9352684021,-6990973.949432373,-8136555.6716918945,-1066299.9153137207,6318897.724151611,5008749.008178711,-138735.71157455444,7010573.387145996,-7184021.949768066,-4259695.053100586,-9240636.825561523,-5218974.590301514,3236056.5662384033,7377704.14352417,8117253.303527832,-2008599.5197296143,-5686180.591583252,-11924563.40789795,-10169537.544250488,-2090494.155883789,-1705019.5932388306,4714570.999145508,11556468.963623047,13113433.837890625,7258207.321166992,6354258.060455322,6113433.837890625,-8823257.446289062,6017970.561981201,8464789.390563965,7370686.5310668945,11379384.994506836,13492461.204528809,15046156.883239746,4407316.6847229,5020375.2517700195,-6627929.6875,10537692.070007324,14234612.464904785,18374851.22680664,16302755.355834961,10064286.231994629,-326569.16975975037,1991480.4697036743,18305604.934692383,-2245581.62689209
0.11,2037581.205368042,-5445254.325866699,17815465.927124023,3629285.3355407715,-14971111.297607422,4556823.253631592,8543090.8203125,9619258.880615234,-10546485.900878906,-8990939.140319824,-6598271.84677124,4640509.605407715,-8295677.185058594,-3841866.4932250977,6539444.923400879,6838053.7033081055,-1245768.9046859741,-7398254.871368408,-9261260.986328125,-1897897.6011276245,4912351.608276367,306883.63313674927,-8812397.003173828,5680614.471435547,-10038158.416748047,-6407018.184661865,-10775481.224060059,-5551253.795623779,3361994.743347168,5864118.0992126465,4254619.121551514,-10170288.0859375,-7669990.539550781,-14260342.597961426,-12048193.93157959,-2055803.2989501953,-1643104.7916412354,3876268.8636779785,9294907.569885254,9392801.284790039,-29872.724786400795,4309307.098388672,4000269.889831543,-10100343.704223633,5655146.598815918,8884487.15209961,5907521.2478637695,8352930.068969727,8383984.565734863,8763407.707214355,1250037.3125076294,2109085.0830078125,-9985104.56085205,9363514.90020752,8899256.706237793,13200424.194335938,11137120.246887207,6382287.979125977,-3002511.978149414,-2536697.3876953125,13950375.5569458,-7000886.917114258
0.115,-5417382.24029541,-10606901.168823242,14813489.91394043,1439404.1299819946,-16369934.08203125,-2023285.150527954,4598289.966583252,5869493.007659912,-9538350.105285645,-7743158.81729126,-6765951.156616211,2438502.550125122,-11515936.851501465,-9023261.070251465,-548125.7438659668,2789262.294769287,-1869366.6458129883,-5420549.8695373535,-7024422.168731689,-938416.7194366455,4013009.0713500977,-3877384.4242095947,-14220066.07055664,-1054233.193397522,-14065043.449401855,-8957443.237304688,-10416890.144348145,-3779652.8339385986,3805552.4826049805,3971787.691116333,-247389.7784948349,-16288785.934448242,-14021221.160888672,-19443477.630615234,-15645911.21673584,-4272064.685821533,-1567965.2690887451,2407586.097717285,5942916.8701171875,4289960.861206055,-7613971.710205078,-1331154.5848846436,-867103.9938926697,-14544723.510742188,1006014.9431228638,4761162.757873535,2301506.757736206,3306184.2918395996,1604722.8574752808,1764645.9341049194,-4966970.443725586,-4049588.203430176,-15811054.229736328,3435576.6773223877,1536511.4212036133,5901275.634765625,4008102.4169921875,-137943.95327568054,-9026662.826538086,-10143738.746643066,6191780.567169189,-15095167.16003418
0.12,-6528472.423553467,-10794158.935546875,17068222.045898438,2959665.298461914,-12306649.208068848,-2397240.8771514893,5120182.037353516,6598685.741424561,-5046941.28036499,-3151530.0273895264,-3932234.048843384,3500139.2364501953,-8243238.44909668,-5264064.311981201,-1870380.0439834595,3282172.441482544,148719.53427791595,-2020173.0728149414,-3249941.58744812,1241209.3877792358,4394280.433654785,-3415968.656539917,-10616751.670837402,-3179855.8235168457,-13234311.1038208,-8122782.7072143555,-8443210.60180664,-1529204.4878005981,4112132.0724487305,2660250.9021759033,-1983736.3958358765,-14451750.755310059,-15592027.66418457,-20243722.915649414,-16883806.228637695,-5756049.156188965,-1685195.803642273,620105.8030128479,3821770.668029785,1805411.696434021,-7949151.039123535,-3226668.119430542,-1908636.5699768066,-16666173.934936523,-2672848.701477051,302957.6539993286,-783544.659614563,-426790.0884151459,-1754621.6249465942,-40471.743792295456,-7906301.021575928,-7091308.116912842,-19452953.338623047,-1126568.9134597778,-1965009.5701217651,3254372.3583221436,1433689.832687378,-2569601.29737854,-12810522.079467773,-13614772.79663086,4001237.8692626953,-18887790.67993164
0.125,2111491.2033081055,-4116304.874420166,24245584.48791504,9725478.172302246,-5990033.6265563965,7539830.684661865,13275784.492492676,14698087.692260742,31631.05994462967,1929787.516593933,161347.83625602722,7777451.515197754,-2027270.5554962158,4222819.805145264,7351326.465606689,11067584.037780762,5060984.6115112305,523939.5499229431,-1026100.2779006958,3057744.9798583984,5850160.121917725,1051982.045173645,-1891860.842704773,5111484.050750732,-6751543.5218811035,-3851020.336151123,-7097671.031951904,-1310181.3793182373,4211907.863616943,2761492.967605591,355450.0341415405,-7242396.831512451,-8689717.292785645,-14753056.526184082,-14818818.092346191,-4782128.810882568,-2046960.8306884766,-908455.8486938477,4198138.71383667,3532563.4479522705,-1339636.0874176025,1633262.1574401855,2515432.357788086,-14218039.512634277,-2041421.890258789,-226820.37949562073,-1255923.7480163574,-940583.8847160339,-559163.0339622498,3408970.832824707,-4999019.622802734,-4260578.632354736,-19456066.131591797,-464488.9831542969,-1087232.7089309692,5883196.3539123535,3943721.055984497,1885307.5504302979,-10842063.903808594,-11216255.187988281,8278992.652893066,-15173151.969909668
0.13,13378964.4241333,4877744.197845459,30674251.556396484,17276601.791381836,-1726916.9092178345,19668188.095092773,22769651.412963867,23875022.888183594,2602596.2829589844,4125839.7102355957,2599213.3617401123,12320867.538452148,1648205.041885376,10939297.676086426,18920297.622680664,19715497.970581055,9455675.12512207,966453.3734321594,-1392897.4866867065,3213887.2146606445,7272455.215454102,5306782.7224731445,3788318.157196045,16568143.844604492,-410178.86996269226,133377.85005569458,-7128574.371337891,-3305463.5524749756,4180366.9929504395,4226527.214050293,4548236.37008667,-1984158.992767334,-981736.7196083069,-8779066.08581543,-12082725.524902344,-2661944.86618042,-2310894.727706909,-1704620.122909546,6523099.899291992,7229931.831359863,4532582.759857178,7710727.691650391,6779338.836669922,-10724272.727966309,361546.8442440033,2245821.952819824,509284.6155166626,918198.9431381226,1794338.2263183594,6572541.7137146,-763424.2177009583,-25769.032537937164,-17839807.510375977,2359773.635864258,663199.782371521,8444959.64050293,6369638.919830322,7741272.926330566,-6422594.5472717285,-8036108.97064209,11511616.706848145,-9506797.790527344
0.135,16653291.702270508,8655930.519104004,31805078.506469727,19112623.21472168,-916644.3943977356,22514497.756958008,24652704.2388916,25474571.228027344,1710811.3765716553,2733362.4362945557,2172855.6156158447,14928775.787353516,1830413.4607315063,11023025.512695312,21215387.34436035,21209350.5859375,9936436.653137207,51774.54650402069,-2610595.226287842,2369524.0020751953,8074920.654296875,6760156.631469727,3422586.20262146,19261583.32824707,220575.07932186127,719629.9433708191,-7313973.426818848,-5221657.276153564,4344039.440155029,6112532.615661621,7160641.670227051,-2140287.399291992,-1412730.097770691,-8439282.417297363,-11443936.347961426,-1752186.4175796509,-2109447.0024108887,-1702022.1948623657,9236054.420471191,9482354.164123535,4033904.552459717,8138691.9021606445,5627278.804779053,-10385570.526123047,515669.64387893677,3671255.588531494,2378069.4007873535,2774311.065673828,2059117.317199707,5514249.324798584,-931300.7593154907,-201300.710439682,-17080574.03564453,2625039.3390655518,1273903.1314849854,7624775.8865356445,5535682.201385498,7953732.013702393,-5627888.6795043945,-8785518.646240234,9499522.20916748,-9178249.35913086
0.14,9507283.210754395,4343433.856964111,28683675.76599121,14166486.740112305,-2404135.4656219482,14235465.049743652,17984134.674072266,18823564.529418945,-1366045.7134246826,155702.143907547,406981.9450378418,15877742.767333984,1079087.495803833,7478912.830352783,12845589.637756348,15316963.195800781,6932590.007781982,-798644.9003219604,-2530665.159225464,2685383.3198547363,8735857.009887695,6268946.170806885,180103.43611240387,11083264.350891113,-4560046.195983887,-1687879.6815872192,-7051736.354827881,-5213656.425476074,5243215.560913086,7155307.769775391,6548575.401306152,-5435194.492340088,-8899708.74786377,-13568001.747131348,-13398030.281066895,-2707805.633544922,-1570996.5229034424,-1339020.848274231,10468463.897705078,8538648.60534668,-1065738.4395599365,2731588.125228882,289492.24948883057,-13189109.802246094,-1708701.6105651855,2238676.071166992,2303645.610809326,2341852.6649475098,-257415.0264263153,1369100.2130508423,-5890192.50869751,-5187644.958496094,-18437961.57836914,19373.927265405655,318536.6094112396,4642500.877380371,2578866.0049438477,2031365.156173706,-10168806.076049805,-13121536.254882812,5446367.7406311035,-14613301.277160645
0.145,-377874.7320175171,-3519372.7016448975,24619220.733642578,7668023.586273193,-5111340.522766113,3480190.0386810303,9954275.131225586,11070279.121398926,-4675114.631652832,-1098486.9003295898,-787979.1855812073,15660200.119018555,150044.59023475647,3826057.6725006104,2686849.355697632,8398980.140686035,3443814.516067505,-1291659.951210022,-1118906.021118164,4842079.639434814,9437191.9631958,5208781.2423706055,-2959233.045578003,1110016.8228149414,-10363566.398620605,-4796817.779541016,-7381193.161010742,-3901724.5769500732,6776215.076446533,6675145.149230957,3648135.9004974365,-8854184.1506958,-15151179.313659668,-19446825.02746582,-16614105.224609375,-4334205.627441406,-1218695.878982544,-1179354.4292449951,9184046.745300293,5139618.873596191,-5651074.8863220215,-3228863.000869751,-4665309.906005859,-16256237.030029297,-3614854.335784912,-374078.98902893066,-36331.12832903862,-879530.7874679565,-3929256.2007904053,-2747087.240219116,-11403964.99633789,-10707508.087158203,-21651689.529418945,-2667098.7606048584,-3241957.426071167,975996.732711792,-1132744.9083328247,-4633001.804351807,-16181434.631347656,-17982164.38293457,2367380.8574676514,-20089742.66052246
0.15,-4645944.595336914,-8350153.923034668,20430519.104003906,4492730.140686035,-8550498.962402344,-1419241.9052124023,6496990.203857422,7850617.8855896,-6804407.119750977,-1052692.5325393677,-1509888.5297775269,13333915.710449219,-2563899.9938964844,185436.82992458344,-1771429.0618896484,4891910.076141357,1106816.1725997925,-2162150.1445770264,-141599.02930259705,6505789.756774902,9082744.598388672,3365198.850631714,-6176013.946533203,-2437417.0303344727,-13890256.881713867,-7217886.924743652,-8909226.417541504,-3175209.2838287354,7666566.848754883,5143386.363983154,557808.518409729,-11670709.609985352,-15812919.616699219,-22583244.32373047,-19280639.6484375,-5464009.761810303,-1375022.8881835938,-1349753.737449646,6592750.549316406,1724400.8779525757,-7284143.924713135,-6000844.478607178,-7516575.813293457,-18061613.082885742,-4246626.377105713,-2196375.608444214,-2854061.8419647217,-4617768.287658691,-7141823.768615723,-5008371.829986572,-14167845.726013184,-13525521.278381348,-24805334.091186523,-4193985.939025879,-8783504.486083984,-3152317.762374878,-5298824.787139893,-7766662.120819092,-19456157.684326172,-21157478.33251953,-928848.2069969177,-21352313.995361328
0.155,-2757931.4708709717,-8131293.296813965,15859239.57824707,4565145.969390869,-11374065.399169922,-516974.2703437805,6901265.1443481445,8221165.657043457,-7169164.657592773,-1271752.4766921997,-2774689.197540283,8835871.696472168,-6565107.822418213,-3473869.3237304688,-1413395.881652832,3808842.182159424,-423480.6001186371,-3442070.245742798,-677072.286605835,5206443.786621094,6839859.962463379,741924.6435165405,-9327130.317687988,-661477.6253700256,-14848256.11114502,-8600435.256958008,-10331493.377685547,-3835005.283355713,6713026.523590088,3682069.5400238037,-1146937.2510910034,-13449710.845947266,-14021643.63861084,-22969171.52404785,-19941059.112548828,-5905764.579772949,-1871091.0081863403,-1609941.9593811035,5258999.347686768,521571.5765953064,-6867931.842803955,-6505111.217498779,-9736443.519592285,-19281633.377075195,-5086850.166320801,-3214399.814605713,-4005941.390991211,-5836736.679077148,-8146655.082702637,-5033769.130706787,-14743049.621582031,-14273035.049438477,-25843128.204345703,-5453532.2189331055,-12093830.108642578,-6230394.36340332,-8278056.1447143555,-7814845.561981201,-19712852.478027344,-21838497.161865234,-4449514.389038086,-19722042.083740234
0.16,-76150.00754594803,-5682905.197143555,13076636.31439209,5598664.7605896,-11626688.003540039,1033733.1295013428,7944250.106811523,9022201.538085938,-5974827.289581299,-2024945.9743499756,-3931404.3521881104,5108259.201049805,-8316604.6142578125,-4809502.601623535,-730893.075466156,3139128.4465789795,-897655.189037323,-3776425.361633301,-1727115.8695220947,2031265.0203704834,4037199.4972229004,-862919.270992279,-10064731.59790039,827303.8864135742,-14222950.93536377,-8377638.816833496,-10070199.012756348,-5020589.351654053,4492223.739624023,2819560.2893829346,-1234574.794769287,-12935506.820678711,-13580039.024353027,-21996330.26123047,-18262748.71826172,-5685745.2392578125,-2323514.223098755,-1949663.1622314453,5802854.537963867,1422860.2647781372,-5930330.753326416,-7014762.401580811,-11845437.049865723,-20307142.25769043,-6666009.902954102,-4182992.458343506,-3400834.560394287,-4583190.441131592,-6988873.481750488,-3660317.4209594727,-15333325.386047363,-14980115.89050293,-25144998.55041504,-6698540.687561035,-10356922.149658203,-6213975.429534912,-8101143.836975098,-7148385.524749756,-19218763.35144043,-20209142.684936523,-4563077.449798584,-18824895.85876465
0.165,-272260.2188587189,-4333700.656890869,14308472.633361816,6802633.762359619,-9472878.456115723,658723.8907814026,8869854.927062988,9738004.684448242,-4344169.616699219,-2077064.9909973145,-3307917.1180725098,5207356.4529418945,-6406801.223754883,-2780512.3329162598,-861914.6347045898,3377568.9601898193,734455.2874565125,-2272417.3069000244,-1769809.2460632324,505351.6626358032,3050564.5275115967,-55176.157504320145,-7621375.560760498,575411.7965698242,-12897329.330444336,-6316310.405731201,-8597412.109375,-5571091.651916504,2946146.011352539,2150289.297103882,-554868.0424690247,-10505554.19921875,-13555734.634399414,-20428874.969482422,-15692550.659179688,-4633476.257324219,-2498276.2336730957,-2570681.571960449,5992205.1429748535,2177906.274795532,-5285125.732421875,-7396647.4533081055,-12131816.864013672,-20185361.862182617,-7186320.781707764,-4799156.188964844,-2790413.8565063477,-4092879.295349121,-6025545.597076416,-2929121.255874634,-16342082.977294922,-15789885.520935059,-25040685.653686523,-6780732.154846191,-7034169.1970825195,-4242158.41293335,-6134026.527404785,-6434899.33013916,-19009153.366088867,-17697027.2064209,-223548.35271835327,-19688550.94909668
0.17,-2361896.753311157,-5104172.229766846,17034038.543701172,7966804.027557373,-7863241.672515869,-85046.70113325119,10160329.818725586,10970984.45892334,-3757768.8694000244,-1056725.5020141602,-1210969.32888031,8156723.0224609375,-4252931.118011475,-641938.9843940735,-144442.46888160706,5203574.657440186,3515259.7427368164,-307446.4201927185,-984401.4644622803,1948934.555053711,4404870.986938477,1801065.444946289,-5242176.532745361,1241556.167602539,-11711789.13116455,-3878614.664077759,-7927335.739135742,-5239999.294281006,3143856.7638397217,1477370.5005645752,37074.2604136467,-8943748.474121094,-11506820.678710938,-18595720.291137695,-14583781.242370605,-3183827.6386260986,-2381837.844848633,-3185795.0687408447,4361353.874206543,1433270.4544067383,-5160385.1318359375,-5898090.362548828,-9731825.828552246,-18408226.013183594,-5372478.485107422,-4152085.304260254,-3067063.093185425,-6069025.039672852,-6984454.63180542,-4092509.2697143555,-16168424.606323242,-15204614.639282227,-26100505.828857422,-5213549.613952637,-7305468.559265137,-3651240.587234497,-5768163.681030273,-5066057.6820373535,-18221189.498901367,-16228067.398071289,3567333.221435547,-20317506.790161133
0.175,-3917119.264602661,-6938674.9267578125,16425765.991210938,7713600.158691406,-8817031.860351562,49142.830073833466,10604793.548583984,11420525.550842285,-4625324.726104736,-269029.3490886688,23703.379556536674,10228118.896484375,-5101834.774017334,-1498558.521270752,1147953.2718658447,6816868.305206299,4240458.4884643555,-216892.272233963,-951261.9376182556,3968880.8917999268,6243884.086608887,2382258.415222168,-5844092.36907959,3521821.0220336914,-11295676.231384277,-3209916.830062866,-8987903.594970703,-4560375.690460205,4166683.6738586426,1481593.2512283325,483547.50871658325,-9749102.592468262,-8459953.308105469,-17003955.841064453,-15840183.25805664,-2572785.8543395996,-2077938.0798339844,-3036405.563354492,2848341.464996338,576396.107673645,-5155231.952667236,-2291483.6406707764,-6411822.79586792,-16126667.022705078,-2711618.423461914,-2397902.250289917,-3199496.030807495,-8041371.3455200195,-8408927.917480469,-5518180.370330811,-13668099.403381348,-12539348.602294922,-25773981.09436035,-3206795.6924438477,-10364492.416381836,-4833867.073059082,-7144477.367401123,-3194395.3037261963,-16185527.801513672,-16139591.217041016,2581648.826599121,-18827310.56213379
0.18,-4201653.957366943,-7619408.130645752,12949826.24053955,5579370.021820068,-10106383.323669434,-318015.0091648102,8785150.527954102,9567856.788635254,-5576087.951660156,-525335.0734710693,-402715.62337875366,10058067.321777344,-6922540.187835693,-3064301.9676208496,524313.8670921326,6177566.5283203125,1589345.932006836,-2173967.8382873535,-2203857.421875,4035575.3898620605,6765961.170196533,1628220.2005386353,-7441853.046417236,4730918.884277344,-11262179.374694824,-4430639.266967773,-10408206.939697266,-4049664.02053833,4384086.608886719,2429157.9723358154,982824.6831893921,-10736843.10913086,-7366771.697998047,-15890011.78741455,-17642761.23046875,-3346378.3264160156,-1731824.1596221924,-2056983.232498169,3685662.9848480225,1297288.8946533203,-4565393.924713135,1341163.992881775,-4330265.522003174,-14683047.2946167,-1420342.8030014038,-1045444.8461532593,-2528595.9243774414,-7343050.956726074,-8109676.361083984,-4700137.615203857,-9810962.677001953,-8991784.09576416,-22097167.96875,-2266265.1538848877,-11252069.473266602,-4981169.2237854,-7157511.7111206055,-1590119.2426681519,-13420896.530151367,-15777934.074401855,-424216.9260978699,-15550031.661987305
0.185,-3432094.3355560303,-4901358.604431152,12491317.749023438,4031951.904296875,-7739278.316497803,-2165587.902069092,6058029.1748046875,6807690.620422363,-4662286.281585693,-562809.7057342529,-320320.2784061432,9678279.876708984,-5694359.302520752,-1098083.257675171,-2383364.677429199,4349180.221557617,-1475255.2509307861,-3568969.0113067627,-3118283.271789551,2551036.3578796387,5843358.516693115,1080218.79196167,-6208324.909210205,3586546.8978881836,-10223641.395568848,-5215437.889099121,-9972445.487976074,-3785558.4621429443,3094049.2153167725,2888344.2878723145,887849.9269485474,-9381037.712097168,-7874784.94644165,-14539861.679077148,-17049495.697021484,-4225097.179412842,-1457816.243171692,-1364152.3122787476,5340622.901916504,2517754.7931671143,-3479311.70463562,2986148.1189727783,-3605925.5599975586,-13857559.204101562,-1449299.0970611572,-1488390.6841278076,-2398049.831390381,-5481605.529785156,-6900692.939758301,-2178193.5691833496,-6589156.627655029,-6237272.262573242,-16829299.926757812,-2773104.429244995,-9002829.551696777,-3480057.47795105,-5183570.861816406,-298656.165599823,-10596448.89831543,-13780153.274536133,-676357.8653335571,-12157390.594482422
0.19,-1101895.0939178467,1154254.3172836304,16936578.75061035,5222010.135650635,-1604361.7725372314,-3465041.8758392334,5097642.421722412,5851308.345794678,-1339555.8595657349,1109254.9562454224,1863189.3396377563,10107646.942138672,-2166096.9257354736,3130914.6881103516,-4313899.517059326,3966507.911682129,-1527498.8412857056,-2141442.060470581,-1932551.383972168,1165139.3175125122,3862863.779067993,600218.8324928284,-2734384.298324585,2661556.4823150635,-7343401.908874512,-3787227.3921966553,-6843893.527984619,-3570497.751235962,580346.7631340027,1052163.83934021,-1024085.6409072876,-6893287.658691406,-6089188.575744629,-11920527.458190918,-13061404.22821045,-3514175.4150390625,-1274686.8133544922,-1888333.3206176758,4494304.180145264,1815661.6687774658,-2971590.518951416,2777544.0216064453,-3133054.494857788,-12622041.702270508,-1171867.3706054688,-3535096.1685180664,-3920693.3975219727,-5594198.226928711,-7038035.3927612305,-839624.4645118713,-4786337.852478027,-4659593.58215332,-12814486.503601074,-3988780.975341797,-7063593.864440918,-3077183.961868286,-4237559.3185424805,1280016.541481018,-7907389.6408081055,-10624660.49194336,1032897.4723815918,-9503286.361694336
0.195,3196345.567703247,7059932.231903076,19831087.112426758,7179079.532623291,3751984.8346710205,-1741513.967514038,6045246.124267578,6729474.067687988,3100020.64704895,3797487.735748291,4192324.638366699,9275910.377502441,-1008484.8403930664,3902913.5704040527,-2576553.3447265625,5209761.619567871,660002.8872489929,1219510.793685913,771612.0481491089,-144665.97139835358,678921.2822914124,-1453754.7826766968,-1335507.1544647217,4297605.037689209,-3540903.8066864014,-1159621.9539642334,-2270431.0417175293,-3258085.9661102295,-2608780.860900879,-2634505.271911621,-4642742.63381958,-6265646.457672119,-306437.611579895,-8143434.524536133,-7717483.043670654,-1359753.0126571655,-1142109.3940734863,-3077947.1397399902,1295514.702796936,-594418.0488586426,-3548803.5678863525,2211607.9330444336,-2697458.9824676514,-11003215.789794922,-279182.67250061035,-5542276.382446289,-5535188.674926758,-7173438.549041748,-7942642.2119140625,-1365921.4973449707,-3589548.5877990723,-3485587.3584747314,-9961776.733398438,-4825333.595275879,-6174359.7984313965,-4546179.294586182,-5327817.440032959,2993434.429168701,-5867811.20300293,-7561865.80657959,497572.0942020416,-7047415.256500244
0.2,7948849.678039551,8792976.379394531,15293453.216552734,6458935.737609863,4558508.87298584,1871543.526649475,6562875.747680664,7003298.282623291,6841623.783111572,5390370.845794678,3868477.5829315186,6034946.441650391,-3459862.232208252,-255273.9679813385,1014860.7492446899,5740239.62020874,1613125.3242492676,3630073.070526123,2597894.9069976807,-2288160.3240966797,-3037901.6399383545,-4513593.673706055,-3380763.053894043,6633466.2437438965,-859941.1249160767,340297.1923351288,1412229.4187545776,-2921797.752380371,-5616707.801818848,-5325113.296508789,-7588589.191436768,-7512631.893157959,5555436.611175537,-4948338.031768799,-4102658.271789551,317856.9972515106,-1050573.5874176025,-3703841.4478302,-585280.71641922,-1742563.8437271118,-4278990.268707275,1846463.7994766235,-3029968.738555908,-10097144.12689209,-67727.41675376892,-6013260.841369629,-4972481.727600098,-6983946.800231934,-6983620.166778564,-1508845.9253311157,-2477975.1300811768,-2477458.715438843,-6554562.568664551,-4732591.152191162,-3372248.1727600098,-4848794.460296631,-5418146.133422852,3549308.0615997314,-5641455.65032959,-5361710.548400879,-2618350.5058288574,-4558887.004852295
0.205,10448147.773742676,6222329.139709473,7203550.338745117,3682077.646255493,2157406.806945801,3539070.6062316895,5529055.118560791,5694018.363952637,8980342.864990234,5207893.371582031,1729281.6638946533,3351765.3942108154,-5290996.551513672,-4039091.110229492,2314637.6609802246,4458877.086639404,346645.92146873474,3695946.69342041,2402264.356613159,-4360599.994659424,-4861504.554748535,-5350144.863128662,-5444995.880126953,6336829.18548584,-606446.8622207642,-54193.563759326935,2626139.4023895264,-2707305.669784546,-7137885.093688965,-4870048.522949219,-7450168.609619141,-8032878.875732422,6375460.624694824,-4111564.1593933105,-3452350.13961792,138102.9486656189,-1002674.3412017822,-3550021.8868255615,533884.4656944275,-268095.4337120056,-4442278.3851623535,707140.326499939,-4313163.757324219,-10436263.084411621,-1088683.4859848022,-5198026.657104492,-3016302.5856018066,-4842329.025268555,-4566273.212432861,-592728.4955978394,-2430318.832397461,-2634282.5889587402,-3299877.405166626,-4513378.143310547,843505.4421424866,-2949617.385864258,-3357116.937637329,1731899.2614746094,-7758895.8740234375,-4738277.435302734,-5183461.666107178,-3589876.174926758
0.21,9559915.542602539,3063396.93069458,3957667.589187622,2536336.898803711,488417.23799705505,1518945.9323883057,4157868.8621520996,4263232.707977295,9480242.729187012,4502725.601196289,1236424.8037338257,4551838.8748168945,-3430328.845977783,-3303040.7428741455,145408.15353393555,2885795.5932617188,-849145.8892822266,2631761.5509033203,1669398.1885910034,-4142074.5849609375,-2946296.453475952,-2627836.4658355713,-4881611.347198486,3671593.189239502,-2143191.09916687,-1216441.035270691,1721494.5554733276,-2590549.7074127197,-6324967.861175537,-2087507.4863433838,-4662524.700164795,-7082724.094390869,2452351.5701293945,-5444964.408874512,-4491239.547729492,-1442564.7258758545,-933848.0234146118,-3293279.1709899902,2104048.013687134,1641171.6938018799,-4760245.800018311,-1957091.212272644,-5864956.378936768,-11392743.110656738,-2402900.457382202,-4879081.726074219,-2732471.227645874,-4260645.389556885,-4296472.072601318,-1054577.112197876,-4433348.655700684,-4714043.140411377,-2866409.5401763916,-5748764.0380859375,1164483.0703735352,-2751714.4680023193,-3020892.381668091,-2157562.255859375,-10992778.778076172,-6381778.240203857,-6644852.161407471,-5855781.078338623
0.215,6997464.179992676,2238031.1489105225,6575174.331665039,3570657.0148468018,784756.9584846497,-1704218.6260223389,3352738.857269287,3588627.0999908447,8346226.692199707,4089929.5806884766,3192467.451095581,8027628.8986206055,-697904.5867919922,-781837.1653556824,-2465001.106262207,2464899.5399475098,-638770.4610824585,1973964.2143249512,2161781.5494537354,-1549537.4202728271,1019746.8996047974,521239.2807006836,-3439846.5156555176,2315298.080444336,-3546444.1776275635,-2042373.1803894043,353139.87731933594,-2460477.352142334,-3964402.675628662,548481.6431999207,-2082068.4432983398,-6593012.33291626,-825510.6806755066,-6835156.9175720215,-5343161.106109619,-3150503.635406494,-764860.9280586243,-3014692.3065185547,1697450.1609802246,1771732.9263687134,-5620160.102844238,-4910227.298736572,-6932319.164276123,-12169337.272644043,-3401178.1215667725,-6128075.122833252,-4782083.511352539,-6478161.811828613,-6944696.90322876,-3598952.7702331543,-7170661.926269531,-7345284.461975098,-5243313.789367676,-8418235.778808594,-3700775.623321533,-6504927.158355713,-6725663.185119629,-5746339.797973633,-13000330.924987793,-9209169.387817383,-8865828.514099121,-9754722.595214844
0.22,4970930.576324463,2750672.1019744873,8450090.408325195,3211746.2158203125,808359.7421646118,-2948140.859603882,2313076.4961242676,2582079.4105529785,5356045.246124268,2976918.2205200195,4331112.861633301,9279533.386230469,-1084761.8579864502,-621647.5963592529,-2629256.010055542,2594877.4814605713,-638807.1775436401,1398664.8321151733,3036663.770675659,513998.21043014526,3298970.937728882,848739.2067909241,-3279233.21723938,4084917.0684814453,-3613364.2196655273,-2556315.1836395264,-563253.8199424744,-2500982.9998016357,-1909611.1059188843,1827347.0401763916,-1321822.8816986084,-7063832.2830200195,-75186.15573644638,-6716615.676879883,-5608385.08605957,-4264111.9956970215,-552373.9457130432,-1977591.5145874023,881607.8305244446,1420111.894607544,-5170145.9884643555,-5604003.90625,-6916421.413421631,-12431607.246398926,-4486281.394958496,-7418327.808380127,-5942541.122436523,-7604935.646057129,-7980323.791503906,-4181900.5012512207,-7675014.972686768,-7737215.042114258,-6888063.907623291,-9601675.033569336,-6774918.079376221,-9156940.460205078,-9449817.657470703,-5728759.765625,-12085079.193115234,-9943386.07788086,-10071826.934814453,-10421608.924865723
0.225,3180765.151977539,1685095.5486297607,6516937.255859375,-139987.48362064362,-1341647.2673416138,-2494787.4546051025,548098.087310791,653650.4030227661,551356.0175895691,58384.351432323456,2063711.8816375732,7675589.084625244,-3312083.0059051514,-1188433.051109314,-1392379.1646957397,2255747.079849243,-2301886.558532715,-498548.56729507446,1726312.756538391,-240109.05623435974,2779541.254043579,-92430.0104379654,-2831783.2946777344,6377373.218536377,-3215638.3991241455,-3253706.693649292,-2006457.805633545,-3206891.5367126465,-1099865.7941818237,2473535.5377197266,-892748.6538887024,-6186102.867126465,1977510.8098983765,-5983206.748962402,-6308932.304382324,-4635638.71383667,-473234.3554496765,-19420.39653658867,2637678.623199463,3359716.6538238525,-1344501.4953613281,-2627698.1830596924,-5114245.891571045,-11864624.0234375,-5218959.331512451,-5768090.724945068,-3321613.311767578,-3951804.8763275146,-3637016.2963867188,806855.9169769287,-4708105.564117432,-4714289.665222168,-5670557.975769043,-6123329.162597656,-2028249.740600586,-4435040.9507751465,-4890688.419342041,-746748.685836792,-8331476.211547852,-6401412.010192871,-5264696.5980529785,-5017222.881317139
0.23,-333593.7559604645,-1806336.2836837769,5578534.6031188965,-3174980.1635742188,-4698394.298553467,-3206713.4380340576,-819359.9581718445,-807245.9101676941,-5013167.381286621,-3735249.9961853027,-1674940.4668807983,7298513.412475586,-3034207.344055176,1662109.7326278687,-1915867.6862716675,1742830.1572799683,-4337309.36050415,-3748355.1502227783,-2137717.7238464355,-2461981.0581207275,2134376.7642974854,1390519.142150879,-78088.23138475418,5842037.200927734,-4186096.19140625,-4284036.159515381,-5145962.715148926,-4588169.097900391,-830517.3516273499,3228531.5990448,960100.7103919983,-3273143.768310547,928258.2998275757,-6642601.013183594,-7997069.358825684,-4232952.117919922,-604781.3296318054,1816932.3205947876,6520630.836486816,7214249.610900879,4132841.5870666504,2470122.0989227295,-1618741.750717163,-10208715.438842773,-3896783.5903167725,-393333.43505859375,1688934.2069625854,2285435.438156128,3140209.197998047,8231248.85559082,-666933.5961341858,-554558.6943626404,-3991844.892501831,1099621.057510376,6401061.534881592,5286518.573760986,4613050.937652588,6208019.256591797,-3688167.5720214844,-822415.4710769653,5146728.515625,2813579.320907593
0.235,-5218141.078948975,-5507717.132568359,9167341.232299805,-2975127.4585723877,-7132453.441619873,-6224882.60269165,-1099533.6771011353,-909516.7517662048,-9200150.489807129,-6098621.845245361,-3188558.1016540527,10038965.225219727,-286928.2364845276,6104983.806610107,-4941956.520080566,1505671.2627410889,-4951354.026794434,-6357488.15536499,-5333695.888519287,-3194280.3859710693,3367720.127105713,4488138.675689697,2252781.629562378,2802761.7931365967,-6736258.029937744,-5393837.928771973,-8689237.594604492,-5548050.403594971,-326674.75938796997,3383337.4977111816,2755585.4320526123,-2028831.2435150146,-3052069.902420044,-8808823.585510254,-9513678.550720215,-3260287.284851074,-789122.4026679993,2446924.6864318848,8784875.869750977,9118053.436279297,6152824.401855469,5940127.372741699,1448927.7601242065,-8195421.21887207,-478526.35383605957,5378411.293029785,5040498.733520508,5353384.017944336,5819930.076599121,10848663.330078125,695808.3510398865,966354.0124893188,-5082325.458526611,6769488.81149292,9483428.955078125,10606094.360351562,9729753.494262695,9424104.690551758,-1082430.2434921265,1928164.6013259888,12419401.168823242,6030229.568481445
0.24,-7802026.748657227,-6601755.619049072,12565246.58203125,-1580270.528793335,-7963357.925415039,-9330181.121826172,-1489232.5401306152,-1064970.61252594,-9946284.294128418,-5825092.315673828,-2015047.7886199951,11886888.50402832,-85984.67707633972,5460928.440093994,-7897211.074829102,837158.8587760925,-4619865.417480469,-6298886.299133301,-4720019.817352295,-1949657.5593948364,4453435.42098999,4182456.4933776855,-529203.2361030579,244319.67735290527,-8721607.208251953,-5995295.524597168,-9370249.74822998,-4750243.663787842,-144759.9232196808,1784682.273864746,1324642.6582336426,-5761609.5542907715,-6120807.647705078,-10359876.63269043,-9167014.122009277,-2226665.496826172,-779740.0951385498,1867823.839187622,7045285.701751709,6439163.2080078125,2023838.5200500488,4952040.672302246,1218840.7182693481,-7408104.89654541,1917394.3996429443,7045491.695404053,4549068.450927734,2784989.595413208,2229089.9753570557,6087260.723114014,-1783944.845199585,-1538303.4944534302,-8171546.936035156,6415272.235870361,5148157.596588135,6726539.134979248,5794249.057769775,6014881.610870361,-2387481.451034546,-285665.7803058624,9332350.730895996,2117610.216140747
0.245,-5384932.994842529,-4332132.339477539,9990637.77923584,-2053320.1694488525,-7918952.941894531,-9775157.928466797,-2752319.812774658,-2346019.506454468,-7028321.743011475,-3835766.315460205,-878228.1279563904,8851943.016052246,-4821349.143981934,-1619085.9079360962,-8383312.225341797,-520098.2689857483,-4541411.399841309,-3658841.371536255,-1365622.878074646,-1092979.3119430542,2388618.9460754395,-1069129.7054290771,-7455512.523651123,-234277.8593301773,-8044213.29498291,-5206723.690032959,-5786808.013916016,-2373840.093612671,-1230493.9031600952,-1285895.3475952148,-3292295.217514038,-11714039.80255127,-6618059.158325195,-9709874.153137207,-6856290.340423584,-1328890.323638916,-510990.2024269104,846536.7555618286,3005661.725997925,1265535.4738235474,-4592106.342315674,554448.8430023193,-2489166.9750213623,-8272462.844848633,752202.3916244507,3975989.818572998,1637852.7879714966,-2340800.0469207764,-3339667.797088623,-911876.2016296387,-5537950.9925842285,-5528653.621673584,-9667423.248291016,1384485.2447509766,-362859.18951034546,-988534.6293449402,-1783882.49874115,-431974.26199913025,-6297207.832336426,-4554812.908172607,-102563.7835264206,-3912187.337875366
0.25,-236781.23950958252,-466919.33274269104,4452752.590179443,-2939157.009124756,-7606361.865997314,-7370902.538299561,-3072622.299194336,-2842888.116836548,-2756484.7469329834,-2023151.159286499,-1455161.8099212646,3578403.7113189697,-10093109.130859375,-7770553.5888671875,-6787943.363189697,-712384.3431472778,-4004027.3666381836,-615733.7427139282,565018.6538696289,-2393967.1516418457,-1905403.3756256104,-6047089.099884033,-11601492.881774902,541590.9886360168,-5140823.841094971,-2661910.057067871,-773686.8262290955,-417827.5763988495,-3146204.710006714,-4011839.8666381836,-6906723.0224609375,-13696417.808532715,-6371428.489685059,-7634549.617767334,-4329249.382019043,-172773.3314037323,-184364.97449874878,141367.49505996704,291228.62219810486,-1791484.4751358032,-7358361.24420166,-2659575.7007598877,-5982537.269592285,-8905068.397521973,-1785698.8906860352,462426.15580558777,-627289.4740104675,-5340799.808502197,-5494071.960449219,-3564364.6717071533,-6825325.965881348,-6946528.911590576,-7943145.275115967,-2362128.734588623,-1510503.1728744507,-4212492.942810059,-4858365.535736084,-3194700.241088867,-8755290.985107422,-6253098.964691162,-5054753.78036499,-5284572.124481201
0.255,2462999.3438720703,2098607.063293457,4101974.9641418457,-972141.683101654,-7399091.720581055,-4467970.371246338,-742703.7954330444,-491095.4535007477,-766252.8157234192,-1996633.768081665,-2813168.76411438,2129179.000854492,-10420075.416564941,-6277503.967285156,-5139514.923095703,1843863.4872436523,-2008769.0353393555,265329.509973526,-1324152.8272628784,-4792093.753814697,-4286386.013031006,-5434051.990509033,-8764164.924621582,1530661.4637374878,-2521239.757537842,330758.60142707825,1104507.4462890625,-724260.4494094849,-4133200.168609619,-4689426.898956299,-6015043.73550415,-9962869.644165039,-6418721.675872803,-5894176.006317139,-3378228.187561035,1387127.161026001,-84230.39317131042,371157.07993507385,857716.6199684143,-433742.1655654907,-4150147.9148864746,-881967.0677185059,-5337921.142578125,-7193923.9501953125,-1085168.8385009766,1156168.1032180786,-35719.95347738266,-4151128.7689208984,-2897983.7894439697,-566836.7743492126,-4172060.966491699,-4100187.301635742,-4888587.474822998,-329493.7312602997,1306099.534034729,-713208.4965705872,-1438598.0367660522,488906.02588653564,-6741794.109344482,-3651044.8455810547,-437787.17517852783,-667856.5144538879
0.26,578531.8613052368,1735151.2908935547,10449567.794799805,2582929.1343688965,-7998247.146606445,-3540786.5047454834,2119853.734970093,2649171.3523864746,-3184129.7149658203,-4336625.099182129,-3860914.707183838,5577694.416046143,-6410458.087921143,248755.03778457642,-4705135.822296143,5051383.495330811,-412527.02474594116,-2108060.598373413,-5234352.111816406,-5946047.306060791,-2599952.6977539062,-721098.1249809265,-2797748.327255249,2720376.491546631,-2095512.1517181396,1306236.2670898438,-1746445.7750320435,-2920542.2401428223,-2963876.962661743,-3003711.223602295,-1780628.8003921509,-5040125.846862793,-5257806.777954102,-5179735.18371582,-4297449.588775635,2526991.367340088,-306699.12695884705,1874897.7184295654,3904884.5767974854,3611864.0899658203,1422635.0784301758,4772222.04208374,-862373.8884925842,-3816057.2052001953,3401150.941848755,5918192.8634643555,3421956.0623168945,-75678.32618951797,1853972.07736969,4493342.876434326,480749.33886528015,822946.5484619141,-3096460.1039886475,6094684.600830078,5075161.933898926,5347428.321838379,4347105.026245117,6815340.518951416,-1668821.930885315,1081601.3813018799,8603961.944580078,5641041.278839111
0.265,-2997014.5225524902,-364157.5574874878,16731649.398803711,3262899.63722229,-9590697.288513184,-5156939.506530762,1692928.7910461426,2442700.3860473633,-8591427.80303955,-7852777.481079102,-4778401.3748168945,9291153.907775879,-2930238.2469177246,4624258.518218994,-5533308.982849121,4947704.315185547,-2129135.1318359375,-6502188.205718994,-7837747.573852539,-4858248.233795166,1309774.0411758423,2969752.788543701,347259.9983215332,3825503.8261413574,-3702456.7127227783,-883982.4199676514,-6730061.054229736,-4965833.66394043,-89835.45750379562,244857.25164413452,2323388.8149261475,-2994017.8394317627,-2797296.5240478516,-5364405.632019043,-6273403.167724609,2301604.0325164795,-668060.0047111511,4134503.8414001465,7414629.936218262,7398520.469665527,5371627.330780029,9364849.090576172,3370210.647583008,-1796564.8174285889,6981824.87487793,10292869.567871094,7522253.036499023,3972634.792327881,5658998.966217041,8174906.7306518555,3656162.977218628,3989518.642425537,-3524280.548095703,11572660.446166992,7984592.914581299,9507656.09741211,8313313.4841918945,10411184.310913086,2153538.942337036,4600856.304168701,14479424.476623535,9518812.17956543
0.27,-4476089.000701904,-1238334.059715271,18414308.547973633,863124.5493888855,-10712189.674377441,-7636115.550994873,-1673466.682434082,-939224.898815155,-13153007.507324219,-9839394.569396973,-5373763.084411621,10412083.625793457,-1840268.3734893799,5666172.981262207,-7090463.638305664,1391300.3206253052,-6123034.477233887,-10114052.772521973,-8092224.12109375,-2509420.63331604,4775013.446807861,4572636.127471924,913869.6789741516,4044929.5043945312,-5842515.94543457,-4371044.635772705,-10306164.741516113,-5661026.477813721,2921577.9304504395,3834383.726119995,5143109.321594238,-2304068.3269500732,-2295794.2485809326,-6475159.168243408,-8429242.134094238,1118551.49269104,-897644.5198059082,5801634.788513184,9892484.664916992,9924338.340759277,7949576.377868652,9888434.410095215,4466922.283172607,-2648216.724395752,6138970.851898193,10974178.314208984,9478244.78149414,5720077.991485596,7462284.564971924,10136408.805847168,3606363.05809021,3741615.7722473145,-5749294.757843018,12722777.366638184,9125838.279724121,10993032.455444336,9786175.727844238,10584730.14831543,2722283.6017608643,5552309.989929199,15702477.45513916,11019589.4241333
0.275,-3523570.2991485596,599951.8036842346,18893838.88244629,332014.4712924957,-9711783.409118652,-8530698.776245117,-3182818.651199341,-2505569.9348449707,-14451581.954956055,-8675724.029541016,-4539637.565612793,11207807.540893555,-666582.1671485901,8391970.63446045,-8323333.740234375,-995565.5336380005,-7778572.082519531,-10980719.566345215,-7711402.893066406,-767162.5018119812,6868860.721588135,7050377.368927002,3646650.791168213,3751130.1040649414,-7107790.470123291,-6034330.368041992,-11443320.274353027,-5849528.789520264,4502317.905426025,6276319.50378418,7839789.867401123,548845.4699516296,-5601689.338684082,-8123763.084411621,-10072029.113769531,518012.4640464783,-901177.6447296143,5979742.050170898,10849019.050598145,11944450.378417969,11690136.909484863,8665035.247802734,3700725.0785827637,-4330000.400543213,3338481.1878204346,9450044.631958008,8717912.673950195,5249364.376068115,8380226.135253906,11973458.290100098,1919809.2222213745,2076376.19972229,-8544469.833374023,11370015.144348145,8311496.734619141,11829289.436340332,10555755.615234375,11138600.34942627,2590447.9026794434,5405871.868133545,16406578.063964844,12712031.364440918
0.28,-2703016.757965088,3215292.21534729,22168565.75012207,3859509.229660034,-7574456.691741943,-7112756.252288818,-404846.2510108948,369358.3011627197,-13957863.807678223,-6229127.883911133,-2520495.891571045,13638788.223266602,1739724.87449646,14515576.362609863,-8144005.77545166,941676.7954826355,-5321131.229400635,-9963376.04522705,-8515387.535095215,-861542.0460700989,7500398.635864258,10799669.26574707,9397549.629211426,4333210.468292236,-7182669.639587402,-5086508.274078369,-11685749.053955078,-6834859.371185303,4069372.6539611816,6439057.82699585,10498833.656311035,5115641.117095947,-9371145.248413086,-9034175.872802734,-10800806.045532227,1169413.8050079346,-776780.1880836487,5273495.197296143,10582524.299621582,13806765.55633545,16608354.568481445,9641780.853271484,3789092.3023223877,-4138085.36529541,3170596.5995788574,9452920.913696289,7636926.174163818,4801477.909088135,9961665.153503418,14709777.83203125,1433667.6597595215,1917481.4224243164,-10151528.358459473,11565051.078796387,7408063.4117126465,14004475.593566895,12428663.25378418,14554682.731628418,4949943.542480469,6386840.343475342,19851284.02709961,15723950.386047363
0.285,-4239975.452423096,3054278.85055542,25120674.13330078,6658242.702484131,-7567150.592803955,-5634519.100189209,2670119.7624206543,3575524.8069763184,-14918136.596679688,-6051585.674285889,-1653819.6802139282,15179323.196411133,2512830.7342529297,18533664.70336914,-7150142.192840576,4125331.8786621094,-2693480.0148010254,-9626141.548156738,-10195846.557617188,-2150970.220565796,6623079.299926758,12170505.52368164,13009834.289550781,5392122.745513916,-7237914.085388184,-3999339.1036987305,-12697486.877441406,-8323572.158813477,2748623.847961426,4908245.086669922,11531975.746154785,7526824.951171875,-9665164.947509766,-8732502.937316895,-11137978.553771973,1777679.5625686646,-603151.3810157776,5053883.075714111,9971262.93182373,14749396.324157715,19495035.17150879,12503264.427185059,4658457.279205322,-2692212.1047973633,5521086.2159729,11782318.115234375,8553218.841552734,6069035.530090332,12061001.777648926,17400150.299072266,2462531.805038452,3183978.55758667,-9873876.571655273,14057211.875915527,8723332.405090332,17223859.786987305,15326980.590820312,18268274.307250977,8676842.68951416,8393153.190612793,24425888.061523438,18283542.63305664
0.29,-8818178.176879883,-1689379.4536590576,21818193.435668945,3424280.4050445557,-11444511.413574219,-7491572.856903076,731007.45677948,1618020.77293396,-18314884.185791016,-8974304.19921875,-3298962.5930786133,13208098.411560059,-490584.46288108826,15523036.95678711,-8219818.115234375,3132149.2195129395,-3995628.595352173,-10942491.53137207,-10915096.282958984,-2300088.1671905518,5547426.223754883,9645143.508911133,10450188.636779785,3945787.6682281494,-9179899.215698242,-5329988.956451416,-14530251.502990723,-8766382.217407227,2854697.9427337646,4021035.1943969727,10563702.583312988,5782807.82699585,-8537932.395935059,-9069543.838500977,-12411838.53149414,714780.1518440247,-366132.4083805084,5833308.219909668,10010015.487670898,14208465.576171875,17955059.051513672,12839923.858642578,3799354.314804077,-3197120.6665039062,5921000.957489014,13426499.366760254,10411571.502685547,7835115.909576416,12599861.145019531,17736837.38708496,2088678.3599853516,2668929.8152923584,-9869256.973266602,15301344.871520996,10916531.562805176,18713188.17138672,16798574.447631836,17813962.936401367,9247653.007507324,8413028.717041016,25830865.85998535,17595170.974731445
0.295,-16212572.09777832,-9742216.110229492,12731457.710266113,-4250026.226043701,-17196334.838867188,-13713472.366333008,-5894011.0206604,-5084335.3271484375,-22114873.8861084,-12237215.042114258,-5610446.453094482,10232043.266296387,-4563390.731811523,8420073.509216309,-13705211.639404297,-2726385.8318328857,-7877617.359161377,-12285958.290100098,-9823886.87133789,213785.0522994995,6604361.534118652,6917809.963226318,4193178.653717041,-1826701.1642456055,-13646071.434020996,-8492653.846740723,-16064113.61694336,-7552196.025848389,5484336.853027344,5331307.411193848,9312412.26196289,1567471.7426300049,-11662950.51574707,-12108930.587768555,-14967439.651489258,-1570795.5360412598,-141263.81278038025,6861824.035644531,10842879.295349121,12603837.966918945,13172310.829162598,8126225.471496582,362350.9705066681,-6733477.1156311035,2402620.315551758,11935800.552368164,10058059.692382812,7375506.87789917,9933974.266052246,14175909.996032715,-2142917.8714752197,-1819568.395614624,-13312529.563903809,12374332.427978516,9572574.615478516,15679358.48236084,13985734.939575195,12340296.745300293,4371217.727661133,3816861.391067505,21812541.961669922,12494985.580444336
0.3,-24285699.84436035,-17396854.400634766,4892922.878265381,-9833083.152770996,-21017990.112304688,-21155704.498291016,-11726562.5,-10851854.32434082,-23845058.44116211,-13161103.248596191,-5841978.073120117,10717761.039733887,-5577355.861663818,3898495.674133301,-21533014.29748535,-8608929.634094238,-9959513.664245605,-11944468.49822998,-8196238.5177612305,3723572.4925994873,9809923.17199707,7355033.874511719,-521446.0492134094,-8982551.574707031,-18273866.653442383,-10473373.413085938,-16283107.75756836,-5859268.665313721,8651083.946228027,7429540.634155273,8811201.095581055,-2791601.6578674316,-19360839.84375,-16415981.29272461,-16760734.558105469,-2701007.843017578,-139977.96177864075,7182519.912719727,11305522.918701172,10501686.096191406,8042407.989501953,1262219.5482254028,-3189395.9045410156,-10160573.00567627,-1489290.8334732056,8767689.70489502,6619835.85357666,4078855.514526367,5029000.282287598,7762932.300567627,-8628334.045410156,-8250147.819519043,-19766126.63269043,7128197.193145752,3378859.519958496,8515245.43762207,6939205.169677734,5380689.1441345215,-3143441.915512085,-4008979.7973632812,14276035.30883789,4656191.825866699
0.305,-27909564.971923828,-19871700.286865234,3616676.8074035645,-9082214.35546875,-20462757.110595703,-24501705.169677734,-12277918.815612793,-11224150.657653809,-22308824.53918457,-11649875.64086914,-3568991.6610717773,14616024.9710083,-3433122.158050537,3915529.489517212,-25716342.92602539,-9785184.860229492,-8654943.466186523,-10167003.631591797,-7600386.619567871,4919454.574584961,11955427.169799805,9023127.555847168,-1927706.8376541138,-12073783.874511719,-19109399.795532227,-9334759.712219238,-14931988.716125488,-5060307.97958374,9177323.341369629,7664582.7293396,8027112.96081543,-6264436.721801758,-24623073.57788086,-17737340.927124023,-15141106.605529785,-1173708.438873291,-412419.6767807007,6611666.679382324,10253910.064697266,8112195.96862793,4141698.3604431152,-2843446.731567383,-4156952.8579711914,-9818248.748779297,-1722292.5424575806,7192199.230194092,2914803.5049438477,513350.36754608154,694087.4457359314,1689750.6713867188,-13072813.034057617,-12372806.549072266,-24288749.69482422,4004182.815551758,-3011466.9799804688,1113887.3100280762,-533878.3264160156,570501.983165741,-8563021.659851074,-10365264.892578125,7350474.834442139,-2344746.3512420654
0.31,-22226934.4329834,-13956006.050109863,7735491.752624512,-2729959.011077881,-15552082.061767578,-20359069.82421875,-7338855.743408203,-6188905.239105225,-17127925.872802734,-8518720.626831055,-236200.39224624634,17766942.977905273,-1341621.994972229,5175988.19732666,-21948129.653930664,-5730650.901794434,-5533540.24887085,-7824198.7228393555,-7528624.534606934,3028234.9586486816,10778870.582580566,8216717.720031738,-1797813.4155273438,-8635160.446166992,-14511630.058288574,-5910431.861877441,-12350628.852844238,-5039749.1455078125,6620777.130126953,5741985.79788208,6177628.040313721,-7968112.945556641,-21760515.213012695,-14110930.442810059,-10222770.690917969,1751909.613609314,-656236.7677688599,5625477.313995361,8355480.194091797,5969542.503356934,1565177.2022247314,-2526595.3540802,-2798461.9140625,-6173877.239227295,801278.7103652954,8050038.3377075195,1886504.4116973877,-690860.390663147,-1259509.4442367554,-1367797.9707717896,-13241765.975952148,-12395181.655883789,-22948478.69873047,4632309.913635254,-4558045.864105225,-2677752.97164917,-4316763.401031494,-1512582.0636749268,-9845320.701599121,-11942797.660827637,3786830.186843872,-5393037.796020508
0.315,-9127929.6875,-1962027.0729064941,13105709.075927734,5866780.2810668945,-8684242.248535156,-10333679.19921875,534129.4407844543,1665817.6183700562,-9494466.781616211,-4127012.7296447754,3018357.753753662,18014814.376831055,-819896.6979980469,5705914.497375488,-12244639.39666748,1039559.4835281372,-1605216.2647247314,-4895985.6033325195,-6284114.360809326,880419.7907447815,8391495.704650879,5535478.591918945,-1114088.535308838,-1114362.2398376465,-7231557.369232178,-2223903.6560058594,-9440180.778503418,-4778175.830841064,4025331.497192383,4082302.0935058594,4676347.255706787,-6764762.878417969,-13492775.917053223,-8539192.199707031,-5376926.898956299,3647001.266479492,-566971.1232185364,4764852.046966553,7709057.331085205,5234663.486480713,809010.5652809143,480191.08176231384,-995201.7664909363,-2970859.2891693115,2331228.9714813232,9468157.768249512,3187417.0303344727,245872.21443653107,-1163725.1377105713,-1054222.2261428833,-10780111.312866211,-10125891.68548584,-17932630.53894043,6853308.200836182,-1973155.14087677,-2232634.0675354004,-3659721.851348877,-1555152.5354385376,-8106582.6416015625,-9642662.048339844,3820597.1717834473,-3705093.8606262207
0.32,1971976.7570495605,7926930.904388428,17119592.666625977,12605971.336364746,-4095099.449157715,-443122.9531764984,7857748.985290527,9003180.503845215,-3850358.247756958,-229697.46589660645,5298241.138458252,17134124.755859375,-537737.6675605774,7233044.147491455,-3186026.3347625732,7492382.526397705,2898700.475692749,-2012007.474899292,-4270450.115203857,972014.7252082825,8271833.419799805,4701250.5531311035,968713.9987945557,6140292.644500732,-1854506.6118240356,438531.90541267395,-7731361.865997314,-4119987.0109558105,4133678.913116455,4416769.981384277,5257057.666778564,-3213584.6614837646,-6825460.910797119,-5300235.748291016,-3723257.541656494,3853217.363357544,-277535.73656082153,4320442.676544189,9252262.115478516,6463176.250457764,2774131.7749023438,4505084.037780762,933400.0945091248,-2216590.8813476562,2051205.6350708008,10154902.458190918,4313149.452209473,1211957.8123092651,-127066.62714481354,1202726.4833450317,-8287586.212158203,-7806718.826293945,-14929641.723632812,8597421.646118164,103837.38577365875,225346.93777561188,-1074390.5305862427,818828.7019729614,-5160750.389099121,-6510254.383087158,6472170.352935791,957341.8498039246
0.325,2868072.748184204,8552291.870117188,18868980.407714844,13910781.860351562,-5023904.323577881,3331730.365753174,11084818.840026855,12307720.184326172,-5277429.580688477,-292480.1707267761,5228714.466094971,16896608.352661133,404169.9767112732,10757892.608642578,180811.46478652954,10891502.380371094,5794333.457946777,-1711555.6001663208,-4324236.869812012,2252895.8320617676,10352028.846740723,6737266.063690186,4341493.606567383,10112120.628356934,-544918.5371398926,1525570.034980774,-8566994.667053223,-3994148.015975952,6209784.984588623,5768103.59954834,7463575.36315918,22148.028016090393,-4611207.962036133,-5210283.7562561035,-5052875.518798828,3789004.8027038574,-185871.1838722229,4291227.340698242,11443702.697753906,8623871.803283691,6783793.4494018555,8869628.90625,3821380.853652954,-2263270.854949951,2478956.460952759,10742346.76361084,3991741.418838501,1172588.9444351196,1236660.5997085571,3735155.8208465576,-6407042.503356934,-5760257.720947266,-16167152.404785156,10085122.108459473,-508785.4266166687,2265928.7452697754,759704.58984375,5555673.122406006,-2312859.535217285,-4305494.30847168,10451692.581176758,5565010.070800781
0.33,-4443894.386291504,1680681.9438934326,18110944.747924805,9830009.460449219,-9786419.868469238,27143.90680193901,8829549.789428711,10065652.847290039,-13016663.551330566,-5069768.42880249,2669540.4052734375,16911230.087280273,1182546.2579727173,13883359.909057617,-2113135.0994110107,9633718.490600586,4248998.641967773,-5390687.465667725,-7578119.277954102,2333755.7315826416,11769317.626953125,9077019.691467285,7015247.821807861,9723689.079284668,-2170889.6160125732,668483.9725494385,-11571628.57055664,-4885740.756988525,7664426.326751709,6550195.693969727,9520220.756530762,1071389.1983032227,-4749186.038970947,-6331710.8154296875,-7000266.075134277,4441792.4880981445,-394458.532333374,4435511.589050293,12304349.899291992,10140162.467956543,10186631.202697754,11707635.879516602,6452317.714691162,-1421942.5916671753,4402944.087982178,11627449.035644531,3097211.5993499756,960216.760635376,2470342.6361083984,5299699.306488037,-4925505.1612854,-3988763.8092041016,-18671333.31298828,11651055.335998535,-1928306.8180084229,2845577.4784088135,1043456.4352035522,9696101.188659668,-947875.2613067627,-3157887.2203826904,13694312.09564209,7522810.935974121
0.335,-9974123.95477295,-3461833.0001831055,16158143.997192383,5485375.40435791,-12406557.083129883,-5543844.699859619,4110003.94821167,5268795.490264893,-19258234.02404785,-9764630.317687988,294053.3757209778,16955841.064453125,1559607.8634262085,14429739.952087402,-6548752.307891846,5134977.340698242,-403823.73332977295,-9860285.758972168,-10831436.157226562,1277883.0528259277,11497026.443481445,10082859.03930664,7781406.879425049,6064300.060272217,-4782540.321350098,-1600025.2962112427,-14375990.867614746,-5971658.706665039,7535349.369049072,6937498.569488525,10746949.195861816,970697.9393959045,-5614982.128143311,-7594283.103942871,-8143214.225769043,4937890.05279541,-616097.092628479,4473043.441772461,11916643.142700195,10579279.899597168,11091467.85736084,10440924.644470215,5850271.701812744,-975589.5733833313,4973425.86517334,11717024.803161621,2801227.569580078,1459381.103515625,2935273.4088897705,5460903.167724609,-4685385.704040527,-3764446.020126343,-19142526.626586914,12153257.369995117,-2036123.0373382568,2411173.3436584473,671165.6451225281,9648483.276367188,-1925042.3908233643,-3006400.3467559814,14207623.481750488,6319917.20199585
0.34,-7191344.261169434,-656771.8386650085,15997109.413146973,6196982.383728027,-9257370.948791504,-7554959.297180176,2133706.80809021,3262812.1376037598,-17730226.516723633,-9113529.205322266,999664.9622917175,18295963.287353516,2850188.2553100586,14075819.01550293,-9415585.5178833,1755214.4527435303,-2881840.467453003,-10354212.760925293,-10341365.814208984,1119314.193725586,11404338.836669922,11163874.626159668,8036863.327026367,2714503.765106201,-7103431.701660156,-3320966.2437438965,-14945291.519165039,-6202745.43762207,6947640.419006348,7948661.327362061,11848483.085632324,1996876.7166137695,-7643705.84487915,-9081599.235534668,-8642974.853515625,4271987.438201904,-648098.349571228,4428613.662719727,11978643.417358398,10894285.202026367,11028918.266296387,6278023.719787598,2172026.3957977295,-2512091.875076294,2500751.256942749,10666901.588439941,3390068.292617798,2664762.020111084,2982148.6473083496,5496205.3298950195,-5931739.330291748,-5339665.88973999,-17590166.091918945,11503661.155700684,-717293.2028770447,2684390.3064727783,1370502.7103424072,6720322.608947754,-3548525.810241699,-3177042.245864868,13060466.766357422,4661753.177642822
0.345,702667.8919792175,6998990.058898926,19151374.81689453,11378084.182739258,-3308669.8055267334,-4453504.0855407715,4930817.127227783,6096987.724304199,-11124381.065368652,-3998905.4203033447,4332454.681396484,21227552.41394043,5490684.509277344,15731179.237365723,-8455780.029296875,2998362.0643615723,-511818.2301521301,-6782049.655914307,-6824292.6597595215,2540035.0093841553,12793923.377990723,13608562.469482422,9719944.953918457,3747012.8536224365,-7636733.055114746,-2661377.191543579,-13795396.80480957,-5562057.018280029,6808740.139007568,9330824.851989746,13208556.175231934,4754225.254058838,-9550272.941589355,-9423926.35345459,-8439312.934875488,3285167.2172546387,-603707.7903747559,4590380.1918029785,13229030.60913086,12034372.329711914,13178107.261657715,5103414.058685303,339078.00912857056,-4168520.450592041,56654.74012494087,10241342.544555664,4586227.4169921875,4434620.380401611,4255365.84854126,7719506.26373291,-6085479.259490967,-5739367.961883545,-15311061.85913086,12208466.529846191,1589274.8832702637,5401893.138885498,4414852.142333984,6987345.6954956055,-2235698.938369751,-1505486.7267608643,14328125.0,6635976.314544678
0.35,6249145.030975342,12179042.81616211,23064292.907714844,15772294.044494629,129267.64786243439,369956.01654052734,9435577.392578125,10517110.824584961,-6789086.818695068,233420.2378988266,7459188.938140869,23734544.75402832,7758081.436157227,18964725.494384766,-3985457.8971862793,7649658.203125,3307241.678237915,-3796271.800994873,-4182116.0316467285,4278465.270996094,14680865.287780762,16214427.947998047,12495954.513549805,9120948.791503906,-5095817.565917969,-173662.7072095871,-13025321.006774902,-4801961.898803711,6828897.953033447,10018973.350524902,14303568.840026855,7736997.604370117,-8288974.761962891,-6820094.108581543,-7054746.150970459,3556923.8662719727,-589147.2697257996,5064839.839935303,14559823.036193848,13798054.695129395,17787546.157836914,10327041.625976562,3667102.336883545,-2936433.792114258,1367581.7251205444,11634911.53717041,5773458.480834961,6769471.645355225,7356479.644775391,12342043.87664795,-2683468.818664551,-2291236.400604248,-12675644.874572754,15637177.467346191,4553376.6746521,9920042.037963867,8847540.855407715,13361533.164978027,2886378.288269043,3178327.798843384,19672945.022583008,12787791.25213623
0.355,6236650.9437561035,11739096.641540527,23472005.84411621,16227846.145629883,-1570.559572428465,2244316.577911377,11285077.095031738,12109097.480773926,-7072811.603546143,1018968.3437347412,8920394.897460938,23962219.23828125,8005723.95324707,20365451.81274414,86263.9769911766,10663969.993591309,4027090.549468994,-4139706.1347961426,-4102892.8756713867,5317308.9027404785,15802794.456481934,17197263.717651367,13943009.376525879,13210675.239562988,-1269823.3127593994,1510884.0465545654,-13357073.783874512,-4440001.010894775,6640330.3146362305,9979916.5725708,14565015.79284668,8917162.895202637,-4719019.889831543,-3393803.358078003,-5517904.281616211,4853341.579437256,-477973.8485813141,5553931.23626709,14780966.758728027,14953914.642333984,20920644.760131836,16473550.796508789,7704214.572906494,-230198.74095916748,4781502.246856689,12914569.854736328,5921361.923217773,8795857.429504395,9798504.829406738,15728976.249694824,1405977.9644012451,1927657.4850082397,-10828795.433044434,18379438.400268555,6494405.746459961,12637698.17352295,11273337.364196777,20126550.674438477,7184625.625610352,7583235.263824463,24323326.110839844,17719820.022583008
0.36,2934253.692626953,7868202.209472656,19294990.53955078,14045198.440551758,-1079936.8619918823,-905170.1426506042,9033551.216125488,9711881.637573242,-8597824.096679688,106545.73142528534,9022379.875183105,22343053.817749023,6680898.666381836,18193817.138671875,-1469048.1424331665,8302045.822143555,1615575.909614563,-5634333.610534668,-5081461.9064331055,5442258.834838867,16002458.572387695,16601547.241210938,12433226.585388184,10469985.961914062,-979376.6736984253,565586.1496925354,-13610632.89642334,-4629560.470581055,6358633.995056152,10088206.29119873,13980237.007141113,7311341.762542725,-4802990.436553955,-4605741.97769165,-6313485.622406006,5264144.420623779,-183342.24820137024,5784908.294677734,14285320.281982422,14501270.294189453,19282279.96826172,14674164.772033691,4914328.575134277,-1153284.6689224243,5112233.1619262695,11602680.206298828,4655526.161193848,9038530.349731445,8507651.329040527,14170974.731445312,-181003.92818450928,328182.28006362915,-12574706.077575684,16001272.201538086,5169816.017150879,10661576.271057129,9183700.561523438,19229265.213012695,5085634.231567383,6408524.513244629,22094547.271728516,15670313.835144043
0.365,-351810.87255477905,3758300.78125,13911087.036132812,11043118.476867676,-1992019.2956924438,-7206826.686859131,4271762.847900391,5149631.500244141,-9713512.420654297,-1463503.360748291,7535140.037536621,20380140.30456543,5296496.868133545,14749723.434448242,-9247879.028320312,1906599.4024276733,-1138845.8013534546,-6167733.192443848,-6387637.138366699,4037298.2025146484,15211225.509643555,15704025.268554688,9373171.80633545,2404109.001159668,-6463303.565979004,-2306663.2747650146,-13346159.934997559,-5523798.46572876,5869620.800018311,10502478.59954834,13024417.877197266,4059328.556060791,-11597393.989562988,-11870280.265808105,-10082795.143127441,3945717.0963287354,104263.48447799683,5951654.434204102,14445797.92022705,13017263.412475586,15144558.906555176,4823654.1748046875,-4568742.752075195,-7077836.990356445,1213296.2942123413,8869687.0803833,3456699.848175049,7657137.870788574,4508385.181427002,9308909.41619873,-8483084.678649902,-8046145.439147949,-18299875.259399414,9948687.553405762,1455682.396888733,5917924.404144287,4581987.8578186035,11093960.762023926,-2467405.319213867,-244122.17736244202,14266131.401062012,8557293.891906738
0.37,-1975127.935409546,1291383.0280303955,11160650.253295898,7102932.929992676,-3875677.3471832275,-12482502.937316895,-733555.9129714966,458115.6075000763,-12781346.321105957,-5081007.480621338,4077075.481414795,18840084.075927734,4552862.167358398,13404107.093811035,-16992181.7779541,-3810257.911682129,-3545079.469680786,-7674283.504486084,-9224705.696105957,741248.6672401428,13140725.135803223,15149388.313293457,7918398.857116699,-3740154.504776001,-13357913.970947266,-5218639.850616455,-14094298.362731934,-6944623.947143555,4788396.835327148,10447798.728942871,12342525.482177734,1994707.703590393,-19552923.20251465,-18958684.92126465,-13902714.729309082,2270555.4962158203,170446.4703798294,6337421.417236328,15715183.25805664,12319380.760192871,13899320.602416992,-3115736.722946167,-11889060.974121094,-12682687.759399414,-2199798.583984375,8245486.259460449,4243853.0921936035,6964583.873748779,2547771.93069458,6875260.829925537,-16189479.82788086,-15719425.201416016,-23109777.450561523,6650026.321411133,-399258.97121429443,3461944.580078125,2312675.4760742188,4556610.584259033,-8201299.667358398,-5343451.976776123,9127253.532409668,4614263.534545898
0.375,-1829460.2632522583,1249243.140220642,11219045.639038086,2503812.074661255,-6501187.324523926,-14083635.330200195,-4592163.0859375,-3375449.6574401855,-18405000.686645508,-10390398.025512695,400810.3311061859,17981479.64477539,4240651.1306762695,14593525.886535645,-18547407.150268555,-5922639.846801758,-6860904.216766357,-12179977.416992188,-13175449.37133789,-2657647.6097106934,10648140.907287598,14625700.950622559,9158905.982971191,-4049948.215484619,-15742212.295532227,-7260909.080505371,-16823875.427246094,-7956890.58303833,3431295.394897461,9461665.153503418,12068453.788757324,2721744.2989349365,-21680345.53527832,-19640575.408935547,-14871020.317077637,1628286.0040664673,60909.23398733139,6602359.294891357,16826231.002807617,13091665.267944336,16680221.557617188,-2284197.8073120117,-11203995.704650879,-13075626.373291016,-1516965.627670288,10284204.483032227,6379915.714263916,8244933.128356934,4804139.137268066,9037071.228027344,-16854488.372802734,-16279119.491577148,-22257438.65966797,8824368.476867676,1590582.7283859253,5066569.805145264,3985441.207885742,5040837.287902832,-7653909.683227539,-3763652.3246765137,11247461.318969727,7468329.429626465
0.38,-1624217.2718048096,2407364.6068573,11088103.294372559,-842774.0931510925,-8087635.040283203,-13928714.752197266,-7167271.137237549,-6173518.657684326,-22915163.040161133,-14017643.928527832,-1077936.4109039307,17822835.92224121,3716987.8482818604,15426975.25024414,-16144493.103027344,-6039398.670196533,-10482095.718383789,-16961620.330810547,-15227922.439575195,-3631185.293197632,9343111.038208008,13442783.35571289,10152308.464050293,-2889500.379562378,-14289278.984069824,-8707093.238830566,-19637441.635131836,-7741136.55090332,2669386.863708496,7718883.514404297,11142733.573913574,3835969.4480895996,-19957548.141479492,-16627027.51159668,-14287126.541137695,1435940.8617019653,-76283.94663333893,6010810.375213623,16055456.161499023,13281601.905822754,18241228.103637695,1717720.1509475708,-7736911.773681641,-10799420.356750488,548556.7450523376,11606906.89086914,6794604.778289795,9278469.08569336,7326221.942901611,10897963.523864746,-13914038.65814209,-13263859.748840332,-18343666.076660156,11650443.077087402,3542248.249053955,6693955.898284912,5572717.666625977,7640279.293060303,-5176027.297973633,205852.31482982635,15301768.30291748,10839488.983154297
0.385,-4525714.39743042,1297576.0698318481,8757672.309875488,-2193142.4140930176,-9076895.713806152,-16481424.331665039,-9346685.409545898,-8382399.559020996,-24194635.39123535,-14665209.770202637,-1241708.0402374268,17397541.046142578,1970388.412475586,13303259.84954834,-17417612.075805664,-7487890.720367432,-12097717.28515625,-18051675.79650879,-14451635.360717773,-2708608.388900757,9263733.863830566,11146255.493164062,7335992.813110352,-6403321.743011475,-15148607.25402832,-9927988.052368164,-20141954.42199707,-7012272.834777832,2610468.864440918,5528919.696807861,8517881.393432617,1358343.9588546753,-22336404.80041504,-17801298.141479492,-15771835.327148438,425943.523645401,-252139.65773582458,4658959.38873291,13460459.70916748,10562701.225280762,14203942.29888916,-287142.18735694885,-9688324.928283691,-11632809.63897705,-391112.0295524597,10285720.825195312,4191854.953765869,7365640.163421631,5401815.891265869,7359870.433807373,-15299837.112426758,-14560143.47076416,-18400835.037231445,10095380.783081055,902679.8009872437,4236225.128173828,3001279.592514038,5435157.299041748,-7459113.597869873,-1158917.1886444092,14090267.181396484,7970922.470092773
0.39,-11412578.582763672,-3893254.280090332,5499782.562255859,-3383070.468902588,-12104628.562927246,-22676673.889160156,-11886980.056762695,-10616740.226745605,-25383176.803588867,-15581950.187683105,-3337690.591812134,15261522.29309082,-1583322.0481872559,9107311.248779297,-24032653.80859375,-10702379.22668457,-11827861.785888672,-16938636.779785156,-14431831.359863281,-3290761.709213257,8726795.196533203,8199428.558349609,1740006.685256958,-13294289.588928223,-20279924.392700195,-11023394.584655762,-19270891.189575195,-7541493.892669678,2419552.5646209717,3527335.8821868896,5354640.007019043,-4397881.031036377,-29788877.487182617,-24175964.35546875,-19451694.48852539,-1025009.5129013062,-512423.15769195557,3877303.8387298584,11374581.336975098,6274470.329284668,7927634.239196777,-6790921.688079834,-15650423.049926758,-15312593.460083008,-3194120.168685913,9177779.197692871,1529261.9466781616,4051234.245300293,724074.4829177856,1126643.180847168,-20951309.204101562,-20056995.391845703,-23482917.78564453,6656679.630279541,-4148066.0438537598,-107312.20990419388,-1534204.8406600952,574190.4973983765,-13221253.395080566,-7092018.604278564,9418699.264526367,2498239.040374756
0.395,-18039070.12939453,-9943954.467773438,3483548.641204834,-5739582.538604736,-17293291.091918945,-27653451.919555664,-14177335.739135742,-12689606.666564941,-29413331.985473633,-19230787.27722168,-7528253.555297852,11605092.04864502,-5865514.755249023,6010063.171386719,-28543937.68310547,-12832280.158996582,-12701436.996459961,-18886211.395263672,-18135574.340820312,-6685851.573944092,7044029.235839844,5988696.098327637,-1512132.5254440308,-16068916.320800781,-23824644.088745117,-11969953.536987305,-20135864.2578125,-9801344.871520996,1694201.4694213867,2829264.8792266846,4373504.161834717,-8047470.0927734375,-33475017.547607422,-27581056.594848633,-20973712.921142578,-1253109.9319458008,-717918.2171821594,4701494.216918945,11829522.132873535,4608788.013458252,6628402.7099609375,-7618758.201599121,-16540060.043334961,-15670886.039733887,-2756799.2210388184,11689048.767089844,2469636.2018585205,3753769.636154175,-570941.3290023804,-290748.7750053406,-22415935.516357422,-21454330.444335938,-26351919.174194336,7739962.100982666,-4773347.3777771,-400409.7580909729,-2023443.9373016357,1110425.1146316528,-14426787.376403809,-8569538.116455078,9468671.798706055,3645483.97064209
0.4,-19399221.420288086,-12521163.940429688,2132930.278778076,-8101932.525634766,-21428010.940551758,-26795822.143554688,-15048030.853271484,-13795295.715332031,-33776580.810546875,-23074102.4017334,-10158465.385437012,8365424.156188965,-9021931.648254395,5261608.600616455,-25060667.037963867,-12010383.605957031,-15879337.310791016,-24626640.31982422,-22861978.53088379,-9917630.195617676,5432320.117950439,5181259.1552734375,37928.41732501984,-11340891.83807373,-20679349.899291992,-12274554.252624512,-23025470.733642578,-11965044.975280762,981348.5145568848,3696400.8808135986,6020966.053009033,-6043606.281280518,-27444953.91845703,-22377714.157104492,-17539133.071899414,252076.95364952087,-700770.1396942139,6303097.724914551,13750490.188598633,6985703.945159912,11582639.694213867,591019.6304321289,-9341596.603393555,-10255029.678344727,1955664.2770767212,16398288.72680664,6408668.041229248,7368064.403533936,3334193.468093872,5075009.822845459,-15760051.727294922,-14989280.700683594,-21803045.27282715,14098858.833312988,950878.1433105469,4715999.603271484,3056518.077850342,8502346.992492676,-7947045.32623291,-1375072.2408294678,16501779.556274414,12217782.974243164
0.405,-16550424.575805664,-12390473.365783691,-1208386.5404129028,-9363571.166992188,-22888685.22644043,-22173936.84387207,-14637781.143188477,-13821486.473083496,-34355579.3762207,-23759164.810180664,-9544327.735900879,6641599.178314209,-10817443.84765625,4574671.745300293,-18085454.9407959,-10015742.301940918,-18163204.193115234,-28299758.911132812,-23644788.74206543,-10049376.487731934,4592322.34954834,4408305.1681518555,2442268.6100006104,-4567855.8349609375,-14358469.96307373,-10931127.548217773,-24166332.244873047,-11964075.088500977,561041.0571098328,4491990.566253662,7047626.972198486,-1873868.1077957153,-17824081.420898438,-13937110.900878906,-12302833.557128906,2085736.2747192383,-523236.5131378174,6824224.948883057,14010688.781738281,9561831.4743042,16237459.182739258,8855586.051940918,-2107753.276824951,-4646383.762359619,5660676.4793396,18681640.625,9194993.019104004,10297126.770019531,7142229.5570373535,10705846.786499023,-8180030.822753906,-7741333.961486816,-14591902.732849121,19422941.207885742,6815976.619720459,9737460.136413574,8262371.063232422,15088957.786560059,-661759.614944458,7202109.336853027,23100914.001464844,18766901.01623535
0.41,-15090145.111083984,-13519353.866577148,-6554184.913635254,-10272459.983825684,-23562168.12133789,-19744472.50366211,-14105728.149414062,-13437818.52722168,-31574468.6126709,-22409029.006958008,-8548970.222473145,5790134.429931641,-12437279.70123291,1786372.423171997,-16107023.239135742,-9591650.96282959,-16238033.294677734,-25343017.578125,-20177238.46435547,-8260628.700256348,3691140.651702881,2160156.25,835664.9279594421,-2614554.1667938232,-12233553.886413574,-7920464.992523193,-20908758.16345215,-10009680.74798584,-70564.35197591782,3584825.038909912,4798105.716705322,-1426302.7906417847,-14589745.52154541,-11354784.965515137,-10582436.561584473,2767753.3626556396,-374251.8723011017,5726944.923400879,11554488.182067871,8305357.933044434,14981929.779052734,8401036.262512207,-2926952.600479126,-4869522.0947265625,3761804.5806884766,16750419.616699219,8450234.413146973,8447747.230529785,5743056.774139404,10262808.799743652,-8132465.362548828,-7885275.840759277,-13138359.069824219,18658016.204833984,6517657.75680542,9319942.474365234,8094730.377197266,14993141.174316406,-342396.19970321655,8122722.625732422,22233428.955078125,16787015.914916992
0.415,-16669445.037841797,-15649858.474731445,-9416861.534118652,-10819286.346435547,-24263664.24560547,-21128641.12854004,-13439333.91571045,-12608262.062072754,-28704711.9140625,-21927097.32055664,-9324989.318847656,5754495.143890381,-13485870.361328125,-1172473.669052124,-19796751.022338867,-10570085.525512695,-11476649.284362793,-18762109.756469727,-16767400.741577148,-7394483.56628418,2796176.9104003906,-211915.15028476715,-3346694.4694519043,-5336340.427398682,-15508264.541625977,-5390723.22845459,-16041116.714477539,-8184037.208557129,-910661.9954109192,2025709.867477417,1442005.5150985718,-4886023.998260498,-18479654.31213379,-15510333.061218262,-13214631.080627441,2304643.154144287,-313090.11578559875,4362811.088562012,8894649.505615234,4672853.946685791,10162404.06036377,2146981.2393188477,-9446677.207946777,-9454020.500183105,-1623001.5754699707,13370662.689208984,5934189.319610596,3695378.541946411,858875.6322860718,5327044.96383667,-14021203.994750977,-13756544.11315918,-18469635.009765625,13755961.418151855,1333607.0775985718,4578588.485717773,3467078.685760498,11382967.948913574,-5741040.229797363,2271057.8441619873,16053094.863891602,10906009.674072266
0.42,-16847099.30419922,-14285844.802856445,-6010987.758636475,-9029534.339904785,-22590274.810791016,-22353931.427001953,-11618604.66003418,-10693409.91973877,-26537441.25366211,-21697862.62512207,-9477753.639221191,7861004.829406738,-11673981.666564941,-379258.7220668793,-22519313.81225586,-10716576.57623291,-8299042.701721191,-14961056.70928955,-16092868.80493164,-7470154.285430908,3812237.9779815674,397773.02742004395,-4334038.734436035,-7744997.501373291,-18848876.953125,-5778948.783874512,-14543918.60961914,-7776360.034942627,-851589.9181365967,2413239.9559020996,1290855.884552002,-7020784.378051758,-21962837.21923828,-19571809.768676758,-16213298.797607422,1612124.8006820679,-299737.0958328247,3964418.411254883,8600341.796875,3378147.1252441406,7921973.22845459,-1073347.4493026733,-13411128.997802734,-12407462.120056152,-4810941.696166992,11718036.651611328,4337532.997131348,971939.9213790894,-2163369.655609131,1939317.9416656494,-17756820.678710938,-17443273.544311523,-24055957.794189453,9853047.370910645,-2850343.2273864746,520175.63581466675,-623628.7355422974,9978255.271911621,-9704493.522644043,-2364624.7386932373,11649109.840393066,8604040.145874023
0.425,-13369547.843933105,-9266165.733337402,594130.6352615356,-5131567.95501709,-18163702.0111084,-21141191.482543945,-9559273.719787598,-8736021.995544434,-24195348.739624023,-19523277.282714844,-6717094.898223877,11746968.269348145,-7023488.0447387695,4012503.147125244,-21363265.991210938,-9785800.93383789,-8836057.662963867,-15839312.553405762,-16625740.051269531,-6507700.443267822,7185584.06829834,4095652.1034240723,-740836.5607261658,-8162712.097167969,-18923358.917236328,-8598884.582519531,-17046903.610229492,-8008701.324462891,661553.2040596008,4897373.676300049,4497511.863708496,-5150548.934936523,-21061576.84326172,-19557609.55810547,-16468133.926391602,1237176.537513733,-352351.3674736023,4087625.503540039,9809823.989868164,5429575.443267822,9568634.986877441,777407.8249931335,-12105875.968933105,-11618745.803833008,-3842162.847518921,11897206.30645752,3891295.1946258545,1574651.1220932007,-1708731.6513061523,2191928.6251068115,-16471467.971801758,-16178405.76171875,-25284656.524658203,8870829.582214355,-3509332.6568603516,-628889.3818855286,-1792269.229888916,10498126.983642578,-9409361.839294434,-2128250.1220703125,11474425.315856934,9582834.243774414
0.43,-11327266.693115234,-7230170.249938965,2842996.120452881,-3689430.9520721436,-15726226.806640625,-20801111.221313477,-10383641.242980957,-9568445.205688477,-23203008.6517334,-16960863.11340332,-3833157.3009490967,14016094.207763672,-3761562.8242492676,6701018.333435059,-21005022.048950195,-10248571.395874023,-11374416.35131836,-18018705.368041992,-16402290.344238281,-4589270.114898682,9913504.600524902,6744696.617126465,1975137.8297805786,-9705890.655517578,-18286552.42919922,-10738081.932067871,-19246063.232421875,-7580720.901489258,2327888.011932373,6477768.421173096,6498715.877532959,-2870810.9855651855,-19699150.08544922,-18615768.432617188,-15141058.921813965,1108354.5684814453,-472188.5621547699,3747019.5293426514,9789325.714111328,6794400.691986084,10612010.00213623,1864672.303199768,-10428290.367126465,-10410984.992980957,-2052869.5583343506,12072993.278503418,3236425.6381988525,2347697.4964141846,-814443.8862800598,2824106.9316864014,-14928885.459899902,-14634647.369384766,-24168071.746826172,9070035.934448242,-2925227.165222168,-741064.727306366,-1818374.1569519043,8975291.25213623,-8601615.905761719,-610781.9080352783,12064916.610717773,8494629.859924316
0.435,-15351701.736450195,-11808174.133300781,-1614753.9615631104,-7243997.573852539,-18600976.943969727,-24241592.407226562,-14679693.222045898,-13614351.272583008,-25465980.529785156,-17369136.810302734,-4507986.068725586,12573855.40008545,-5241903.781890869,4085425.853729248,-25160066.604614258,-13145341.873168945,-13299411.77368164,-18386171.340942383,-15876785.278320312,-3831589.698791504,9381259.91821289,5178329.4677734375,-604025.3639221191,-13954305.648803711,-19884180.068969727,-10378369.331359863,-17980640.411376953,-6583892.822265625,2546600.818634033,5158010.959625244,4355530.738830566,-4341768.741607666,-21961999.893188477,-20349941.25366211,-14825448.036193848,1098254.0845870972,-541023.3736038208,3190543.8899993896,7933619.499206543,4540005.683898926,7896009.44519043,-1604326.0097503662,-12659336.09008789,-11481378.555297852,-2826896.1906433105,11340592.384338379,1974665.880203247,1032961.1301422119,-1754914.8797988892,1288807.6305389404,-17062166.213989258,-16691244.125366211,-24244894.02770996,8988894.46258545,-3199643.611907959,-1500219.3450927734,-2495172.7390289307,5263952.732086182,-10421763.42010498,-1188173.8901138306,10637789.726257324,4572548.866271973
0.44,-20445037.841796875,-16276353.83605957,-5802151.203155518,-10081408.500671387,-22054756.16455078,-27806381.225585938,-17419666.290283203,-16114858.627319336,-27605258.94165039,-19007328.033447266,-6388418.197631836,10462828.636169434,-8733443.260192871,-337411.8208885193,-29876007.080078125,-15314661.026000977,-13139827.728271484,-16910654.067993164,-15764168.739318848,-4556643.009185791,7379778.861999512,1549071.0735321045,-5405242.919921875,-17497465.133666992,-21902961.73095703,-8811626.434326172,-15029813.766479492,-6221233.84475708,1483303.427696228,2633223.295211792,560818.2549476624,-8253447.532653809,-25632720.947265625,-22963426.58996582,-15439230.918884277,1383468.6279296875,-528646.8267440796,3288551.092147827,6112742.4240112305,900212.0494842529,3870046.615600586,-6324351.3107299805,-16837457.65686035,-13053596.496582031,-5191231.250762939,10435433.387756348,715082.1685791016,-818186.2235069275,-3251708.507537842,-758455.5149078369,-20600196.838378906,-20174037.93334961,-25022531.509399414,9098562.240600586,-3770646.810531616,-2094943.0465698242,-3176390.8863067627,3041146.5167999268,-12973321.914672852,-2427186.965942383,8519274.711608887,2398158.7886810303
0.445,-17312803.268432617,-11864964.485168457,-1967278.1229019165,-4354876.0414123535,-18871654.510498047,-25365953.44543457,-13006285.667419434,-11757602.69165039,-23270586.013793945,-15990609.169006348,-3836329.936981201,12048529.624938965,-8821465.492248535,-445366.5316104889,-28927453.994750977,-12710875.511169434,-10085488.319396973,-14317139.625549316,-14939547.538757324,-4627284.049987793,7365499.496459961,123206.0194015503,-6415407.657623291,-16423788.070678711,-20524133.682250977,-7569723.129272461,-13584870.338439941,-7025502.2048950195,377654.7610759735,1383564.1145706177,-1028617.5012588501,-10145757.675170898,-25745609.283447266,-22350128.173828125,-14530745.506286621,2356420.9938049316,-651843.8458442688,3635691.8811798096,5580756.664276123,-497571.08092308044,2609090.0897979736,-7267050.266265869,-18156641.006469727,-11930196.762084961,-5507133.960723877,10447447.776794434,-445199.8174190521,-983057.7969551086,-3352916.955947876,-682470.6792831421,-21228012.084960938,-20828153.610229492,-23561063.766479492,10087433.815002441,-3787975.788116455,-1444516.4203643799,-2772941.5893554688,3877808.5708618164,-13076925.277709961,-1887050.3902435303,7924960.136413574,4445503.234863281
0.45,-6196952.342987061,-940291.7623519897,7407932.281494141,7637801.170349121,-10413514.137268066,-17225868.225097656,-3240116.1193847656,-2221970.796585083,-12781688.690185547,-7797092.437744141,2741524.9347686768,16176359.176635742,-5354786.8728637695,3670522.689819336,-22552022.93395996,-5985910.892486572,-4483755.111694336,-10566018.104553223,-12620072.364807129,-3316882.848739624,8880397.79663086,1106791.0194396973,-3459944.009780884,-11538049.697875977,-15478351.593017578,-5990642.070770264,-13466070.175170898,-8195662.498474121,-561089.4560813904,1032957.1962356567,-554892.361164093,-8884578.704833984,-21230720.52001953,-17990962.982177734,-10954189.30053711,4150363.4452819824,-1036978.4832000732,2799829.4830322266,5754454.612731934,148591.89093112946,4169974.3270874023,-3818911.7908477783,-14999206.54296875,-8017613.410949707,-2371973.991394043,11612004.280090332,-1781044.4831848145,46703.025698661804,-2281475.782394409,1244751.214981079,-18235401.153564453,-17866615.295410156,-19232902.52685547,11572359.085083008,-3532159.5668792725,-163095.6530570984,-1698608.0408096313,5845643.520355225,-10826175.689697266,-28253.737837076187,8798408.508300781,8056575.775146484
0.455,1602448.7018585205,4933822.154998779,11933741.569519043,13876158.714294434,-5957803.249359131,-10503932.95288086,3336510.65826416,4245361.804962158,-5396335.601806641,-2341675.9967803955,6028952.598571777,17240285.873413086,-3647134.780883789,5754785.537719727,-16649059.295654297,-521830.677986145,596370.6970214844,-6813766.4794921875,-10767866.134643555,-2912253.8566589355,8449036.598205566,1097784.6384048462,-1898174.76272583,-6848544.120788574,-10389848.709106445,-3408970.594406128,-12487538.33770752,-8825326.919555664,-1897510.1709365845,-65976.35895013809,-669127.5835037231,-7456794.738769531,-15456033.706665039,-13126483.917236328,-6815486.907958984,6039113.521575928,-1354623.1985092163,738922.119140625,6174743.65234375,201864.7938966751,5479493.618011475,1141462.4452590942,-9897111.892700195,-4315803.527832031,1528481.0066223145,13205349.922180176,-2572416.067123413,629448.5926628113,-1151449.7995376587,3012936.3536834717,-14139236.450195312,-13756694.793701172,-14750926.971435547,12947869.300842285,-2743976.354598999,924319.6845054626,-619956.910610199,7682165.622711182,-8373426.43737793,1692263.4840011597,10177285.194396973,10240770.33996582
0.46,-1769260.7641220093,356992.54274368286,7118822.09777832,8019785.8810424805,-9927521.705627441,-10132215.49987793,1517894.5064544678,2478868.9613342285,-8359324.4552612305,-5758141.040802002,2149167.537689209,13648141.860961914,-6035554.4090271,2961271.7628479004,-14849637.031555176,-258935.42170524597,1197516.7989730835,-5950090.408325195,-11786453.247070312,-4871014.11819458,5869146.823883057,-719365.0007247925,-3984203.100204468,-4522004.127502441,-8517235.75592041,-1811899.9004364014,-11119267.463684082,-9086647.033691406,-2925161.123275757,-1041782.4983596802,-1376621.961593628,-7697986.125946045,-12017586.708068848,-10651878.356933594,-5388694.286346436,6658329.486846924,-1170639.6341323853,-465176.7313480377,7442489.147186279,-452922.7316379547,5479281.902313232,5185590.2671813965,-6173628.330230713,-3409320.831298828,2577897.071838379,14382813.453674316,-1508863.2106781006,1133278.0122756958,150599.09224510193,4128059.8640441895,-11304516.792297363,-10928282.737731934,-13248524.66583252,14305674.55291748,-450643.77784729004,2306237.4591827393,869257.2116851807,10063634.872436523,-6675128.936767578,3396280.527114868,12198727.60772705,11133675.575256348
0.465,-10355987.548828125,-6823081.970214844,786846.935749054,-1242929.1009902954,-15414893.15032959,-13073801.040649414,-3996065.855026245,-2978430.2711486816,-16952800.750732422,-12951194.763183594,-2902826.0707855225,11055713.653564453,-7823943.138122559,606545.1502799988,-15267648.696899414,-3040084.12361145,-2440237.7605438232,-8818677.90222168,-14493609.428405762,-6681351.184844971,5453946.113586426,-872371.6139793396,-5370655.059814453,-3539130.449295044,-9734325.408935547,-3372566.9384002686,-12160081.86340332,-9608543.395996094,-1935644.9842453003,472997.18856811523,-153002.20251083374,-7669359.6839904785,-11962235.450744629,-10883299.827575684,-7450243.949890137,5513310.90927124,-607039.749622345,742595.4937934875,9340381.622314453,502907.75299072266,6239152.908325195,7365849.494934082,-5158771.991729736,-5033331.394195557,348730.9515476227,15029081.344604492,1121561.050415039,3033017.39692688,2031477.451324463,5418919.563293457,-10695499.420166016,-10360649.108886719,-15363496.780395508,15839800.834655762,2391389.6083831787,4159324.1691589355,2739174.1275787354,12440365.7913208,-5543027.400970459,5217622.756958008,14771398.544311523,11669809.341430664
0.47,-13158575.057983398,-6944357.395172119,1975848.0787277222,-1619866.4903640747,-14091148.376464844,-13613158.226013184,-5097249.0310668945,-4054612.159729004,-20206687.927246094,-13799612.998962402,-1209860.8016967773,14304061.889648438,-4782549.858093262,3955603.3611297607,-15203792.572021484,-3962514.638900757,-5217440.128326416,-11827857.01751709,-15002134.323120117,-5069024.085998535,9363476.753234863,2307120.8000183105,-2322235.8226776123,-2866669.178009033,-11620673.179626465,-6475377.082824707,-15660166.74041748,-10129363.059997559,925247.3711967468,3702813.3869171143,2718092.918395996,-5617685.794830322,-14247632.026672363,-12694509.506225586,-10312870.979309082,3964761.972427368,-257939.81552124023,2991815.3285980225,10019326.210021973,2815305.233001709,8476733.207702637,6966520.7862854,-6296036.243438721,-6971754.550933838,-2345089.912414551,15459466.934204102,2915397.4056243896,5432430.744171143,3176717.99659729,6208161.8309021,-12411787.033081055,-12043447.494506836,-18850351.333618164,16865188.598632812,2696916.5802001953,4562487.602233887,3052802.801132202,12245787.620544434,-5548936.84387207,5518307.209014893,15858254.432678223,11003091.812133789
0.475,-9541859.62677002,-2180010.0803375244,7511012.077331543,5771218.299865723,-8477379.79888916,-11664925.575256348,-1395470.9768295288,-287299.63302612305,-15312509.536743164,-7303295.612335205,5542671.680450439,19375625.610351562,-986687.1237754822,8971285.820007324,-15494224.548339844,-2375066.5187835693,-3851333.3797454834,-11232181.549072266,-12117588.996887207,-1184543.0135726929,13296181.678771973,4585829.257965088,1485251.0690689087,-3611899.8527526855,-12443084.716796875,-7553951.740264893,-17811822.89123535,-9752205.848693848,2907256.1264038086,4530772.2091674805,2870546.579360962,-3922278.1658172607,-17304616.928100586,-15088674.545288086,-10931972.50366211,3718226.432800293,-411069.3335533142,3556436.061859131,8578501.70135498,2542376.5182495117,9080640.79284668,3743391.0369873047,-8605072.021484375,-7714008.808135986,-3196335.3157043457,15416892.051696777,1937849.998474121,5193718.433380127,1511059.7610473633,4214345.455169678,-15585766.792297363,-15078225.135803223,-20733013.153076172,16196964.263916016,-714698.4934806824,1508520.7223892212,39171.36415839195,8697775.840759277,-7525068.283081055,3087746.3817596436,13378812.789916992,8177155.494689941
0.48,-9104723.930358887,-2945049.524307251,6267020.702362061,8307075.500488281,-8631076.81274414,-12202119.827270508,-261224.9255180359,915869.6532249451,-10974823.951721191,-3306737.6613616943,7746425.151824951,18047393.798828125,-3885826.587677002,7176381.1111450195,-18283262.252807617,-2557783.365249634,-1748791.9330596924,-8694461.822509766,-9575277.328491211,296075.7315158844,11986763.954162598,1368556.9763183594,-291611.9694709778,-7042037.010192871,-12742375.373840332,-6627925.872802734,-16462194.442749023,-8592697.143554688,1987375.4978179932,1238979.2203903198,-1963065.3858184814,-6167138.09967041,-20089347.83935547,-17536331.176757812,-9603384.971618652,4436708.450317383,-745198.0710029602,1932753.324508667,7082641.6015625,-2154709.577560425,5447932.720184326,-611439.4068717957,-11315776.824951172,-7824437.618255615,-2844159.1262817383,14346459.38873291,-748272.4189758301,1443796.0386276245,-2600433.588027954,-790734.2910766602,-18327611.923217773,-17740045.54748535,-20175544.73876953,13848708.152770996,-4798641.204833984,-3507415.0562286377,-4669712.543487549,4924262.523651123,-10369418.144226074,-140227.48172283173,8760641.098022461,4667898.654937744
0.485,-16296661.376953125,-12026986.122131348,-3802025.318145752,382764.5480632782,-17432783.126831055,-16819923.400878906,-5355787.754058838,-4196485.51940918,-14851421.356201172,-8626750.946044922,1059127.926826477,9719248.77166748,-12730151.176452637,-1375338.077545166,-22189908.981323242,-6599913.597106934,-3805649.0421295166,-9096672.058105469,-11260519.027709961,-2631593.704223633,6797420.501708984,-4839223.384857178,-6875463.008880615,-11403159.141540527,-13743734.359741211,-7176264.28604126,-14495242.11883545,-8076540.946960449,-396028.45907211304,-2440502.166748047,-7435078.144073486,-11212464.332580566,-21902198.791503906,-19382455.825805664,-9265718.460083008,4221907.138824463,-896397.5310325623,314953.2675743103,8058286.666870117,-7000378.608703613,405720.71075439453,-2746995.9259033203,-13319553.37524414,-8534956.932067871,-3060109.6153259277,12889832.496643066,-2169305.8013916016,-2233549.118041992,-5798118.591308594,-5129738.807678223,-18915803.909301758,-18436571.12121582,-18976463.317871094,11843313.217163086,-5861059.665679932,-6072771.072387695,-6905500.411987305,4698132.514953613,-11203566.551208496,-796955.943107605,6483261.585235596,3556512.1173858643
0.49,-22699718.475341797,-19153909.68322754,-10860762.596130371,-8094671.249389648,-25411848.068237305,-20216438.29345703,-10347455.024719238,-9223170.280456543,-22593858.71887207,-17122211.456298828,-7208479.881286621,3473702.907562256,-17902095.794677734,-6653151.988983154,-22694633.48388672,-9981670.379638672,-8296505.928039551,-12959523.20098877,-15694878.578186035,-6516682.6248168945,4101335.048675537,-6881702.423095703,-10443202.018737793,-12534034.729003906,-14777341.842651367,-9931087.493896484,-15266719.818115234,-8996027.946472168,-1352898.359298706,-2190149.3072509766,-7502334.5947265625,-13565988.540649414,-21749376.29699707,-19514204.025268555,-11092469.215393066,2668376.684188843,-931997.9548454285,405499.9351501465,10661127.090454102,-6454832.077026367,-393459.7074985504,-466514.6470069885,-13106543.54095459,-9579886.436462402,-3905485.6300354004,12825358.390808105,-967237.7109527588,-1902447.4620819092,-5320353.031158447,-4849503.517150879,-17156465.530395508,-16841129.302978516,-18926860.809326172,12452696.800231934,-4031786.4418029785,-3803711.175918579,-4651500.225067139,8322626.113891602,-8476366.04309082,1910306.453704834,9249962.80670166,6345015.525817871
0.495,-18586973.190307617,-14221494.674682617,-4792547.702789307,-5458093.166351318,-22817392.349243164,-17195888.51928711,-7525058.746337891,-6328087.329864502,-23807022.094726562,-17923698.42529297,-7488266.944885254,6611423.969268799,-13356022.834777832,-2081900.3582000732,-17802097.32055664,-7299413.204193115,-8734798.431396484,-15003619.194030762,-17705307.006835938,-6981886.386871338,6785578.25088501,-2540474.8916625977,-6606775.760650635,-8351480.484008789,-13551083.5647583,-10829630.851745605,-17217311.85913086,-10168693.542480469,-336703.8667201996,1044193.6254501343,-2437007.6656341553,-10392992.973327637,-18839754.104614258,-17179084.77783203,-12586284.637451172,1817069.2920684814,-1044489.6221160889,1326063.1561279297,11342034.339904785,-1220952.2724151611,4101993.0839538574,4823509.693145752,-10225247.383117676,-9434260.368347168,-4088238.23928833,14658833.503723145,1118316.650390625,1593598.9618301392,-2310868.501663208,-628949.7017860413,-14321134.567260742,-14004711.151123047,-19459753.036499023,15479545.593261719,-2229606.1515808105,690828.5021781921,-497998.4164237976,12849615.097045898,-4012847.423553467,5554824.8291015625,14750525.47454834,11263998.985290527
0.5,-7354163.16986084,-1321508.526802063,8471248.626708984,5678493.499755859,-12487445.831298828,-10245430.946350098,973124.4444847107,2258163.4521484375,-16514337.539672852,-10231824.87487793,-262935.6384277344,15301387.786865234,-4667397.022247314,6472920.894622803,-11142999.649047852,-322637.8858089447,-3557034.730911255,-11754135.131835938,-15311347.961425781,-4201928.13873291,11093589.782714844,2689746.618270874,-207022.44341373444,-1845340.371131897,-9488763.809204102,-7182107.448577881,-16479515.075683594,-10054029.46472168,701657.1164131165,2868424.892425537,1704889.5359039307,-5321925.640106201,-14204619.407653809,-13432452.201843262,-11203907.96661377,3192744.9703216553,-1127303.8387298584,1466426.4917373657,8421308.517456055,2569182.872772217,8825831.413269043,9311330.795288086,-6343527.793884277,-7628881.931304932,-3264593.3628082275,16513710.021972656,1689294.3382263184,3836866.617202759,-275764.8527622223,2966871.2615966797,-11961472.511291504,-11485157.012939453,-18899038.314819336,18328540.802001953,-1704089.0455245972,3083815.336227417,1643960.1182937622,15537722.58758545,-1113279.2234420776,7701553.821563721,18454072.952270508,14828551.292419434
