time,Fp1,Fpz,Fp2,AF3,AF4,F7,F5,F3,F1,Fz,F2,F4,F6,F8,FT7,FC5,FC3,FC1,FCz,FC2,FC4,FC6,FT8,T7,C5,C3,C1,Cz,C2,C4,C6,T8,TP7,CP5,CP3,CP1,CPz,CP2,CP4,CP6,TP8,P7,P5,P3,P1,Pz,P2,P4,P6,P8,PO7,PO5,PO3,POz,PO4,PO6,PO8,CB1,O1,Oz,O2,CB2
0.0,-14232714.653015137,-14590250.968933105,-12738041.877746582,-7447010.517120361,-7307124.137878418,-4312658.786773682,-3419335.126876831,-3410435.914993286,-4695017.337799072,-3733653.783798218,-3642870.4261779785,-3984879.970550537,-4004496.0975646973,-4470854.759216309,-883695.0063705444,-2457791.0900115967,-2434701.442718506,-2124899.387359619,-2223407.745361328,-1408468.3656692505,-2111070.8713531494,-2879373.31199646,-2492570.8770751953,-904811.5015029907,-843744.3971633911,-1172401.3090133667,-885342.0615196228,-824627.697467804,-495332.0622444153,-670571.2080001831,-2128361.701965332,-1403908.610343933,-2168104.1717529297,-788779.6759605408,-259533.5841178894,92332.65370130539,22103.197872638702,528632.2236061096,-208243.90649795532,-1069262.146949768,-995739.5792007446,282279.1337966919,-422129.48203086853,-26377.40410864353,261328.5779953003,529133.2602500916,458516.59774780273,263416.8267250061,-86450.07759332657,3305.227030068636,410773.1282711029,443369.38858032227,1951.5674794092774,1086098.074913025,228523.06067943573,159785.00247001648,157812.6698732376,1550405.6215286255,526138.186454773,1122712.1353149414,176889.61327075958,1142850.7566452026
0.005,30979070.66345215,25491205.2154541,2576029.7775268555,22369974.13635254,34067554.47387695,21631727.21862793,11513707.160949707,11883819.580078125,26254179.000854492,29246252.059936523,25486171.72241211,24520477.294921875,8768566.131591797,4909042.3583984375,13000102.043151855,7748638.62991333,12390171.05102539,16772687.911987305,15624853.134155273,10582665.44342041,33462142.944335938,3175016.403198242,-2686552.5245666504,2735502.7198791504,1140808.8207244873,8526310.920715332,8121771.812438965,8897871.971130371,1751891.851425171,1397560.5964660645,3916205.1677703857,-7628970.623016357,-11079013.82446289,6909134.864807129,4804539.680480957,2438798.427581787,2672989.3684387207,2678526.1631011963,9333812.713623047,-1897918.939590454,7878445.625305176,-6531432.628631592,-1406296.730041504,-1319535.1362228394,-150206.67016506195,-6626291.751861572,-3563855.4096221924,6641570.568084717,5685790.538787842,754655.122756958,-8185020.446777344,-7918128.01361084,-4403831.958770752,-8683932.304382324,-6719583.511352539,-4315764.904022217,-2761169.672012329,-10920137.405395508,-7737863.063812256,-10605772.972106934,-10644860.26763916,-13191336.631774902
0.01,54917301.177978516,48041973.11401367,12719772.338867188,37474826.81274414,54677719.11621094,33623779.296875,17832214.35546875,18331010.818481445,40770599.365234375,44872863.76953125,39284622.19238281,37185043.33496094,14592356.68182373,9329792.976379395,18622110.36682129,12104978.561401367,19008750.915527344,24777048.110961914,24661109.924316406,16172605.514526367,49278285.98022461,5010820.8656311035,-3435039.758682251,6259462.833404541,654823.0648040771,12123433.113098145,12253781.31866455,14067623.138427734,3066012.8593444824,1658301.591873169,5844778.060913086,-10867595.672607422,-13419173.240661621,9663491.249084473,6123718.26171875,2935654.640197754,3921791.3150787354,2934144.2584991455,11207902.908325195,-3362176.6567230225,11460922.241210938,-8989547.729492188,-2203603.2676696777,-2637784.481048584,-1181781.6495895386,-10501129.150390625,-5712938.30871582,8089447.975158691,6689476.490020752,407606.1248779297,-11680132.865905762,-11371985.43548584,-6621581.077575684,-13628452.30102539,-10680817.604064941,-7419029.235839844,-5148236.274719238,-16026992.797851562,-11136422.157287598,-16271406.173706055,-15592947.959899902,-19260908.126831055
0.015,54159057.6171875,48970935.8215332,14607639.31274414,35476119.99511719,53141044.61669922,30600494.384765625,14636340.141296387,15092438.697814941,37307846.06933594,41858119.96459961,37101413.72680664,33992198.9440918,13361612.319946289,8309172.630310059,15699095.726013184,9746788.024902344,16637470.245361328,21404106.14013672,23755651.473999023,14933668.13659668,46082191.467285156,3214287.042617798,-4069385.051727295,7590071.201324463,-2093850.85105896,9384679.794311523,10981881.141662598,14021487.23602295,3252974.271774292,739693.1648254395,4314331.531524658,-10802186.965942383,-11189506.530761719,7732843.87588501,4221749.305725098,1893145.4420089722,3706038.9518737793,1842092.9908752441,7123298.645019531,-4670708.656311035,9989130.020141602,-7702029.705047607,-2624996.1853027344,-3636862.5164031982,-1886037.5881195068,-10454566.955566406,-5502247.8103637695,5805285.930633545,3948548.3169555664,-657684.4453811646,-10618060.111999512,-10370612.144470215,-6403003.692626953,-13278205.871582031,-11166822.43347168,-8521247.863769531,-6323993.20602417,-14508855.819702148,-10057999.610900879,-15738240.242004395,-14918482.780456543,-17504800.79650879
0.02,42865558.62426758,39340274.810791016,10740441.32232666,26299600.60119629,45014720.91674805,22318260.192871094,7945710.182189941,8407047.271728516,27934452.056884766,33336593.627929688,30946508.407592773,27699045.181274414,10939573.287963867,6221623.89755249,10064023.971557617,4519557.476043701,11008539.199829102,15009338.37890625,19181259.155273438,11982889.175415039,40088771.82006836,2131167.6502227783,-3141729.8316955566,4813216.686248779,-5065648.555755615,4811914.920806885,7732921.123504639,11953166.007995605,3143835.5445861816,875880.241394043,3444845.43800354,-9105063.438415527,-11331129.07409668,4894116.8785095215,2174819.4694519043,878488.6598587036,3094720.8404541016,1442984.2233657837,4864702.224731445,-4371644.020080566,8162170.41015625,-6951079.368591309,-2903984.308242798,-4196663.856506348,-1253061.1753463745,-8769071.578979492,-4053330.421447754,4739601.135253906,2350601.9115448,-1033504.843711853,-9637387.2756958,-9348050.117492676,-5617448.329925537,-11293530.464172363,-10094096.183776855,-8090964.317321777,-6114893.913269043,-12789092.063903809,-8799986.839294434,-13857407.569885254,-13478169.441223145,-15017415.046691895
0.025,37524703.97949219,34610275.26855469,8797464.370727539,21730949.40185547,44163211.822509766,18012384.41467285,4198802.947998047,4767893.7911987305,24688385.009765625,31614555.35888672,31063756.942749023,27847135.543823242,11967463.493347168,7468360.900878906,6686717.0333862305,1135339.7369384766,7957754.611968994,12963607.788085938,17737613.677978516,12143832.206726074,41839962.005615234,4253227.233886719,-586786.2105369568,-89021.2133526802,-6671896.457672119,2415893.077850342,6100953.102111816,11469305.992126465,3842056.2744140625,2801047.0867156982,5315388.6795043945,-7493899.345397949,-15511665.344238281,3590282.440185547,1456480.3838729858,574152.5292396545,2944697.856903076,2274947.166442871,7540447.235107422,-2612379.0740966797,8943007.469177246,-8936260.223388672,-3475166.082382202,-4589683.055877686,-177635.0438594818,-8389634.132385254,-3198659.896850586,6439716.815948486,3863818.883895874,-338832.3485851288,-11202600.479125977,-10785274.505615234,-6113368.988037109,-11308551.788330078,-9754084.587097168,-7534857.273101807,-5597304.821014404,-14390636.444091797,-9977859.497070312,-14569971.084594727,-14482194.900512695,-16630392.074584961
0.03,43951946.25854492,41453029.63256836,13920983.31451416,26170785.903930664,50885879.51660156,20837985.99243164,6322780.609130859,6961555.480957031,29928398.13232422,37700351.71508789,36885658.264160156,32462039.947509766,15043002.128601074,11167568.20678711,7646504.878997803,2557649.850845337,9737501.14440918,16035429.000854492,21048954.010009766,15377372.741699219,47252990.72265625,7083802.223205566,1016399.7411727905,-1512870.0733184814,-5849470.138549805,3535760.1642608643,7344417.572021484,13497275.352478027,5319159.030914307,4450981.140136719,7436171.531677246,-7489737.987518311,-17860969.54345703,4275727.74887085,1886318.0875778198,785998.523235321,3141050.100326538,2562417.507171631,10285856.246948242,-1764147.9969024658,10210453.987121582,-10842892.64678955,-3661143.3029174805,-4329620.838165283,-81743.67249011993,-10250185.9664917,-4216558.456420898,7340451.240539551,5255647.1824646,-117044.70962285995,-12813865.661621094,-12386181.831359863,-7277543.544769287,-13519037.246704102,-11130241.394042969,-8296969.413757324,-6385245.323181152,-16808034.896850586,-11975428.581237793,-17286972.045898438,-16779716.49169922,-20649093.627929688
0.035,56703685.76049805,53989459.99145508,22207870.483398438,35853992.4621582,57174324.03564453,30030284.881591797,14041741.371154785,14604375.839233398,38386783.599853516,44684345.24536133,41538513.18359375,34799133.30078125,15705334.663391113,12222945.213317871,14012586.59362793,9250439.643859863,15716972.351074219,21024181.365966797,25775302.88696289,17946777.34375,48291053.771972656,6626114.845275879,-1119960.3080749512,4192936.897277832,-1482806.0865402222,8073714.256286621,10686428.07006836,16201108.932495117,6123904.228210449,3447379.8274993896,6419924.259185791,-10176819.801330566,-13266129.493713379,7640999.794006348,4066792.0112609863,1809281.349182129,3156337.261199951,808656.3348770142,7979991.912841797,-3766711.473464966,8560165.405273438,-8398604.393005371,-1591544.508934021,-2026933.9084625244,-308202.95214653015,-12673560.14251709,-6794546.604156494,4503191.947937012,3236820.697784424,-1764908.9097976685,-10776232.719421387,-10527567.863464355,-6587857.723236084,-15270794.868469238,-13435094.833374023,-10384874.34387207,-8605437.278747559,-16344697.952270508,-11786613.464355469,-18784990.310668945,-17627218.24645996,-22640495.30029297
0.04,66180152.893066406,61190071.10595703,24865308.76159668,43661396.02661133,57620933.532714844,42001235.96191406,24051534.65270996,24434343.338012695,43993705.74951172,46773719.787597656,40884616.85180664,32598285.675048828,12470746.994018555,7961794.853210449,24402393.341064453,18214700.69885254,23074024.200439453,24884637.8326416,27661697.387695312,16976856.231689453,44292087.55493164,2674748.182296753,-6365082.740783691,14125338.554382324,5656435.966491699,14509187.698364258,14297400.47454834,17251440.048217773,5019282.817840576,198130.7417154312,2552103.042602539,-14662763.595581055,-4438840.866088867,13665390.968322754,8496117.59185791,4061594.009399414,2920958.2805633545,-1835345.8642959595,2286631.5841674805,-7412473.678588867,4544768.810272217,-1625746.250152588,3138064.6228790283,2288276.9107818604,1062215.805053711,-13244146.347045898,-8925724.029541016,162761.50941848755,-603184.2231750488,-4211513.996124268,-5302949.905395508,-5266756.534576416,-3120610.7139587402,-14332107.543945312,-14725929.260253906,-11996616.36352539,-10290765.762329102,-13032554.626464844,-8873120.307922363,-17270709.991455078,-16071472.16796875,-20806600.57067871
0.045,65741157.53173828,57162288.665771484,18229492.1875,44255523.681640625,52657619.47631836,49540550.231933594,30061267.852783203,30271705.627441406,43595836.6394043,43266601.5625,36080234.52758789,28129610.061645508,7754875.183105469,1268629.1933059692,32374984.741210938,23334943.771362305,26936725.616455078,25557907.104492188,25041032.791137695,12995132.446289062,39760231.018066406,-1451087.7132415771,-11282176.01776123,20580158.233642578,11006140.70892334,18900035.858154297,15933720.588684082,16015382.766723633,2630392.7898406982,-2645160.19821167,-969446.7186927795,-18276056.28967285,906930.8042526245,18711980.81970215,12606849.670410156,6450842.85736084,2820427.656173706,-2786684.989929199,-1112352.6096343994,-9660745.620727539,1689576.0297775269,4076609.1346740723,7264221.19140625,5597874.641418457,3880524.158477783,-11126296.997070312,-8337260.2462768555,-1155396.580696106,-2026674.509048462,-5184038.6390686035,-832145.631313324,-873659.0147018433,482648.16403388977,-11138879.776000977,-13468481.063842773,-11464510.917663574,-9699184.41772461,-10121546.745300293,-5756931.781768799,-14171111.106872559,-13411075.592041016,-17349000.930786133
0.05,55915019.98901367,45218551.63574219,7015611.171722412,37314346.31347656,45113304.138183594,46295356.75048828,26815452.575683594,26956684.112548828,37567810.05859375,36789588.928222656,30098190.307617188,23091945.64819336,3661008.358001709,-3902624.3686676025,30819622.039794922,19927204.132080078,23491168.975830078,22137739.181518555,19659612.65563965,8614151.954650879,36729709.62524414,-3779366.7316436768,-14080056.190490723,18242536.544799805,9460657.119750977,17332750.32043457,14284443.855285645,13858393.669128418,849233.6869239807,-3492579.698562622,-2379935.5030059814,-19749450.68359375,-1732387.1850967407,17688737.869262695,12259629.249572754,6875750.541687012,3036188.6024475098,-1216483.9506149292,196139.42503929138,-9451807.975769043,1171578.288078308,3064211.60697937,6362361.907958984,4605438.232421875,5510914.8025512695,-7664164.066314697,-4701117.038726807,1637587.6665115356,58910.51143407822,-4530344.9630737305,-1578464.7464752197,-1561867.7139282227,772605.836391449,-8075715.065002441,-10171422.004699707,-9487946.510314941,-7736508.846282959,-10618279.457092285,-5578995.704650879,-12606604.57611084,-11766103.744506836,-16115486.145019531
0.055,44323192.59643555,33975326.53808594,-1688595.5333709717,27941896.438598633,37875839.23339844,34822841.64428711,16431772.232055664,16651832.580566406,29762819.290161133,30864881.51550293,25059127.807617188,17746767.044067383,-74544.46703195572,-7161140.441894531,20949939.727783203,10463273.048400879,14868721.008300781,16553771.97265625,15030212.40234375,5932249.069213867,34180419.921875,-5446578.502655029,-16141012.191772461,9589076.99584961,1779506.0873031616,10924765.586853027,10661015.510559082,12578467.36907959,672690.0935173035,-3213909.62600708,-2716808.080673218,-20644327.16369629,-9515159.606933594,10699200.630187988,7342015.266418457,4995872.497558594,3285283.088684082,1046496.0336685181,3617375.612258911,-8535430.908203125,757658.839225769,-4510396.480560303,239433.55679512024,-9591.685608029366,4428211.212158203,-5031576.633453369,-318206.45928382874,5471496.58203125,2716936.1114501953,-4203244.209289551,-7241509.437561035,-7145203.113555908,-2208617.925643921,-7019345.283508301,-7060856.819152832,-8236698.150634766,-6693058.013916016,-14843632.698059082,-9193071.365356445,-14273224.830627441,-12322878.83758545,-18948307.037353516
0.06,39595779.41894531,29922925.94909668,-4742181.301116943,22843622.2076416,33700069.427490234,26021087.646484375,8217880.2490234375,8579786.30065918,25513177.8717041,28412145.614624023,22394906.997680664,13656267.166137695,-3437490.701675415,-9734300.61340332,12847964.2868042,3521695.613861084,8617963.790893555,13319030.76171875,13666776.657104492,5467229.843139648,32385013.580322266,-7214647.7699279785,-18370552.06298828,2787195.4441070557,-4698514.938354492,6032531.73828125,8432923.316955566,12722687.721252441,1360439.3005371094,-3065450.90675354,-2938801.7654418945,-22087383.270263672,-15446994.78149414,4505892.276763916,3079539.5374298096,3175690.174102783,3255378.246307373,1915556.1923980713,6021710.395812988,-8243442.535400391,-537385.9405517578,-12395953.178405762,-5864562.034606934,-3854297.161102295,2498857.021331787,-4486220.836639404,1944199.562072754,7435981.750488281,3692204.9522399902,-4633613.586425781,-13199746.131896973,-13117540.35949707,-4935649.394989014,-7850708.961486816,-5707347.869873047,-8210878.372192383,-6849104.881286621,-20133939.743041992,-14142926.216125488,-17610488.891601562,-14080667.495727539,-23427944.18334961
0.065,43473632.8125,32927383.422851562,-3139955.520629883,24563146.591186523,34083370.208740234,27463926.315307617,9383805.274963379,9732375.144958496,27248722.076416016,30203783.03527832,23058589.935302734,13534646.987915039,-4259026.527404785,-10535609.245300293,14308165.550231934,5060317.516326904,10055702.209472656,15263809.204101562,15433429.718017578,6792195.3201293945,33334484.100341797,-7214347.362518311,-18863834.381103516,3707179.7847747803,-3773913.3834838867,7480606.0791015625,9776145.935058594,13621523.8571167,1957463.6220932007,-2706745.386123657,-2127519.369125366,-22290796.279907227,-14929089.546203613,5023114.6812438965,3917104.482650757,3719061.3746643066,3012428.9989471436,1383979.5589447021,7082827.091217041,-7533227.920532227,-324396.90828323364,-14423244.47631836,-6836423.873901367,-3844862.937927246,2492211.5802764893,-5700817.584991455,1375750.4224777222,7626718.997955322,4114311.2182617188,-3734750.747680664,-14949304.580688477,-15022835.731506348,-4824097.633361816,-9191793.441772461,-5625564.5751953125,-7695351.123809814,-6248512.744903564,-22765485.763549805,-16655315.399169922,-19381946.563720703,-14619462.013244629,-24931020.736694336
0.07,49939128.87573242,38094837.1887207,1065883.994102478,29715215.6829834,37979698.181152344,34961231.23168945,17051359.176635742,17098068.237304688,32169120.78857422,34345073.69995117,26773654.93774414,17924251.556396484,-805438.9953613281,-7509739.398956299,21917510.986328125,11841032.028198242,16284605.026245117,20108701.705932617,18466379.165649414,9449227.333068848,37305839.53857422,-3799700.975418091,-15925455.093383789,10136078.834533691,2459600.6870269775,12879601.47857666,13304300.308227539,14782291.412353516,2946769.4759368896,-1055586.4572525024,566817.4028396606,-19436788.55895996,-9772746.086120605,10275718.688964844,7966276.168823242,5977471.828460693,2820607.6622009277,995852.7088165283,8022889.137268066,-5244453.430175781,2933260.202407837,-10762027.740478516,-3516494.7509765625,-1565696.9547271729,4402321.815490723,-7413252.830505371,-324459.9997997284,7535677.909851074,5577836.990356445,-745417.4757003784,-12456271.171569824,-12741347.312927246,-3219823.5988616943,-10188120.84197998,-5774009.227752686,-5954399.108886719,-4259670.734405518,-21465791.702270508,-15425168.03741455,-18459148.406982422,-13079294.204711914,-22034122.467041016
0.075,53380641.93725586,42140022.27783203,6855613.231658936,33817008.97216797,43508148.193359375,38866527.55737305,22290613.174438477,21922477.72216797,35870216.369628906,38575775.146484375,32322200.775146484,24522708.892822266,5602283.000946045,-1375293.6124801636,26308946.60949707,15717408.180236816,20075361.251831055,23250394.821166992,21537883.758544922,13312463.760375977,42239540.100097656,1606316.9240951538,-11034262.657165527,14688528.060913086,6509547.233581543,15806163.787841797,15786834.716796875,16542978.286743164,5676087.379455566,1932839.7512435913,4114790.916442871,-15108688.354492188,-6013728.141784668,13432616.233825684,9754232.406616211,7335278.034210205,2752047.7771759033,1676301.4793395996,9349881.172180176,-2447190.523147583,6681878.566741943,-7232708.930969238,-1337963.8195037842,-792796.7309951782,5660114.765167236,-8620479.583740234,-1333084.4640731812,7570892.810821533,7040491.580963135,1501746.8929290771,-9847692.489624023,-10198888.778686523,-3225709.4383239746,-11177903.175354004,-6380034.446716309,-4994243.144989014,-3164628.9825439453,-19052730.560302734,-13171037.673950195,-17247816.08581543,-11650845.527648926,-18659048.080444336
0.08,54878170.013427734,46402858.73413086,13966572.761535645,36200771.33178711,49949584.9609375,36128067.01660156,21031545.639038086,20484790.802001953,37333816.52832031,42475364.685058594,38311325.07324219,30742353.439331055,11964941.024780273,4871138.572692871,23951166.1529541,13366579.055786133,18570722.579956055,23274530.4107666,24640268.325805664,17933792.114257812,46256546.02050781,6258342.266082764,-6676573.276519775,13125192.642211914,4657762.050628662,13693246.841430664,15857355.117797852,18975965.49987793,10123897.552490234,5141037.464141846,6901100.158691406,-12137152.671813965,-7399507.522583008,11466734.886169434,7277895.927429199,6639667.510986328,2675183.5346221924,2844237.5659942627,10762902.25982666,-946124.255657196,7869525.909423828,-8454883.575439453,-3604331.4933776855,-2866921.4248657227,4577993.869781494,-9214206.69555664,-1424762.6066207886,7208380.222320557,6619468.212127686,475234.89594459534,-10681130.409240723,-10850496.292114258,-5688783.645629883,-12653908.729553223,-8035019.874572754,-6557222.366333008,-4775978.565216064,-19272161.48376465,-13494830.131530762,-18411579.132080078,-12646062.850952148,-19062507.62939453
0.085,57876468.658447266,52462886.810302734,21243993.759155273,38437255.859375,56222915.64941406,31810642.24243164,17364542.00744629,17012842.178344727,38348163.60473633,46084243.77441406,42782138.82446289,34980209.35058594,16204620.361328125,9332288.74206543,19653573.989868164,8864294.052124023,15293047.904968262,22547332.763671875,27267986.297607422,21597934.72290039,48510997.7722168,9007313.72833252,-3322731.7333221436,8513303.756713867,444894.4926261902,10132067.680358887,15089526.176452637,20900482.177734375,13995324.13482666,7329173.564910889,8446945.190429688,-10642109.870910645,-11489493.370056152,7842242.71774292,3913620.4719543457,5492346.286773682,2536699.5334625244,3425008.2969665527,11924610.137939453,-746713.9363288879,7418835.639953613,-12944985.389709473,-7935392.379760742,-5654603.481292725,2320000.410079956,-9570751.190185547,-1327609.0621948242,6428999.423980713,4887040.138244629,-1883752.1076202393,-14110775.9475708,-14016089.43939209,-8537146.56829834,-14117415.428161621,-9781709.671020508,-8938934.326171875,-7264244.556427002,-22135528.564453125,-16426105.499267578,-21011581.420898438,-14812638.282775879,-22047782.89794922
0.09,60511878.967285156,56762935.638427734,25449222.564697266,39629623.41308594,58855709.075927734,30155694.96154785,16080930.709838867,16064798.355102539,38913692.474365234,47456398.010253906,43087226.86767578,35796165.466308594,17296875.0,11540887.832641602,18410436.630249023,6907018.661499023,13887618.064880371,22675403.594970703,27620653.15246582,21929382.32421875,48001033.782958984,9898289.680480957,-754261.7917060852,6588583.469390869,-1020110.7263565063,9413570.404052734,15449539.184570312,20896398.544311523,14749076.843261719,7771482.467651367,8832790.37475586,-8966768.264770508,-13118006.706237793,6960834.503173828,3532710.075378418,5985904.216766357,2444259.1667175293,3099809.169769287,12451552.391052246,-645191.8482780457,8161055.564880371,-15718583.106994629,-9718005.180358887,-6448597.9080200195,1317969.9182510376,-9695948.600769043,-1237473.487854004,5844742.298126221,4163662.4336242676,-1702130.0792694092,-16266628.26538086,-16082035.064697266,-9578696.250915527,-14402211.18927002,-9797293.663024902,-8925168.03741455,-7367363.452911377,-23970829.010009766,-18364479.064941406,-21537857.055664062,-14632442.474365234,-22706975.93688965
0.095,57615821.838378906,54026432.037353516,23669736.862182617,37174293.518066406,55437480.92651367,29569318.771362305,16389356.61315918,16509019.85168457,36768707.275390625,44583164.21508789,38678039.55078125,33048622.131347656,15200650.215148926,10997747.421264648,19515874.8626709,7142771.7208862305,13544705.390930176,22237289.428710938,24875528.33557129,18674293.518066406,44525711.05957031,9057713.508605957,29419.08687353134,8884820.938110352,766721.6062545776,11383847.2366333,16798559.188842773,19173942.56591797,12594753.26538086,6834621.429443359,8135376.930236816,-7070236.682891846,-10725682.258605957,9126328.468322754,6008914.470672607,8096462.249755859,2470981.5979003906,2532009.3631744385,12197947.50213623,-128814.33963775635,10282988.548278809,-14399687.767028809,-7395869.731903076,-4703892.230987549,2560314.178466797,-9091349.601745605,-619358.6587905884,5971796.51260376,5390727.0431518555,1457857.0127487183,-14752338.409423828,-14680788.040161133,-8593959.80834961,-12943594.932556152,-7833631.51550293,-6023787.975311279,-4645171.642303467,-22125631.33239746,-16506895.065307617,-18482919.692993164,-11057504.653930664,-19098136.90185547
0.1,50169822.692871094,46215488.43383789,18118062.97302246,32308349.609375,49882503.509521484,27555391.311645508,15287087.440490723,15244593.620300293,32235092.163085938,39792617.79785156,33764335.63232422,30154533.38623047,12495112.419128418,8655550.003051758,19907587.0513916,6881568.431854248,12134749.412536621,20025863.647460938,21403697.967529297,15279294.967651367,40951999.66430664,8008589.744567871,-795221.6267585754,12109060.287475586,2825213.1938934326,12990296.363830566,17541095.733642578,17582107.543945312,10666301.727294922,6351985.931396484,7617868.900299072,-5740586.280822754,-7361464.977264404,11865680.694580078,8313877.105712891,9911321.640014648,2544596.6720581055,2707273.244857788,12100442.886352539,963222.2056388855,12197436.332702637,-11169276.237487793,-3350206.8519592285,-2035176.2771606445,4810295.104980469,-7555653.095245361,915213.406085968,7185328.960418701,7747250.080108643,4856647.491455078,-10803420.066833496,-10857414.245605469,-6625254.154205322,-10309496.879577637,-5342733.860015869,-2497569.799423218,-1293871.9987869263,-17931774.139404297,-12000938.415527344,-14080019.9508667,-6654860.973358154,-14149258.613586426
0.105,46615413.665771484,42808650.970458984,15811534.881591797,30423961.639404297,49664783.4777832,25576377.868652344,13253674.507141113,12955003.73840332,29743589.401245117,38597484.58862305,34046737.67089844,31710195.541381836,13665834.426879883,8552766.799926758,19215259.552001953,6039555.549621582,10563910.484313965,17825223.922729492,20708469.39086914,15755739.212036133,41472118.37768555,9911201.477050781,264020.3535556793,13195634.841918945,3414773.464202881,12862420.082092285,16958011.627197266,17533554.077148438,11599349.021911621,8233550.071716309,9641358.375549316,-3641402.48298645,-5873542.308807373,13659948.348999023,8440137.86315918,9997298.240661621,2581590.8908843994,4124705.3146362305,13626584.05303955,3506078.004837036,14437026.023864746,-9217493.057250977,-611795.0081825256,-413559.76462364197,6134946.346282959,-5748975.2769470215,3142850.637435913,9809599.876403809,10700188.636779785,7268840.789794922,-7284354.209899902,-7365040.302276611,-4456165.790557861,-7588551.5213012695,-3131422.996520996,230733.64794254303,1455143.8093185425,-14648142.81463623,-8201307.29675293,-11265112.87689209,-3811808.1092834473,-11038856.506347656
0.11,52101181.03027344,49290493.01147461,20810066.22314453,33861461.6394043,56426498.41308594,26049934.38720703,12881092.071533203,12501428.604125977,32134250.64086914,42583477.02026367,39782638.54980469,37508735.65673828,20008813.858032227,14016456.604003906,18911485.67199707,6397234.916687012,11096877.098083496,17867439.27001953,22989063.262939453,19677740.0970459,46392444.6105957,15684288.024902344,5894151.68762207,12440162.658691406,3314717.5312042236,12350295.066833496,15983744.621276855,18550617.218017578,14456008.911132812,11960627.555847168,14591050.148010254,1086952.805519104,-5566964.626312256,14679032.325744629,7113893.508911133,8942989.349365234,2606164.6938323975,6375601.768493652,16744684.219360352,7773088.455200195,18747951.50756836,-9117730.140686035,97402.10324525833,-438876.30105018616,5880521.774291992,-4569228.172302246,5500410.556793213,13379014.96887207,14265908.241271973,9927029.609680176,-5615857.124328613,-5688244.342803955,-2308238.983154297,-5587095.260620117,-558123.1117248535,2743903.160095215,4232970.237731934,-13867636.680603027,-6798727.035522461,-10526614.18914795,-2102253.6754608154,-9725496.292114258
0.115,61154232.025146484,59622299.19433594,28693246.841430664,38180210.11352539,63424674.98779297,27962059.020996094,14159310.340881348,13943153.381347656,36239315.032958984,46600315.09399414,44864986.419677734,42005794.525146484,26915292.739868164,22388538.360595703,19252063.751220703,7932713.508605957,13252321.243286133,19279706.954956055,24590431.213378906,22275445.93811035,51021694.18334961,21439239.501953125,13040438.652038574,12007246.971130371,3710644.9604034424,12933355.331420898,15863793.37310791,19146238.327026367,15991329.193115234,14662457.466125488,19358131.408691406,6707744.121551514,-4055333.137512207,15590885.162353516,6491555.213928223,8593253.135681152,2677647.829055786,8400490.760803223,19496156.692504883,11811839.10369873,23910581.588745117,-8952915.19165039,548361.3014221191,-752788.9609336853,5274455.547332764,-4073935.031890869,7385784.149169922,16246530.532836914,17430719.37561035,12891065.59753418,-4784558.7730407715,-4853586.673736572,-97584.36679840088,-4409746.170043945,2533209.3238830566,5225327.968597412,7017246.723175049,-14451993.942260742,-6393875.598907471,-10307569.50378418,-182228.26719284058,-8686893.463134766
0.12,65756484.98535156,65069610.595703125,32881668.090820312,39084430.69458008,65163604.736328125,29377609.252929688,15399830.81817627,15409490.585327148,37686294.55566406,45978019.71435547,44819774.62768555,41961444.85473633,29558341.97998047,27775993.34716797,20097923.278808594,9466602.325439453,14852995.872497559,19763732.91015625,22947681.427001953,20612205.505371094,51512317.6574707,23085531.23474121,16492670.059204102,13526897.430419922,5306375.980377197,14727425.575256348,16915405.2734375,18717924.118041992,14788533.210754395,14651713.371276855,21105993.270874023,9450631.141662598,-212031.70716762543,17407602.310180664,8148202.896118164,10090449.333190918,2779386.7588043213,9220844.268798828,20356266.021728516,13344859.12322998,26547252.655029297,-6707008.838653564,3105555.295944214,742770.0161933899,6052182.197570801,-3606250.524520874,8186833.381652832,16887382.50732422,18508058.547973633,14090863.227844238,-2728929.9964904785,-2755515.5754089355,2550582.8857421875,-3568484.306335449,4682254.791259766,6396228.790283203,8291150.093078613,-13972737.312316895,-4434326.171875,-9236114.501953125,1780048.4895706177,-7384469.032287598
0.125,66564758.30078125,66509429.931640625,34183967.59033203,39453208.923339844,65123725.89111328,31709594.7265625,17380304.33654785,17455141.067504883,37826221.46606445,43674800.872802734,42880786.89575195,41372318.267822266,29667564.392089844,29152656.55517578,22808555.603027344,11767753.601074219,16159940.719604492,19719959.259033203,20347990.036010742,17651803.970336914,49762813.568115234,22226198.196411133,16557104.110717773,17489416.122436523,8734807.968139648,17330482.482910156,18637788.772583008,18096111.297607422,12848306.655883789,13591837.882995605,21228073.120117188,9282211.303710938,5418334.007263184,21202041.625976562,11818317.413330078,12687687.873840332,2840905.18951416,8571439.743041992,19947256.088256836,12899938.583374023,26380241.39404297,-2181366.443634033,8271142.959594727,4408303.260803223,8371659.278869629,-3066173.0766296387,7477783.203125,15485471.725463867,17491432.189941406,12955774.307250977,1326259.1361999512,1327715.7545089722,5781120.300292969,-2689204.216003418,4580423.831939697,5644721.984863281,7423694.133758545,-11053369.522094727,-131541.84818267822,-7217595.57723999,2841110.4679107666,-5913606.1668396
0.13,69107788.0859375,70289031.98242188,37820053.10058594,43681964.87426758,68795715.33203125,36543258.66699219,21487695.693969727,21461656.57043457,40767536.16333008,45503589.63012695,44564796.447753906,45101383.209228516,32368740.08178711,30978767.39501953,27678504.943847656,15976056.098937988,18995159.149169922,21354524.612426758,20666351.318359375,18018997.192382812,50043437.95776367,23617424.01123047,18196119.30847168,22680524.826049805,13328875.541687012,20114788.055419922,20185991.287231445,18290315.628051758,12648506.164550781,13831647.872924805,22887495.040893555,10043548.583984375,11167927.742004395,26124513.626098633,15286214.828491211,14353646.278381348,2835618.019104004,7071570.39642334,19565553.665161133,12874793.05267334,26680732.72705078,2581328.6304473877,13594886.779785156,7785850.048065186,10375614.166259766,-3266252.040863037,5569116.115570068,13627943.992614746,16300096.51184082,11923883.438110352,5605891.227722168,5476884.365081787,8551351.547241211,-2160491.2281036377,2985117.4354553223,4359910.488128662,5967848.300933838,-7124961.853027344,4454526.901245117,-5169829.368591309,3017911.911010742,-4244229.316711426
0.135,71488533.02001953,74355728.14941406,42082454.681396484,47667243.95751953,72765197.75390625,39921539.306640625,24401830.673217773,24311281.204223633,44748733.52050781,50025501.2512207,48458713.53149414,50326919.55566406,37233699.798583984,34823867.79785156,30877779.006958008,19452575.68359375,22008586.883544922,23998729.705810547,23534543.991088867,21300294.876098633,52419193.267822266,27466796.875,22288621.90246582,25882606.506347656,16041913.986206055,21571041.107177734,20619077.682495117,19168926.239013672,13973733.901977539,14982002.258300781,25665855.407714844,12910665.512084961,14523074.15008545,28884517.669677734,16042308.807373047,13705701.82800293,2823205.9478759766,5896945.953369141,19263273.239135742,13798768.997192383,28589202.880859375,4722466.945648193,15737052.917480469,7997039.794921875,10239192.008972168,-4537860.39352417,3703641.414642334,12613476.753234863,16166183.471679688,12781577.110290527,7264105.319976807,6883585.453033447,9118556.97631836,-2686337.471008301,1827011.7044448853,4051004.409790039,5573091.03012085,-5647208.690643311,6316363.334655762,-4366466.522216797,2904864.0727996826,-3003375.768661499
0.14,65107315.06347656,68591888.42773438,38009262.08496094,42364799.49951172,68240837.09716797,35825733.18481445,20489429.473876953,20499292.373657227,42872375.48828125,49352294.921875,47499473.571777344,49498184.20410156,37792922.97363281,35560695.64819336,28063692.092895508,17715311.05041504,21114242.553710938,23977531.43310547,24616971.969604492,22622524.26147461,52822902.67944336,28714239.1204834,23271831.512451172,24346643.447875977,14246332.168579102,20247575.759887695,19460720.06225586,19615556.716918945,14756814.002990723,15000067.710876465,25911920.54748535,13845421.79107666,13783505.4397583,27236627.57873535,13818027.49633789,11475802.421569824,2912186.861038208,5992502.212524414,18595235.82458496,13846793.174743652,28892482.75756836,3277893.543243408,14111621.856689453,5197956.562042236,8374180.793762207,-5659269.332885742,3248993.158340454,12597493.171691895,16301868.438720703,13969554.901123047,5554802.894592285,5051870.822906494,7184138.774871826,-4013638.496398926,2031859.3978881836,4498947.620391846,6031562.328338623,-8390200.6149292,4729797.36328125,-5331595.420837402,2566284.656524658,-3301006.555557251
0.145,49781440.73486328,52028400.42114258,23828796.38671875,28545045.852661133,55580024.71923828,25895332.33642578,10892749.786376953,11049627.304077148,34259574.89013672,41295204.162597656,39911106.10961914,41566925.048828125,31404840.46936035,29403303.146362305,20969476.6998291,11437663.078308105,15990606.307983398,20343549.728393555,22065824.508666992,19841661.45324707,49668453.216552734,24969474.79248047,17903417.587280273,19304023.74267578,9566263.198852539,16968868.255615234,17449655.532836914,18985263.82446289,14259418.487548828,13825048.446655273,22722078.323364258,10001338.005065918,10365032.196044922,23138229.370117188,10970726.96685791,9757733.345031738,3151594.877243042,7181405.067443848,18231756.21032715,12394822.120666504,25458892.822265625,225474.7450351715,11399023.056030273,2366028.5472869873,6781505.584716797,-5292377.948760986,4292114.2578125,13079824.447631836,15780879.974365234,13373617.172241211,2613775.7301330566,2209825.9925842285,4493057.727813721,-5051986.217498779,2906210.422515869,4636987.209320068,6222738.265991211,-13134647.369384766,1877917.4089431763,-7206505.298614502,1770209.4316482544,-5024628.162384033
0.15,39090930.9387207,39921581.26831055,12152643.203735352,19753358.840942383,47282566.07055664,19625663.75732422,4554946.422576904,4718539.237976074,28249467.849731445,34674793.2434082,33706626.892089844,34933353.424072266,24621404.64782715,21545906.06689453,16172658.920288086,7116513.729095459,12184025.764465332,17464033.126831055,19805307.388305664,16940940.856933594,46969600.677490234,20842321.395874023,11499004.364013672,15057802.200317383,6252214.9085998535,14550874.710083008,16198181.15234375,18144981.384277344,13872864.723205566,13597093.58215332,20208267.211914062,5035198.68850708,7687444.686889648,20250333.786010742,9623640.060424805,9632390.022277832,3412915.9450531006,8096299.171447754,19047235.4888916,11504584.312438965,21420988.082885742,-2195529.2224884033,9699020.385742188,1366628.885269165,6241188.526153564,-4282608.509063721,5101487.636566162,13310556.411743164,15060038.566589355,11616307.258605957,325687.050819397,7150.689139962196,2354971.408843994,-5869295.120239258,2997725.248336792,3901224.6131896973,5553443.431854248,-16699764.251708984,-351756.09588623047,-9068730.354309082,373458.6536884308,-7061171.531677246
0.155,43901203.15551758,45589134.216308594,15641384.12475586,25482545.852661133,52534835.81542969,22094587.326049805,6913558.483123779,6953663.349151611,32868167.877197266,38354675.29296875,37122367.85888672,37099540.71044922,25182481.76574707,20593889.236450195,16369010.925292969,8537411.6897583,14036026.954650879,19456008.911132812,22493776.321411133,18783466.339111328,49115539.55078125,21759782.791137695,11288036.346435547,13704464.91241455,5425645.351409912,14367229.461669922,16503110.885620117,18634597.778320312,14837113.380432129,15334114.074707031,22149156.57043457,4532338.1423950195,7012306.690216064,18995790.481567383,9059167.861938477,9942623.138427734,3455823.4214782715,7558602.333068848,20217937.469482422,12780899.047851562,20972766.876220703,-4440681.934356689,7871209.144592285,772563.9939308167,5330905.437469482,-5072874.069213867,3734181.6425323486,12465713.500976562,14770878.791809082,10557930.946350098,-2099343.0614471436,-2542714.834213257,-129446.1339712143,-8245935.440063477,1123684.048652649,2035537.2428894043,3757942.1997070312,-19205108.642578125,-2858159.065246582,-11554738.998413086,-2059374.5708465576,-9565906.524658203
0.16,56850406.646728516,61618530.2734375,29922952.65197754,37769813.537597656,64820800.78125,27004932.403564453,12433994.29321289,12385142.32635498,43499439.23950195,49108757.01904297,47895313.26293945,45493862.15209961,32052314.75830078,27366193.771362305,17189762.115478516,11649611.473083496,18659746.170043945,24384674.072265625,29161119.46105957,24762180.32836914,54892108.91723633,26644218.44482422,16785505.294799805,13228706.359863281,4149305.820465088,14728086.471557617,17405210.494995117,20766838.07373047,16593759.536743164,17569511.41357422,26879482.26928711,8396096.229553223,6661867.141723633,16983188.62915039,7199914.932250977,8932870.864868164,3220669.984817505,6066784.858703613,20029802.322387695,14766963.005065918,23395023.345947266,-8011182.78503418,4419301.986694336,-1336442.7089691162,2854692.220687866,-8393764.49584961,407344.63930130005,10305080.41381836,14293866.157531738,10086896.896362305,-5711744.30847168,-6333207.130432129,-3801406.3835144043,-12920921.325683594,-2816140.651702881,-1196266.6511535645,560536.0865592957,-22724529.266357422,-6971384.525299072,-15684700.965881348,-5832382.2021484375,-13750920.295715332
0.165,61197959.899902344,68207305.90820312,38197879.791259766,41193225.8605957,70034042.35839844,26097867.965698242,12726056.098937988,12701223.373413086,48581741.33300781,55422775.26855469,55682403.564453125,51256683.349609375,37233463.287353516,34043186.18774414,14825119.018554688,11177337.646484375,20308189.392089844,26833555.221557617,34163280.48706055,29573007.583618164,58790214.53857422,29730640.411376953,21166252.13623047,12092493.057250977,1200811.266899109,13870602.60772705,17485837.936401367,22957349.77722168,17699060.440063477,18548421.85974121,29505640.029907227,11461257.934570312,6308248.519897461,14356709.480285645,4321886.06262207,6757454.395294189,2971303.701400757,5276648.52142334,18334770.20263672,14939153.671264648,24568059.92126465,-11207494.735717773,1591129.3029785156,-3758383.7509155273,179746.3297843933,-11806243.896484375,-2412232.3989868164,7751644.134521484,12770152.09197998,8789719.581604004,-8246593.475341797,-8854029.655456543,-6544971.466064453,-17230260.848999023,-7241171.360015869,-4959972.381591797,-3251243.829727173,-26234287.26196289,-10659629.821777344,-19946634.29260254,-9522654.53338623,-18482444.763183594
0.17,52338928.22265625,58194984.436035156,31987609.86328125,32592262.268066406,63610736.84692383,21020713.806152344,8228563.30871582,8278534.889221191,44333835.60180664,51633171.08154297,53963535.30883789,49718845.36743164,35990734.1003418,34393680.572509766,12445840.835571289,8834350.5859375,18532371.520996094,24945858.001708984,33805335.998535156,29288175.582885742,57330039.978027344,28072635.650634766,20691810.607910156,12674930.572509766,197527.7215242386,13034144.401550293,16744770.050048828,23336816.787719727,17367290.496826172,18028955.459594727,27925960.540771484,10818756.103515625,8929138.18359375,15010643.95904541,3378798.723220825,5407231.330871582,2964064.121246338,5798110.9619140625,16510852.813720703,13052759.170532227,23114803.314208984,-9719329.833984375,3438152.79006958,-3425673.723220825,-252936.51223182678,-12570392.608642578,-2826053.6193847656,6111317.157745361,10742423.057556152,6940290.451049805,-6041589.736938477,-6499692.440032959,-5247827.529907227,-17594442.36755371,-9617963.790893555,-7079126.834869385,-5467473.50692749,-25672780.990600586,-10009217.262268066,-20739810.943603516,-10315941.81060791,-19795652.389526367
0.175,42127880.09643555,44645019.53125,20293329.2388916,23371501.922607422,54215732.57446289,20063526.153564453,6349929.332733154,6470104.694366455,38180324.55444336,43597297.66845703,46480655.670166016,44321796.41723633,31475681.30493164,30545888.900756836,15219433.784484863,10418103.218078613,18134788.513183594,22166929.244995117,30073614.1204834,25055994.033813477,52400741.57714844,24229351.043701172,18182289.123535156,17413108.825683594,4420973.300933838,14757728.576660156,16606897.354125977,21874660.49194336,15730926.513671875,16480735.778808594,24585838.317871094,8797911.643981934,16097398.75793457,20893211.364746094,6149704.456329346,6154689.311981201,3076229.3338775635,6274949.073791504,15082207.679748535,10987928.39050293,21642032.623291016,-2690263.271331787,9880957.60345459,156205.8925628662,1689126.3723373413,-11056141.85333252,-1797093.6298370361,5664320.945739746,9625782.96661377,6435769.081115723,427746.80256843567,24338.096380233765,-472249.5377063751,-14214980.125427246,-8683809.280395508,-6126349.449157715,-4535028.93447876,-20060701.370239258,-4719419.002532959,-16829305.64880371,-7243793.01071167,-15796731.948852539
0.18,41655776.97753906,42239086.15112305,16477436.065673828,23253768.920898438,51565158.84399414,25637887.954711914,10165751.457214355,10347176.551818848,37867610.931396484,40252693.17626953,41769882.20214844,41250045.77636719,29162549.97253418,28165483.474731445,21929162.979125977,16672195.434570312,21815486.907958984,22283548.35510254,27678264.617919922,21120885.848999023,48466720.58105469,21931783.67614746,17152818.67980957,23839168.548583984,11234817.504882812,18928268.432617188,18095163.345336914,20348634.719848633,13420219.421386719,14143669.128417969,22645338.05847168,8248334.884643555,23991687.774658203,28123647.689819336,10705149.65057373,8093050.003051758,3006050.5867004395,5179719.924926758,13221073.150634766,9937334.060668945,22029657.3638916,4702182.292938232,15914649.00970459,3985547.7809906006,3635240.5548095703,-9837326.049804688,-1750506.043434143,5540590.763092041,9807648.658752441,7746444.225311279,6131774.425506592,5671871.185302734,3695737.600326538,-10995436.668395996,-5828480.243682861,-3296295.8812713623,-1583061.0990524292,-13923818.588256836,848164.8564338684,-11475827.21710205,-2907657.6232910156,-9933917.045593262
0.185,48064479.82788086,49713871.002197266,22259166.717529297,29487590.789794922,55945922.8515625,31627944.946289062,15098417.282104492,15280529.022216797,42698741.9128418,43652252.197265625,43790512.08496094,42776653.28979492,30066497.802734375,28606718.063354492,26395219.802856445,22183626.174926758,26814155.57861328,25242853.16467285,28954080.58166504,20453479.766845703,47820335.388183594,21776317.596435547,16936477.661132812,27154483.795166016,15148639.678955078,22604444.50378418,20553850.173950195,20187532.424926758,11401797.2946167,11619626.998901367,22367143.630981445,8337494.850158691,27592599.868774414,31438102.72216797,13821365.356445312,9614396.095275879,2766753.673553467,2833262.2051239014,10849320.411682129,9240845.680236816,22693376.541137695,7090838.90914917,17782960.891723633,5569499.492645264,4161827.0874023438,-9875345.230102539,-3364278.0780792236,4918447.494506836,10149066.925048828,8899095.53527832,7724562.644958496,7276556.015014648,5209688.663482666,-10281176.567077637,-3649286.5085601807,-1171845.1976776123,681820.7502365112,-11535113.334655762,3262467.384338379,-8534081.45904541,-519034.206867218,-6998996.257781982
0.19,52226261.138916016,55773235.32104492,28861570.358276367,34129043.57910156,60967788.69628906,33183078.76586914,16884332.65686035,16940670.013427734,47290382.385253906,48964302.06298828,49111793.518066406,46186565.39916992,31121980.667114258,29001430.51147461,26154760.360717773,23350393.295288086,29517629.623413086,28452276.2298584,32379146.575927734,22511310.577392578,49186195.373535156,21987155.91430664,15472417.831420898,26687177.658081055,14951998.710632324,23753862.380981445,22370449.06616211,21052152.633666992,10616894.721984863,10152064.323425293,22037944.793701172,6975113.868713379,27286138.5345459,30631868.362426758,14686635.971069336,10341536.521911621,2672023.296356201,876148.7007141113,9528179.168701172,8064833.641052246,21650100.708007812,5279062.747955322,17159538.26904297,5776876.926422119,4692110.061645508,-9503336.906433105,-4949835.300445557,3932218.313217163,9536427.49786377,8151310.920715332,7298518.180847168,6973775.386810303,6603002.071380615,-10120016.098022461,-3192016.6015625,-904042.0651435852,934559.4644546509,-11863710.403442383,3873183.7272644043,-8089139.938354492,-245285.64512729645,-7536808.967590332
0.195,52814960.47973633,56343700.40893555,30512388.229370117,35430416.107177734,62736213.68408203,32908821.10595703,17148410.79711914,17039386.749267578,49457756.04248047,51457061.767578125,52109405.517578125,47875873.56567383,30620483.3984375,28429763.793945312,24905000.686645508,22738296.508789062,30075452.80456543,30196483.612060547,35102264.404296875,24574007.034301758,50263935.08911133,21904220.581054688,14076907.15789795,26103609.085083008,14270646.095275879,23306419.372558594,22575967.78869629,21813852.310180664,11208220.481872559,10520988.464355469,21417278.289794922,5281711.578369141,27713254.928588867,29648015.97595215,14763966.56036377,10752543.449401855,2798321.485519409,213683.96282196045,10505398.750305176,7223748.683929443,20104776.38244629,4079364.29977417,17480548.858642578,6557473.182678223,6906861.782073975,-7495210.17074585,-4911282.062530518,3532549.1428375244,8496395.111083984,6477333.545684814,8220262.52746582,7979787.349700928,10387187.957763672,-8008111.000061035,-3076056.0035705566,-1299629.4498443604,401184.5290660858,-11772736.549377441,5306487.083435059,-7792949.676513672,32899.73735809326,-8589870.45288086
0.2,55895339.96582031,57774169.921875,30699047.088623047,37254829.40673828,63166042.32788086,35158756.256103516,19136125.564575195,19028089.52331543,50986701.96533203,50899623.87084961,51252788.54370117,47462875.36621094,30712430.953979492,29904039.38293457,26067531.58569336,24121850.967407227,30824218.75,30651000.9765625,35880916.595458984,24789529.80041504,50546665.19165039,23079753.875732422,16223272.323608398,27464212.41760254,15584310.531616211,23107135.772705078,21550031.661987305,22170881.271362305,12343304.634094238,12266484.260559082,22636526.107788086,6784925.46081543,30883874.893188477,30564012.52746582,14963921.546936035,10729926.109313965,2833713.5314941406,396958.589553833,13097887.03918457,8611185.073852539,21064178.466796875,5507934.093475342,18817176.818847656,7709621.429443359,9736863.136291504,-5245732.78427124,-3536096.5728759766,4817357.063293457,8947455.406188965,6575387.001037598,10146000.862121582,9851161.95678711,14679429.054260254,-5052656.173706055,-1387868.5235977173,-396039.06869888306,1259980.6785583496,-11200351.71508789,6942252.159118652,-6924728.3935546875,1353509.545326233,-8476992.6071167
0.205,62948657.98950195,64002990.72265625,34308036.80419922,40658329.010009766,65137550.354003906,38968883.5144043,22047819.137573242,22143161.77368164,52734817.50488281,49686763.763427734,49492290.49682617,47297653.19824219,33638736.724853516,34960151.67236328,28216232.299804688,26910699.84436035,32241615.295410156,30485588.07373047,35455543.518066406,23620290.756225586,50968677.52075195,26519123.077392578,21993825.912475586,28932645.797729492,17325372.69592285,23417007.446289062,20381523.13232422,22503192.901611328,13019315.719604492,14168380.737304688,26829681.396484375,11996114.730834961,34237487.79296875,31783943.17626953,14839554.786682129,9771929.740905762,2609616.51802063,735677.95753479,15533546.447753906,12560516.357421875,24931087.493896484,7435906.410217285,19069046.020507812,7815113.067626953,10658753.395080566,-4798264.026641846,-2174105.8826446533,7892937.183380127,11830340.385437012,9560803.413391113,10840087.890625,10393274.307250977,16006298.065185547,-4278689.384460449,1639529.4666290283,2319474.935531616,4111886.501312256,-11777512.550354004,6674100.399017334,-6728787.422180176,2720088.005065918,-8085760.116577148
0.21,66365905.76171875,68195480.34667969,38202854.15649414,41294349.670410156,66804534.912109375,39907745.361328125,22433609.008789062,22699426.651000977,52452972.412109375,48520626.068115234,48841205.59692383,47802173.61450195,36753376.00708008,39000000.0,28369222.64099121,27766000.747680664,32435337.06665039,29548892.974853516,34538261.41357422,22129777.908325195,51090904.235839844,29619329.45251465,26170885.08605957,28780481.338500977,17357793.8079834,23196096.420288086,19652379.989624023,22515665.05432129,12660502.433776855,14705002.784729004,30747074.127197266,16132814.407348633,35557949.06616211,31809886.932373047,14256306.648254395,8323592.185974121,2406228.542327881,1000828.6237716675,16363237.380981445,16151758.193969727,28081314.086914062,8262609.481811523,18423061.37084961,7166975.021362305,9359905.242919922,-5900243.282318115,-1684435.7252120972,10915102.005004883,15054569.244384766,13196798.324584961,10748575.210571289,10103932.38067627,14631897.926330566,-6107435.703277588,3267233.13331604,5018317.699432373,6953999.5193481445,-12510334.968566895,5267149.925231934,-7496610.164642334,3000784.6355438232,-8182071.685791016
0.215,59550266.26586914,61924629.21142578,34534336.09008789,35752449.03564453,63004241.943359375,36576091.76635742,19256820.678710938,19454679.489135742,48126136.779785156,45516525.26855469,46908790.588378906,45413536.071777344,34173851.013183594,35708045.959472656,26492918.014526367,25636493.682861328,30085861.206054688,27261957.1685791,32574089.05029297,19884172.439575195,48509792.32788086,27825767.517089844,23494720.458984375,28089653.01513672,16179555.892944336,21884263.99230957,18986305.236816406,21294080.73425293,10986839.294433594,12418697.357177734,29100505.828857422,14030222.89276123,36056705.474853516,31475481.033325195,13963098.526000977,7597019.195556641,2471678.9722442627,952570.915222168,14806706.428527832,15383753.776550293,26683574.676513672,9151466.369628906,19163747.787475586,7432232.37991333,8189997.673034668,-6517565.727233887,-2143631.69670105,11176588.05847168,14996704.1015625,13930278.778076172,12133180.618286133,11286814.68963623,13893141.746520996,-7995651.2451171875,1176476.240158081,4982124.805450439,6897226.810455322,-11078153.610229492,5447922.229766846,-7974744.79675293,2158044.0998077393,-8318460.464477539
0.22,46781013.48876953,48221317.291259766,22381401.06201172,26980333.32824707,52541637.4206543,31934150.69580078,15029953.956604004,15029254.913330078,41665580.74951172,39813755.03540039,40818428.03955078,37470325.4699707,24527303.69567871,25815858.840942383,24631847.381591797,22723260.8795166,26514923.095703125,24184940.338134766,29318691.25366211,16047445.297241211,42392711.6394043,20396575.927734375,15174186.706542969,28086536.407470703,15413659.09576416,20120512.008666992,17963209.15222168,19025295.25756836,8172183.036804199,7454396.724700928,21276134.490966797,6673039.436340332,37491817.474365234,31736333.8470459,14259321.212768555,7986833.095550537,2574035.64453125,203796.72944545746,11169348.71673584,9862921.714782715,21373884.201049805,11023298.263549805,21550500.869750977,8780057.907104492,8873456.954956055,-5727212.429046631,-3215145.8263397217,8185374.2599487305,10816140.174865723,10851417.541503906,14613705.6350708,13673078.536987305,15029076.57623291,-8159046.173095703,-3316912.4126434326,1581290.8411026,3392001.8672943115,-8451290.130615234,7392573.833465576,-7652064.800262451,730629.5037269592,-8431826.5914917
0.225,38475158.69140625,38851413.72680664,10735294.342041016,21239736.557006836,41756080.627441406,28996770.85876465,12504459.381103516,12432037.353515625,37719917.29736328,34561771.392822266,33223075.86669922,27814573.287963867,14545213.69934082,17741140.365600586,23511005.401611328,21244915.008544922,24472135.543823242,22498428.344726562,26825077.056884766,12146626.472473145,36268802.642822266,12812907.218933105,8298854.827880859,27721544.26574707,15283841.133117676,19046154.022216797,17164968.490600586,17558534.622192383,5463480.9494018555,2779412.5080108643,13545103.073120117,692664.8020744324,39099693.298339844,31816013.33618164,14490690.231323242,8648782.730102539,2385730.504989624,-1027221.5604782104,7432680.606842041,4172938.823699951,16870914.459228516,12333876.609802246,22918548.583984375,9453630.447387695,10370420.455932617,-4676533.6990356445,-4267271.041870117,4843825.817108154,6082214.832305908,6955342.769622803,15107598.304748535,14259405.136108398,15750288.009643555,-7505018.23425293,-6146571.159362793,-2427280.6644439697,-638738.6918067932,-8120838.165283203,8369835.85357666,-7487898.826599121,-641373.4555244446,-9158879.280090332
0.23,38653770.446777344,39600902.55737305,8088045.120239258,21007652.282714844,38652256.01196289,27753459.930419922,11846624.374389648,11879597.663879395,38825626.373291016,34302665.71044922,30940185.546875,24038290.02380371,12239737.510681152,17940629.959106445,22054695.12939453,20979354.858398438,25113145.82824707,23886701.583862305,28016965.866088867,11581892.013549805,35060771.94213867,11291300.773620605,8138775.825500488,25750724.79248047,14818786.62109375,19091026.306152344,17516117.095947266,18413206.100463867,4782200.336456299,2069025.7549285889,12489465.713500977,812789.8573875427,38908439.63623047,30647556.30493164,14115619.659423828,8693419.456481934,2069580.316543579,-1670779.4666290283,6105612.754821777,3142275.810241699,16610946.655273438,11174469.947814941,21284114.837646484,8284807.205200195,10498888.01574707,-4702403.545379639,-4650665.283203125,4340488.910675049,4800933.361053467,5726139.068603516,12266953.468322754,11573874.473571777,14018281.936645508,-7737968.444824219,-5189702.51083374,-3683038.7115478516,-1863084.7930908203,-10848954.200744629,6882633.209228516,-8193658.828735352,-1329878.4494400024,-10376869.201660156
0.235,41875164.03198242,44564636.23046875,13082523.345947266,23007236.48071289,44234317.779541016,26464290.618896484,11114618.301391602,11255801.2008667,42615425.10986328,39270732.87963867,36647777.55737305,28610261.917114258,17647432.327270508,23508543.014526367,19323234.55810547,20055677.41394043,26549785.614013672,26931501.388549805,32754859.924316406,15349755.28717041,39241432.189941406,15564000.129699707,12428219.79522705,22900028.228759766,13332851.40991211,19267671.585083008,18561632.15637207,20722299.575805664,6719847.202301025,5465649.604797363,17293075.561523438,4546073.913574219,36352470.39794922,28385932.92236328,13148221.015930176,7934511.661529541,2048230.1712036133,-950804.2931556702,7448994.6365356445,6268548.011779785,18806776.04675293,7759134.292602539,17605792.999267578,5932260.513305664,8561074.256896973,-5658218.860626221,-4315051.078796387,6341253.757476807,6679155.8265686035,7005719.6617126465,8123739.242553711,7439554.214477539,10691856.384277344,-9167995.45288086,-2807254.7912597656,-2169454.0977478027,-413369.5065975189,-13693864.822387695,4420045.375823975,-9431019.78302002,-1308930.2778244019,-11219577.78930664
0.24,42819652.55737305,46868667.60253906,18891174.31640625,23591821.670532227,52241008.75854492,24590305.32836914,9084650.993347168,9236849.784851074,44870304.107666016,44629810.33325195,44970401.763916016,35969257.35473633,23516099.92980957,26988542.556762695,15744768.142700195,17578298.568725586,26166158.67614746,28283613.204956055,37131423.95019531,20015907.287597656,44086143.493652344,19623064.041137695,14774555.206298828,20348716.735839844,10898324.012756348,18155275.344848633,18653146.743774414,22143754.959106445,9385752.67791748,8946154.594421387,21150285.720825195,5887837.4099731445,32549945.831298828,25777385.711669922,11573472.023010254,6536623.477935791,2322441.339492798,471536.8449687958,8782516.479492188,8639356.61315918,19109411.239624023,3870026.5884399414,14039277.076721191,3508683.681488037,5713545.799255371,-6583264.8277282715,-3972291.2311553955,7614013.671875,8077260.0173950195,7630177.4978637695,4934681.415557861,4114027.976989746,7856729.984283447,-10984807.968139648,-2592131.6146850586,-1000771.2841033936,611131.0124397278,-14669480.323791504,2681135.654449463,-10921710.014343262,-1476242.0654296875,-11729661.94152832
0.245,43565494.537353516,48386119.8425293,23129920.959472656,23758979.79736328,56930877.685546875,23785129.54711914,7354748.725891113,7512470.245361328,44718826.29394531,46304103.85131836,48727249.14550781,39525840.759277344,24627817.153930664,26104104.99572754,13045699.119567871,15310162.544250488,24319517.135620117,27028020.85876465,37877651.21459961,21492151.260375977,45255870.8190918,19423921.585083008,12606369.972229004,18105340.9576416,8623471.2600708,16083850.860595703,17411334.991455078,21635450.36315918,10205406.188964844,8914743.423461914,19780334.47265625,2876803.398132324,29472452.16369629,23549961.09008789,9624717.712402344,4940350.05569458,2467633.7242126465,1018099.0695953369,7515249.729156494,7134837.627410889,16275703.430175781,1348183.8703155518,11898139.953613281,1668938.0407333374,3539637.327194214,-7185581.207275391,-4494825.839996338,6049077.987670898,6918798.446655273,5843507.289886475,3036239.6240234375,2133502.960205078,6559172.630310059,-12493191.719055176,-4845534.801483154,-2199182.2719573975,-664536.2973213196,-14839525.22277832,1671373.2481002808,-12684538.841247559,-2531692.5048828125,-12731508.255004883
0.25,47964855.1940918,53675579.07104492,27651018.142700195,26491004.943847656,57633899.6887207,25708490.3717041,8619724.27368164,8840362.548828125,44746612.548828125,45178024.29199219,46646606.4453125,38335960.388183594,22486328.125,24564134.59777832,13113847.732543945,16003559.112548828,24007452.0111084,25859960.556030273,35964637.756347656,19627098.083496094,43115974.42626953,16790950.775146484,9224539.756774902,16493059.158325195,8406302.452087402,15288405.418395996,16559322.357177734,20320007.32421875,8748192.78717041,6139197.826385498,15525040.626525879,-951005.4588317871,29218788.146972656,22837415.69519043,8508883.476257324,4116776.466369629,2305469.751358032,-102549.44115877151,4116062.641143799,3594258.3084106445,13261233.32977295,1592956.54296875,11756937.026977539,1238162.5175476074,2927195.5490112305,-7855179.786682129,-6188463.21105957,2663028.9554595947,4529220.104217529,3316282.5107574463,2399705.410003662,1559894.08493042,6852997.779846191,-13334630.012512207,-6994073.867797852,-4363703.25088501,-2846243.143081665,-15017660.140991211,1266813.7550354004,-13934149.742126465,-3822982.3112487793,-13955887.794494629
0.255,52965782.165527344,59301876.068115234,30731237.411499023,30295812.606811523,55434001.92260742,28709325.790405273,12084813.117980957,12305294.99053955,45668918.60961914,43808101.654052734,42452720.642089844,35104164.123535156,20263229.370117188,24439313.888549805,15514113.426208496,19282192.23022461,25962856.29272461,26524272.918701172,34237632.751464844,17204704.28466797,40510215.759277344,14975880.62286377,7969550.132751465,16822036.743164062,10729853.630065918,16723897.933959961,17165821.075439453,19484897.61352539,6818382.740020752,3845251.7986297607,12619034.767150879,-2315375.804901123,32131534.576416016,24211566.925048828,9227676.391601562,4756927.013397217,2139748.8117218018,-2036937.4752044678,1189478.7549972534,1385615.348815918,12580972.671508789,4534191.131591797,13488644.59991455,2836367.8455352783,3821196.3176727295,-8436821.937561035,-8311002.731323242,-120775.43884515762,2852522.850036621,2264647.7222442627,3556258.201599121,2815943.717956543,8362605.094909668,-13149194.717407227,-7453342.914581299,-5183348.178863525,-3774272.4418640137,-13960473.06060791,2206209.421157837,-13496073.722839355,-4221605.30090332,-14212482.452392578
0.26,51090232.849121094,56936904.90722656,26953895.568847656,29071874.618530273,49942485.80932617,27655256.271362305,12125630.378723145,12168850.898742676,43799743.65234375,41537391.662597656,38544940.94848633,31040798.18725586,17623464.584350586,22912265.77758789,16006084.442138672,20203056.33544922,26139593.12438965,26263967.514038086,32969669.342041016,15451704.978942871,38424030.30395508,13715777.397155762,7488530.63583374,18171728.134155273,12432801.246643066,17683563.232421875,17361021.041870117,18847787.857055664,5810649.394989014,3218911.88621521,11668126.106262207,-2510987.7586364746,34956951.14135742,25609375.0,10450801.849365234,5960221.767425537,2242090.7020568848,-3201478.2428741455,397073.09007644653,1082716.5842056274,12835701.942443848,7329356.1935424805,15341526.985168457,5208379.745483398,5400296.211242676,-7815306.663513184,-9057258.605957031,-675457.8351974487,2183913.7077331543,2308212.995529175,5695582.866668701,5020272.731781006,9984227.180480957,-11670293.807983398,-6769994.258880615,-4576320.648193359,-3332678.5564422607,-11515629.768371582,4238338.470458984,-11803092.002868652,-3794826.5075683594,-13725028.038024902
0.265,41150878.90625,46413627.62451172,16718179.702758789,20223688.12561035,42322216.03393555,19165000.915527344,4298975.467681885,4120007.5149536133,36519573.21166992,36479892.73071289,34539379.11987305,26317356.10961914,13414345.741271973,18103031.158447266,10054537.773132324,14349800.109863281,20762681.96105957,21789968.490600586,30460042.95349121,13184032.440185547,36069175.720214844,11145867.347717285,4807457.447052002,16164119.720458984,9201425.552368164,14774166.107177734,14805324.55444336,17565954.208374023,5208768.844604492,2780402.898788452,10794535.636901855,-4452173.709869385,33188056.94580078,23530336.380004883,9455951.690673828,5850206.37512207,2484985.3515625,-2897940.6356811523,1425436.4967346191,1076242.5661087036,11383152.00805664,6213727.4742126465,14807298.66027832,5709894.180297852,6636673.927307129,-5247628.211975098,-6817762.37487793,1330243.706703186,2284203.7677764893,1714989.7813796997,6177408.218383789,5614546.775817871,10399040.222167969,-9129773.139953613,-5327226.638793945,-3929728.2695770264,-2656201.3626098633,-10482309.341430664,5288394.451141357,-10884185.791015625,-3515600.6813049316,-14245262.145996094
0.27,31159177.780151367,38018623.35205078,9194256.782531738,9835183.143615723,37813854.2175293,6957528.591156006,-7785365.581512451,-7967622.28012085,28087047.576904297,30815576.553344727,31137237.548828125,23302459.716796875,9980967.52166748,13558790.20690918,-1014741.3015365601,4211175.918579102,12660727.500915527,15397829.055786133,27238933.563232422,10237337.112426758,33917716.97998047,8180334.091186523,758654.7136306763,8460086.822509766,1316957.8313827515,9005882.263183594,10713157.653808594,16122644.424438477,4113283.157348633,1609155.6549072266,9781127.9296875,-7651279.926300049,26502059.936523438,17752443.313598633,5943250.65612793,4013003.8261413574,2638855.9341430664,-1923630.714416504,3295840.02494812,757782.518863678,8683836.936950684,1037740.8266067505,11619026.184082031,3576987.7433776855,7045976.161956787,-1852491.6172027588,-2410467.3862457275,4908509.731292725,3475869.1787719727,499196.8274116516,3761541.6049957275,3398469.924926758,9642643.928527832,-6483945.846557617,-2734765.05279541,-3579289.9131774902,-2031103.6109924316,-12871973.991394043,4049411.7736816406,-11714604.377746582,-3640200.8533477783,-16171796.798706055
0.275,28929332.733154297,39585678.10058594,11696154.594421387,6532802.104949951,40682979.583740234,-401860.68415641785,-14795939.445495605,-14721110.343933105,25978376.388549805,29596069.3359375,30944992.065429688,24911674.49951172,10708691.596984863,13756338.119506836,-9639263.153076172,-2241293.6687469482,9065932.273864746,13258398.056030273,26352281.57043457,8845980.644226074,33854656.21948242,7704661.846160889,-751863.1219863892,-168912.8875732422,-5326933.38394165,5330943.1076049805,8932279.586791992,15973233.222961426,3059204.8168182373,914764.404296875,10186494.827270508,-8771149.635314941,19919231.414794922,12741552.352905273,3000638.723373413,2214804.4109344482,2704490.4232025146,-1611110.2104187012,5272376.06048584,986606.5382957458,7699926.853179932,-3866295.099258423,8457988.739013672,1198940.7539367676,6742746.829986572,-98427.69801616669,606940.6867027283,7748745.918273926,5424419.403076172,343784.6899032593,635586.5001678467,434538.90085220337,8985002.517700195,-5271470.069885254,-15861.690044403076,-2841211.7958068848,-1114770.2932357788,-16555992.126464844,1910853.0282974243,-13119415.283203125,-3642191.171646118,-17599554.06188965
0.28,33692775.72631836,47302165.98510742,20486772.537231445,11553061.485290527,48084899.90234375,1708366.6324615479,-11906364.440917969,-11578650.47454834,31587059.020996094,33795783.99658203,34368061.06567383,30017599.10583496,14794894.218444824,17952472.686767578,-9797476.768493652,-313909.5604419708,12832153.3203125,17323112.48779297,28864585.876464844,10467044.830322266,36293125.15258789,10265110.969543457,1734154.1051864624,-2249440.4315948486,-5594303.607940674,6565999.984741211,10873711.585998535,17475091.9342041,3287200.450897217,1940795.660018921,12297639.846801758,-6556087.970733643,18200025.55847168,12584210.395812988,3192052.3643493652,2087905.1685333252,2748903.512954712,-2430974.7219085693,6631267.547607422,2026659.9655151367,9531137.466430664,-4714356.899261475,7710662.364959717,1045126.19972229,5854588.031768799,-1428823.3518600464,-704767.4655914307,7665359.973907471,6444502.830505371,1742686.152458191,-440240.62156677246,-628222.3463058472,8890087.127685547,-6728499.412536621,215711.38501167297,-1957273.3640670776,-418932.9445362091,-18123800.27770996,897540.6885147095,-13948802.947998047,-3580228.090286255,-17253038.40637207
0.285,38821289.0625,52091594.69604492,26133659.36279297,17851684.5703125,52644500.732421875,9083168.029785156,-4234768.390655518,-3904154.062271118,38075950.622558594,38161361.69433594,37750667.572021484,33826576.232910156,17932531.356811523,21572052.001953125,-3620182.514190674,6278196.811676025,18961267.471313477,22417444.229125977,31804224.014282227,13181724.548339844,39093273.1628418,13249097.82409668,5268100.261688232,3185386.896133423,-789604.1870117188,10129350.662231445,13716036.796569824,19256690.979003906,4759272.575378418,3905715.9423828125,14477423.667907715,-3636403.5606384277,20938360.2142334,16135194.778442383,5350935.459136963,3126774.0726470947,2682120.3231811523,-3637895.345687866,6880761.14654541,2978538.5131835938,11890563.96484375,-2393266.439437866,8885131.8359375,2679176.092147827,4455942.630767822,-4663160.800933838,-5095488.07144165,4896509.647369385,5487092.018127441,3051508.1882476807,376425.8325099945,115868.75468492508,8484165.19165039,-10372617.721557617,-2848525.5241394043,-2181495.6665039062,-954532.6828956604,-17407836.9140625,1009680.5095672607,-14667504.31060791,-4165856.36138916,-16446416.854858398
0.29,39658164.978027344,50400314.33105469,24746910.095214844,18668596.267700195,50738227.84423828,13863446.235656738,-485735.8932495117,-331521.30246162415,38564048.767089844,37599731.4453125,37497280.12084961,33361705.780029297,17686859.130859375,22107732.77282715,1756649.4941711426,10487831.115722656,21094873.428344727,22883213.04321289,32032337.188720703,13961647.033691406,39964935.302734375,14324689.865112305,6538245.677947998,9436579.704284668,3800611.972808838,11991496.086120605,14407155.03692627,19914533.615112305,6039574.62310791,4986038.2080078125,15496277.809143066,-2824395.179748535,24481588.36364746,19162509.91821289,6717334.747314453,3791918.2777404785,2435382.127761841,-4195551.872253418,6492994.785308838,3337843.894958496,12405216.217041016,-66116.5788769722,10244103.43170166,4132090.5685424805,3180649.2805480957,-7123071.193695068,-8291840.553283691,2091471.1952209473,3806777.7156829834,2838112.5926971436,1137035.7275009155,826943.2783126831,7552930.83190918,-13671469.688415527,-6428447.246551514,-3739113.8076782227,-2512295.4845428467,-16548305.51147461,1174021.7208862305,-15696251.86920166,-5233767.509460449,-16618593.215942383
0.295,36149948.12011719,45083312.98828125,19749185.56213379,14085563.659667969,45115642.54760742,12846232.414245605,-3287427.6638031006,-3229974.7467041016,33568801.87988281,33040481.567382812,34149944.30541992,30054687.5,15262920.379638672,20608268.73779297,2487925.0526428223,9839480.40008545,18668916.702270508,19304269.790649414,30104101.181030273,12381011.009216309,38639698.02856445,13529295.921325684,5632645.606994629,10896463.394165039,5259983.062744141,11536725.044250488,13257448.196411133,19463830.947875977,6083170.8908081055,4458414.077758789,15623908.042907715,-3547136.3067626953,26681468.963623047,19740457.53479004,6664169.3115234375,3616756.9160461426,2164678.0967712402,-3822308.5403442383,6504353.046417236,3646046.1616516113,11660732.26928711,1286472.5589752197,11378783.226013184,4832356.4529418945,3072806.3583374023,-7172504.425048828,-7768704.414367676,1466959.2380523682,3406609.535217285,1881419.5394515991,1388967.6332473755,1050762.414932251,7448190.212249756,-13965445.518493652,-7179533.4815979,-4985715.389251709,-3466727.7336120605,-15891356.468200684,1604523.3011245728,-15717228.889465332,-5358440.399169922,-16566612.243652344
0.3,30517223.358154297,39443103.7902832,15114531.517028809,8739467.62084961,39887023.92578125,9020771.026611328,-8037682.53326416,-7905973.434448242,28655323.028564453,29064550.399780273,30810218.811035156,26679460.525512695,12441171.646118164,18599670.41015625,634041.1305427551,7249394.89364624,15764694.213867188,16479974.746704102,28627199.172973633,10466940.879821777,36339111.328125,11910113.334655762,4784973.14453125,9042249.67956543,4681344.032287598,10757414.817810059,12338520.050048828,18706029.891967773,5238612.651824951,3084272.623062134,15378502.84576416,-3337020.8740234375,27612771.98791504,19141805.64880371,6430258.750915527,3179836.2731933594,2036559.3433380127,-3141369.342803955,7151783.9431762695,4251338.481903076,11832577.7053833,2584661.2453460693,12594484.329223633,5445996.284484863,4288351.058959961,-5390971.1837768555,-5023607.25402832,2671716.4516448975,4485910.415649414,1905036.8070602417,2120199.9187469482,1742155.4327011108,8986577.987670898,-11089523.315429688,-4849378.58581543,-4264087.677001953,-2598666.6679382324,-13967706.680297852,3194361.448287964,-13420432.090759277,-3649119.1387176514,-14335367.202758789
0.305,25733291.625976562,35142559.05151367,11947430.610656738,6043156.623840332,36691078.186035156,6462769.985198975,-9825469.017028809,-9606138.229370117,27339218.139648438,28084983.825683594,29333833.694458008,24518894.19555664,9939033.508300781,16781827.926635742,-598152.5182723999,5850971.698760986,15183821.678161621,16879337.310791016,28540084.838867188,9694182.395935059,34488620.75805664,10270393.371582031,5190258.979797363,8250570.297241211,3827631.711959839,10607638.359069824,12334377.28881836,18031799.31640625,4421243.667602539,2051727.7717590332,15075126.647949219,-1581419.3487167358,27342241.287231445,18528928.756713867,6382893.5623168945,2796834.4688415527,1971527.2188186646,-3007744.073867798,7770042.896270752,4719429.969787598,13475079.536437988,3486906.051635742,13068118.09539795,5857996.940612793,5559687.13760376,-3557940.0062561035,-2943251.371383667,3885022.1633911133,5621828.556060791,3093637.228012085,3144856.6913604736,2765450.4776000977,10759731.29272461,-7744582.653045654,-1822856.3070297241,-2002198.2192993164,-522138.0591392517,-11172420.501708984,5181514.739990234,-10126768.112182617,-1144661.3073349,-10927604.675292969
0.31,24814039.23034668,33832054.138183594,10782464.981079102,6145569.324493408,36152240.75317383,6391425.132751465,-8473766.326904297,-8284481.048583984,28806304.931640625,29186695.098876953,29693969.7265625,24244853.973388672,8950537.68157959,16360940.933227539,-816527.6646614075,6014258.38470459,16298944.473266602,18795780.181884766,28939548.49243164,9761186.599731445,34279998.779296875,9632164.001464844,6402892.112731934,9177745.819091797,3029704.809188843,10555214.881896973,12708713.53149414,17494039.53552246,4062891.0064697266,2159596.6815948486,15697183.609008789,-10185.250081121922,25836668.014526367,17766757.96508789,5847238.540649414,2468069.076538086,1830524.8022079468,-3705461.9789123535,8220558.166503906,4937085.151672363,15114333.152770996,2799370.765686035,11880098.342895508,5428216.457366943,5709334.850311279,-2864308.8340759277,-2414161.6821289062,4209916.114807129,6034297.943115234,4059061.5272521973,3149217.128753662,2843301.53465271,11014933.586120605,-6716469.764709473,25874.968618154526,-209973.39487075806,1085884.45186615,-9972491.264343262,5790502.071380615,-8536784.172058105,435643.7921524048,-9393266.677856445
0.315,27883863.44909668,35744991.302490234,12219915.390014648,7602162.3611450195,38750236.51123047,7849504.470825195,-6617769.241333008,-6486032.485961914,30794830.322265625,30793079.376220703,31243055.34362793,26401796.340942383,10773688.316345215,18129604.33959961,-985004.3058395386,6922097.206115723,17422002.7923584,19765020.3704834,29103818.893432617,9837258.338928223,35713878.6315918,10678106.307983398,7535596.3706970215,9387365.341186523,2484554.5291900635,10549735.069274902,13324859.619140625,17202157.974243164,3979149.580001831,3333717.3461914062,17951013.565063477,32203.394919633865,24397293.090820312,17205171.585083008,5153755.664825439,2654230.1177978516,1706379.2943954468,-4633852.005004883,9202795.028686523,5525836.46774292,15467676.162719727,1594618.9165115356,10317159.652709961,4861480.236053467,5319980.144500732,-2894728.660583496,-2260444.6411132812,4173247.814178467,6317093.849182129,4018609.046936035,2498460.531234741,2232885.8375549316,10380770.683288574,-7674762.24899292,839571.8336105347,8026.658557355404,1414306.1637878418,-10598649.978637695,5312812.805175781,-8792093.276977539,895536.0054969788,-10106472.969055176
0.32,30459394.454956055,37263011.93237305,14779783.248901367,9371443.748474121,42213787.07885742,9855329.513549805,-5166893.482208252,-4972115.516662598,31782258.987426758,31620704.650878906,32393760.681152344,29144571.30432129,13713416.09954834,19706150.05493164,-572476.863861084,8253898.620605469,17593128.204345703,19045452.117919922,28408855.438232422,9339390.754699707,36142219.54345703,11854891.777038574,7552626.609802246,8319071.7697143555,3055563.6882781982,10927317.61932373,13799335.479736328,16633762.35961914,3569829.7023773193,4216517.925262451,19726024.627685547,-928177.1779060364,24451721.19140625,17741353.98864746,5585175.037384033,3803861.8564605713,1738685.4887008667,-4810492.038726807,10499923.706054688,6366425.514221191,14592085.838317871,2611418.2472229004,10796597.480773926,5647637.367248535,5874130.725860596,-2172550.4398345947,-1427038.4311676025,4278064.250946045,6826499.938964844,3704988.718032837,3427114.963531494,3038517.475128174,10833207.130432129,-7409443.8552856445,1648552.656173706,-280607.2533130646,1282013.4162902832,-9690093.040466309,6139636.993408203,-7866784.09576416,1533474.5645523071,-9714946.746826172
0.325,27923261.642456055,34021377.56347656,15677889.823913574,11625059.127807617,41292652.13012695,12145096.778869629,-2258894.443511963,-1922168.7316894531,30701080.322265625,29866271.97265625,30346652.98461914,28076999.66430664,13409655.570983887,16891122.817993164,1966246.6049194336,9737874.031066895,16277671.813964844,16856548.309326172,25209753.036499023,7583908.0810546875,31653635.025024414,10103906.631469727,5307720.184326172,7979198.455810547,5010987.281799316,10830900.192260742,12412321.090698242,14199144.36340332,2056439.6381378174,3046382.9040527344,16888345.71838379,-1981772.1843719482,24795494.079589844,18502183.91418457,7099214.07699585,5169048.309326172,1744553.2083511353,-3903684.8545074463,10207326.889038086,5859440.803527832,12795610.427856445,5777663.707733154,13101475.715637207,7346719.741821289,7201150.894165039,-126971.3044166565,-282310.426235199,3985207.7960968018,6513684.7496032715,3683503.6277770996,6273435.115814209,5673730.373382568,12038132.667541504,-3970701.9329071045,2641140.4609680176,441073.0302333832,1758606.6722869873,-5260211.944580078,8662394.523620605,-3938292.5033569336,2750695.9438323975,-6133265.495300293
0.33,21465538.024902344,26348526.000976562,14202274.322509766,14821429.252624512,33067378.997802734,14825570.106506348,3556393.86177063,3926431.41746521,26864334.106445312,24254470.825195312,23676492.69104004,21037878.036499023,8131237.030029297,9002970.695495605,6606639.862060547,10733900.07019043,13390540.12298584,13444494.247436523,18368328.094482422,4212330.341339111,21710338.592529297,4812479.019165039,822306.8118095398,9060949.325561523,7211210.250854492,9008894.920349121,8075870.513916016,8903952.598571777,-750458.7173461914,-116943.8362121582,8453901.290893555,-3236499.786376953,22421936.03515625,16999261.8560791,7995231.151580811,5314938.068389893,1399477.243423462,-2691457.0331573486,7115341.663360596,2963345.527648926,9843350.410461426,7213299.751281738,13792010.307312012,7437976.837158203,7017360.687255859,1589593.4104919434,-35148.83294701576,2468568.801879883,4179758.5487365723,2959746.837615967,7690067.768096924,7018640.041351318,10772922.51586914,131269.55926418304,2700707.9124450684,1649723.0529785156,2351243.9727783203,-638265.4309272766,9381155.014038086,308881.4616203308,2764198.7800598145,-2329147.3388671875
0.335,16649507.522583008,18773126.60217285,11811834.335327148,17723340.98815918,21216987.60986328,17664403.915405273,10169505.11932373,10381426.811218262,21010353.088378906,16401117.324829102,15088080.406188965,11896549.224853516,1607559.6809387207,492180.61566352844,10977132.797241211,10906803.131103516,10005856.51397705,9608626.365661621,10010757.446289062,325382.7095031738,11395520.210266113,-580406.129360199,-3929262.399673462,9502137.184143066,8297757.148742676,6184793.949127197,2968484.401702881,2555780.8876037598,-3661696.434020996,-2718237.87689209,-631297.9459762573,-5022408.485412598,16808280.94482422,12728380.20324707,7320391.654968262,4012668.6096191406,812451.4818191528,-2186529.3979644775,3118729.35295105,-694210.5293273926,6004334.926605225,4274742.603302002,10525671.95892334,4726365.089416504,3847036.123275757,790112.4954223633,-1250299.9305725098,73875.3229379654,537300.8251190186,448263.82398605347,4696837.902069092,4171618.938446045,5163715.839385986,483107.5966358185,735637.6647949219,1186501.8606185913,1422355.6518554688,-552929.7590255737,5295622.825622559,662107.8252792358,-237774.23799037933,-2707742.214202881
0.34,15656283.378601074,13890047.073364258,8820392.608642578,17018960.95275879,12550498.008728027,19170282.3638916,12800153.732299805,12786511.421203613,15205039.024353027,10165598.86932373,9517895.698547363,7012517.929077148,-1464311.5997314453,-4127825.7369995117,12282260.89477539,10255536.079406738,7606825.828552246,6692132.949829102,4552433.013916016,-2000057.4588775635,6998760.223388672,-2438542.604446411,-6731744.766235352,7750102.519989014,7859230.518341064,4522698.879241943,762369.1558837891,-1087310.552597046,-4815250.873565674,-2424236.059188843,-4130349.636077881,-6688024.044036865,11495833.396911621,8669322.01385498,6049573.4214782715,2612023.115158081,554777.7414321899,-2401793.2415008545,1538600.0871658325,-2222990.2744293213,2972684.383392334,-427158.8921546936,5596361.16027832,1430431.2467575073,-339980.6320667267,-1919162.8694534302,-2838568.2106018066,-1521881.5803527832,-1871762.5141143799,-2716195.583343506,-567891.4189338684,-907081.1867713928,-1616382.4796676636,-3257408.1420898438,-2275298.833847046,-1496067.6431655884,-1214808.9408874512,-4371093.273162842,-948109.7459793091,-2889616.9662475586,-4862609.86328125,-6767133.2359313965
0.345,15421589.851379395,11055083.274841309,4940702.438354492,11421375.274658203,10825698.852539062,17579477.310180664,9090438.842773438,8959806.442260742,11876249.313354492,8591088.29498291,9769165.0390625,8841564.178466797,-455397.0694541931,-4269186.019897461,10010953.903198242,8782691.955566406,6830930.233001709,5725461.483001709,4704533.576965332,-1494618.1774139404,10042358.3984375,-712893.6052322388,-6901043.891906738,5398336.410522461,6364446.640014648,4723126.8882751465,2279605.8654785156,144836.57479286194,-3447901.964187622,111713.66274356842,-910469.8300361633,-6938839.435577393,10420458.793640137,7950529.5753479,5324491.500854492,2187791.585922241,943820.8937644958,-2503807.544708252,3198246.479034424,-739239.5734786987,2847785.9497070312,-2104477.643966675,3523111.343383789,630898.7140655518,-1897798.8958358765,-3247760.057449341,-2958622.932434082,-991789.6389961243,-1179574.8472213745,-3776726.722717285,-2725226.640701294,-3029888.153076172,-3930051.565170288,-6390360.8322143555,-3480327.1293640137,-3873626.470565796,-3217997.0741271973,-6700186.252593994,-3246527.910232544,-5894200.325012207,-7036402.225494385,-9392877.578735352
0.35,14855672.836303711,11453979.4921875,3281956.195831299,5866038.799285889,15739543.914794922,14150089.263916016,3009903.4309387207,2926056.385040283,13427724.838256836,12546715.73638916,15300667.762756348,15035459.518432617,2700031.9957733154,-935363.233089447,7053157.329559326,7503573.417663574,8083688.735961914,7387455.940246582,9788265.228271484,1674079.8950195312,17211345.672607422,2642911.195755005,-4491831.302642822,5466691.493988037,5065606.594085693,5795668.125152588,5168720.245361328,4960729.122161865,-511176.7053604126,2443042.993545532,5246701.240539551,-5013957.500457764,13939628.601074219,10534796.714782715,5094101.428985596,2327193.7370300293,1574550.0326156616,-2232032.537460327,5723582.744598389,2060364.2463684082,6204838.752746582,400404.27446365356,5696202.754974365,2629361.152648926,53696.57278060913,-1821451.4255523682,-1563860.6548309326,888261.8546485901,1722562.9091262817,-1597458.6009979248,203299.8353242874,-183011.5169286728,-164436.02740764618,-5631609.916687012,-1651361.107826233,-3424813.747406006,-2462904.930114746,-4824587.345123291,404171.07939720154,-5436245.918273926,-4668607.711791992,-7707979.202270508
0.355,18942495.346069336,19287254.333496094,8925922.393798828,7826390.743255615,25689104.080200195,13719731.330871582,1548339.3669128418,1594721.6749191284,21227668.76220703,21362279.891967773,24175556.182861328,22610301.971435547,7529785.15625,6194005.012512207,7277334.213256836,8903519.630432129,12356544.494628906,12250277.519226074,17585433.959960938,6600149.631500244,25059671.40197754,7048442.363739014,800409.5554351807,8652778.625488281,5667622.089385986,7646040.439605713,7920337.200164795,10542689.323425293,2533483.9820861816,3660376.3103485107,11062015.533447266,-1287921.5478897095,19104335.78491211,14145094.871520996,5121766.567230225,2221967.4587249756,1820198.1782913208,-2402723.550796509,6967997.074127197,4472943.305969238,11477968.215942383,3833211.660385132,8891663.551330566,4979781.627655029,2371425.3902435303,-790032.6251983643,-1191996.9320297241,1914202.8093338013,4186258.316040039,1837816.1191940308,4320856.094360352,3893372.5357055664,5030243.396759033,-4114021.3012695312,460833.01305770874,-1148109.793663025,-87818.65984201431,-2200036.04888916,5230957.984924316,-4001087.188720703,-612543.1060791016,-4747734.069824219
0.36,31154935.836791992,34737270.35522461,21401458.740234375,17758518.21899414,38082817.07763672,19061708.450317383,6420467.376708984,6564816.951751709,32967399.59716797,32480735.778808594,33793861.389160156,29993173.599243164,14061984.062194824,16253736.49597168,11105987.548828125,13970407.485961914,19271833.419799805,19389858.24584961,25753461.837768555,11723278.045654297,32186672.21069336,12496451.377868652,8025828.3615112305,12543667.793273926,8530173.301696777,11219266.891479492,11405323.028564453,15208688.735961914,4844375.133514404,4778289.318084717,16145885.467529297,2764997.2438812256,22743646.6217041,17026283.264160156,5867111.682891846,2025085.9260559082,1630026.6981124878,-3544997.215270996,7430102.348327637,6432103.633880615,16135639.190673828,5002846.717834473,9322341.918945312,5631458.759307861,1920994.0433502197,-3376487.7319335938,-3624474.287033081,1244423.270225525,4933390.140533447,3907990.2172088623,5068923.473358154,4651284.694671631,6255296.230316162,-6646145.343780518,-331074.0292072296,-4958.363715559244,1080776.8106460571,-2894649.028778076,6034049.987792969,-5344187.7365112305,813271.701335907,-4672443.866729736
0.365,45236709.59472656,49784488.677978516,32640159.606933594,26791870.1171875,48264591.217041016,25796699.52392578,11343977.928161621,11496681.213378906,42300868.98803711,41124488.830566406,40550033.56933594,35533847.80883789,19592380.52368164,24506303.787231445,14488522.52960205,19271421.432495117,25103141.78466797,25186925.888061523,31563049.31640625,14741219.520568848,37399738.31176758,16929332.733154297,13661111.831665039,14497839.92767334,11351864.8147583,15550866.12701416,15662188.529968262,18558797.83630371,6081568.241119385,6113190.650939941,20475849.151611328,5319577.217102051,23738538.74206543,18685321.807861328,7460618.97277832,2392277.240753174,1520271.7781066895,-4708939.552307129,8689787.864685059,8415789.604187012,18609733.58154297,4269495.010375977,7111050.605773926,5044330.12008667,-251044.92902755737,-7171921.253204346,-6399186.611175537,803067.147731781,5556263.9236450195,4589651.107788086,3186997.890472412,2690882.444381714,4051057.3387145996,-11433197.021484375,-2159125.0896453857,-171757.7874660492,986962.3780250549,-5251018.047332764,4130884.1705322266,-8190603.256225586,-246572.24118709564,-6506985.664367676
0.37,50615436.55395508,55487796.783447266,35551548.00415039,26853878.021240234,52182353.97338867,26878187.17956543,9850002.28881836,9960467.338562012,44077911.376953125,43347305.29785156,41941940.30761719,37451091.76635742,20626947.4029541,26497320.1751709,14009085.655212402,20139425.27770996,25852310.180664062,25971885.681152344,32919322.967529297,14284410.47668457,39092323.303222656,17745834.350585938,14706432.342529297,15022597.312927246,11625095.36743164,17697069.16809082,18208713.53149414,20260362.62512207,6076944.828033447,6340985.298156738,22816129.684448242,5793071.269989014,23566284.1796875,19518356.323242188,9167808.532714844,3434096.336364746,1827458.143234253,-4551384.449005127,10881347.65625,10172930.717468262,19371864.318847656,4606692.790985107,6121450.424194336,5469310.283660889,-197604.55191135406,-6453409.194946289,-5184413.433074951,2960634.708404541,8372898.101806641,6159716.606140137,3625973.2246398926,2936047.5540161133,4121688.8427734375,-11221345.901489258,490319.1030025482,1629974.8420715332,2902574.5391845703,-4012389.659881592,5414673.328399658,-7294353.485107422,896902.5015830994,-5445436.954498291
0.375,45144435.88256836,51523880.00488281,31532325.744628906,20263551.712036133,50526512.145996094,22137214.66064453,3880806.9229125977,3970409.631729126,39966468.811035156,40189319.6105957,39523468.017578125,36167488.09814453,17882711.41052246,23869483.947753906,11863487.243652344,17167585.372924805,22626478.19519043,22482198.71520996,30706302.642822266,11861385.345458984,37518016.81518555,15622821.807861328,12698323.249816895,17274065.017700195,10412360.191345215,16963499.069213867,17498168.9453125,20124221.801757812,5140485.763549805,4699087.619781494,22677011.489868164,5591602.325439453,25109731.674194336,20935829.162597656,10760094.64263916,4866304.397583008,2287364.2444610596,-3318542.718887329,12857440.948486328,11235859.870910645,20149862.28942871,8355874.061584473,9614058.494567871,8727911.949157715,3819210.2909088135,-317994.3859577179,19224.226474761963,7161465.644836426,13205051.42211914,9892395.973205566,9138236.045837402,8335448.265075684,9891988.754272461,-3493340.7306671143,8817042.350769043,7155785.083770752,8537556.648254395,2359095.811843872,12254822.731018066,-827642.6196098328,6954709.529876709,264594.167470932
0.38,37268352.50854492,45166828.15551758,26871328.353881836,15727521.896362305,47819992.06542969,18821462.631225586,1056005.1202774048,1136888.7424468994,36562831.87866211,36868183.13598633,37581970.21484375,34385746.002197266,15713473.320007324,22154085.159301758,12774616.241455078,15986988.067626953,20909572.60131836,19617654.80041504,28462076.18713379,10596584.32006836,35442970.275878906,13879845.61920166,11866969.108581543,22467025.756835938,11240121.841430664,16401597.97668457,15778853.416442871,19091726.303100586,4152944.0879821777,2430299.2820739746,21579095.8404541,6367240.428924561,29518220.901489258,24225685.119628906,12940055.847167969,6487814.903259277,2446033.000946045,-2732244.7299957275,13932650.566101074,11682692.527770996,21787313.46130371,14730691.909790039,16391782.760620117,14204607.009887695,8991631.507873535,5174264.907836914,3820554.733276367,10063722.610473633,17162916.18347168,14095974.922180176,16687551.498413086,16022432.327270508,17843345.642089844,4896070.957183838,16474720.001220703,13135885.238647461,14580102.920532227,9393982.887268066,20067634.58251953,6312842.36907959,14223872.184753418,6501854.89654541
0.385,34556339.263916016,41790699.00512695,24328012.466430664,16695018.768310547,46934787.75024414,21022775.650024414,3957723.617553711,3961712.598800659,37524139.404296875,36920509.338378906,38188301.08642578,33753017.42553711,16008935.928344727,23018255.23376465,16242136.001586914,19024164.1998291,23234935.760498047,20552894.592285156,28495616.912841797,11561087.608337402,35020118.713378906,13759610.176086426,13154593.467712402,26730194.091796875,14421114.921569824,17979539.87121582,15958435.05859375,18726819.99206543,3779737.710952759,1076687.9320144653,20911340.713500977,7472640.9912109375,33667613.9831543,27860164.642333984,15268938.064575195,7717844.486236572,2240373.373031616,-3774403.8105010986,14135860.443115234,11589195.251464844,22990386.962890625,19744987.48779297,21435638.427734375,18565420.150756836,11165721.893310547,4597098.350524902,2079148.292541504,9251096.725463867,17687042.236328125,15809427.261352539,20664251.32751465,20279386.520385742,21484272.003173828,6012400.150299072,16860033.03527832,14690086.364746094,16099521.63696289,11928321.838378906,22706813.81225586,8167237.281799316,16583963.394165039,8126825.332641602
0.39,35663505.55419922,40655448.91357422,22417512.893676758,18633167.266845703,47036010.7421875,23639656.06689453,6863044.261932373,6738398.551940918,40257564.544677734,39044784.54589844,39656574.24926758,33437625.885009766,16293807.983398438,23047178.268432617,16125949.85961914,21411968.231201172,25769739.151000977,23116819.381713867,29739452.362060547,12906429.290771484,35668590.5456543,13381692.886352539,13338428.497314453,24788585.662841797,15583653.450012207,19048666.00036621,17292903.900146484,19503009.796142578,3958960.0563049316,718678.6532402039,20316129.684448242,6794472.217559814,32626312.255859375,27823219.299316406,15371619.22454834,7418289.661407471,1972760.796546936,-5475997.447967529,13329104.42352295,10672327.041625977,21961126.32751465,19325092.315673828,20663665.771484375,18384283.0657959,9274696.350097656,-102237.90258169174,-2736389.8754119873,5855683.80355835,15160783.767700195,14009163.856506348,18644567.489624023,18432699.20349121,18743846.893310547,619904.2797088623,11323665.618896484,11185953.140258789,12479068.756103516,9525240.898132324,19328699.111938477,4630388.259887695,12815981.8649292,4803549.289703369
0.395,35533988.95263672,39361934.661865234,20493350.982666016,17263071.060180664,46742759.704589844,20459690.09399414,4455706.1195373535,4320860.862731934,40903762.81738281,40259067.53540039,40056858.06274414,32557880.401611328,14556845.664978027,20284217.834472656,9654621.124267578,18109348.29711914,24198608.3984375,23524642.944335938,30238706.588745117,13002188.682556152,35986560.8215332,11744154.930114746,10635220.527648926,17300577.16369629,11829928.398132324,16545631.408691406,16959672.927856445,20431221.00830078,4408740.520477295,756915.9865379333,19208557.12890625,4183549.404144287,26018981.93359375,22801382.064819336,12077555.656433105,5337781.4292907715,1860092.6399230957,-6289407.730102539,11384861.946105957,9126865.38696289,18977439.880371094,13901056.289672852,15230357.17010498,14013507.843017578,5887307.167053223,-2873748.540878296,-5064969.539642334,2971685.6479644775,12096015.930175781,10554151.53503418,13500603.675842285,13292895.317077637,13824909.210205078,-3777245.7599639893,6961543.560028076,6704691.8869018555,7939897.537231445,5997315.406799316,14660232.543945312,848467.767238617,7834325.313568115,822783.5893630981
0.4,33264087.677001953,37580863.95263672,19506221.771240234,14007760.047912598,46035881.04248047,13938649.17755127,-757014.811038971,-689333.3196640015,39341678.619384766,39728168.48754883,39541400.90942383,31667318.34411621,12266294.479370117,17360593.795776367,2547161.817550659,11786300.659179688,20022542.95349121,21670835.494995117,30013847.35107422,12602438.926696777,35986263.275146484,10589231.491088867,7724948.883056641,11263359.069824219,6591856.956481934,12449971.199035645,14802898.406982422,20590103.149414062,5132228.851318359,1200552.3443222046,18285821.91467285,2158871.1738586426,19705362.31994629,17233829.498291016,8011163.711547852,3177576.5419006348,1834353.2085418701,-5919017.314910889,9164595.603942871,7965371.131896973,16285634.994506836,9036823.272705078,10471326.82800293,9909502.029418945,3992564.916610718,-1466934.5617294312,-3440016.269683838,2224653.482437134,10314334.869384766,8051960.9451293945,10175952.911376953,9947615.623474121,11956945.419311523,-2875929.594039917,7498021.602630615,4959623.81362915,6295638.084411621,4949957.370758057,13361092.567443848,781359.3745231628,6650303.363800049,50115.060061216354
0.405,30856496.810913086,35290435.791015625,18553394.317626953,11884694.09942627,44495044.70825195,11378050.804138184,-2984128.475189209,-2683345.317840576,37627655.029296875,38275024.4140625,38525161.74316406,30875377.655029297,10992893.21899414,16530950.546264648,1579003.3340454102,9131124.496459961,17894418.716430664,20397752.76184082,30156969.07043457,13031805.992126465,36112422.943115234,10994278.907775879,7290147.78137207,11575272.560119629,5201234.817504883,11277583.122253418,13487360.000610352,20265258.7890625,6033411.026000977,2000519.037246704,18117383.95690918,2183906.078338623,18929985.04638672,16355491.638183594,6789302.825927734,2914400.815963745,1768881.3209533691,-5286573.41003418,8049179.0771484375,7639600.75378418,15207212.448120117,9581381.797790527,10170329.093933105,9826034.545898438,4175813.1980895996,956881.5231323242,-1356634.259223938,2662509.2029571533,9570482.25402832,7213027.477264404,10790702.819824219,10584977.149963379,13858104.705810547,348916.29219055176,9896883.010864258,5569616.794586182,7038395.881652832,6706234.455108643,15508206.367492676,3416661.262512207,8965146.0647583,2230391.025543213
0.41,28357236.862182617,31773565.2923584,15845670.700073242,10736669.540405273,41254257.20214844,13776943.20678711,-1763176.0835647583,-1447110.891342163,36410949.70703125,36570102.69165039,36679977.41699219,29143232.345581055,9741486.549377441,16051870.346069336,5042050.838470459,11197475.43334961,18797105.78918457,20923067.092895508,30706344.604492188,14056419.372558594,35884586.334228516,11275241.85180664,7781580.448150635,14771956.443786621,7423036.098480225,13340722.08404541,14224962.23449707,20302379.608154297,6637264.251708984,2250298.261642456,17844951.629638672,2432831.048965454,21427961.349487305,19268136.978149414,8299374.580383301,4241293.907165527,1701559.066772461,-5209744.930267334,8343671.798706055,7214014.053344727,14707845.687866211,13599540.710449219,12542274.475097656,12404027.938842773,4818166.255950928,1096993.088722229,-1672877.311706543,2720559.83543396,8814098.358154297,6715907.573699951,12892700.1953125,12653574.94354248,15915558.815002441,1146261.45362854,10004698.753356934,5819049.835205078,7241135.120391846,8749126.434326172,17505521.774291992,5100931.644439697,10542488.098144531,4048056.6024780273
0.415,24793428.421020508,28087507.247924805,13048991.203308105,9227766.990661621,37872333.52661133,14844146.728515625,-1610607.7432632446,-1435880.5418014526,35289390.563964844,35466136.93237305,34992660.52246094,26885583.877563477,7925431.251525879,14113533.973693848,5574254.512786865,12529935.836791992,19508996.963500977,21665155.4107666,30969854.3548584,14812477.111816406,35131416.32080078,10216932.29675293,6461846.828460693,14118671.417236328,8196825.981140137,14478543.281555176,15198313.71307373,20888925.552368164,6714514.73236084,1458957.314491272,16836677.55126953,912012.3386383057,20602298.736572266,20283006.66809082,9138072.01385498,4967504.024505615,1754831.314086914,-5689399.242401123,9076161.38458252,5964193.820953369,13632064.819335938,14668031.692504883,12890617.370605469,13209995.26977539,4320444.583892822,-649295.7472801208,-3122255.325317383,2369190.9313201904,8022871.017456055,5579751.014709473,12635605.812072754,12278775.215148926,14932104.110717773,-1008093.8339233398,8137791.633605957,4683518.886566162,5906758.785247803,8656173.706054688,16586214.065551758,4013765.811920166,8851814.270019531,3159871.3397979736
0.42,21222869.873046875,26445325.85144043,13313639.640808105,7687395.095825195,37381278.99169922,10840115.547180176,-4781744.956970215,-4607669.353485107,34407035.82763672,35871749.87792969,35581466.67480469,26434427.26135254,7435435.771942139,12379087.448120117,819090.7835960388,9545698.165893555,17784418.1060791,21068809.509277344,30728366.85180664,15285363.19732666,34918296.813964844,9455677.032470703,4109919.0711975098,8757944.107055664,5060344.219207764,12296690.940856934,14600587.844848633,21329698.56262207,6670570.373535156,722411.6921424866,16130296.70715332,-1186221.2419509888,14579291.343688965,16729797.36328125,7483855.247497559,3941297.769546509,1931611.0610961914,-6238314.628601074,9465139.389038086,4806629.657745361,12797062.873840332,10225680.351257324,9512333.869934082,10584463.119506836,2730693.578720093,-1900052.785873413,-3023960.3519439697,2768393.039703369,8054377.555847168,4677736.759185791,9327940.940856934,8925869.941711426,11555058.479309082,-3096983.4327697754,7469539.642333984,3774722.8145599365,4907484.05456543,6749334.335327148,13742906.57043457,1710630.4168701172,5846748.828887939,736986.517906189
0.425,19283027.64892578,26315740.58532715,15236869.812011719,6499037.265777588,39412784.576416016,5520003.318786621,-8826727.867126465,-8454227.447509766,33579368.591308594,36840106.96411133,37985294.342041016,28351749.420166016,9179584.503173828,12710528.373718262,-4124842.1669006348,4890490.531921387,14673527.717590332,19322744.369506836,29950178.146362305,15653967.85736084,35846797.943115234,10479653.358459473,3520030.2600860596,3879992.961883545,868377.8047561646,8904397.010803223,12914892.196655273,20950977.325439453,6931633.472442627,1354082.9420089722,16773099.899291992,-1498711.5859985352,8246709.823608398,11816280.364990234,5027247.905731201,2200489.9978637695,2079130.8879852295,-6402698.516845703,9764767.64678955,4941925.525665283,13463665.008544922,4520585.060119629,5186082.83996582,7206697.940826416,1252311.9449615479,-1630559.3252182007,-1228088.0212783813,4184333.8012695312,8935280.799865723,5172084.331512451,5842387.676239014,5537059.307098389,8779951.095581055,-3131588.6974334717,8970601.081848145,4531218.0519104,5806760.311126709,5358731.269836426,11923027.992248535,643817.9016113281,4841940.402984619,-417142.3614025116
0.43,18555541.9921875,24891742.706298828,14282652.854919434,4653403.282165527,40030208.587646484,3792596.3401794434,-11065881.729125977,-10611723.899841309,31732759.475708008,36008022.30834961,38796192.16918945,30079580.307006836,10641402.244567871,13576922.416687012,-4976787.567138672,2440313.5776519775,11954257.011413574,17352973.93798828,28513549.8046875,15597665.786743164,36890800.47607422,11802008.628845215,4898932.456970215,2796054.8400878906,-1209585.189819336,6898765.563964844,11477799.415588379,20016582.489013672,7461575.031280518,3011553.7643432617,17965333.938598633,-389891.117811203,5943798.542022705,9229729.652404785,3793244.6002960205,1001302.2422790527,2035443.3059692383,-6076251.029968262,10413690.567016602,5824466.228485107,14836827.278137207,2224237.6804351807,2852661.8480682373,5768117.904663086,487383.1272125244,-898442.5067901611,-10604.726150631905,5127155.303955078,9260312.0803833,6213209.15222168,4439438.343048096,4166690.3495788574,7925653.93447876,-2318249.7024536133,10174815.17791748,5771280.288696289,7237763.88168335,5252161.502838135,11910734.176635742,865825.355052948,5873743.057250977,159825.20580291748
0.435,18434597.01538086,22579324.72229004,10851114.273071289,2496419.1913604736,38069896.69799805,5409724.712371826,-11463774.681091309,-11257843.971252441,29339246.74987793,33599678.03955078,37002410.888671875,30326587.677001953,9968070.983886719,13178046.226501465,-3446757.3165893555,2369805.8128356934,10416372.299194336,16062820.434570312,27348058.700561523,15542490.005493164,37375675.201416016,11790688.514709473,6106917.858123779,3523217.4396514893,-1437175.3931045532,6227161.884307861,10756125.450134277,19645177.841186523,8253528.594970703,4459302.4253845215,18463956.832885742,-130181.01453781128,6279065.6089782715,8692343.711853027,3638980.6270599365,231980.1151752472,1794518.4707641602,-5637919.4259643555,11141273.498535156,5980504.989624023,15008368.492126465,2555631.399154663,2173662.1856689453,5719614.9826049805,-214215.82996845245,-1292566.0610198975,-1079857.9454421997,4125633.2397460938,7868759.632110596,5703128.337860107,3951526.641845703,3472410.9172821045,7373917.579650879,-3130419.969558716,8635686.874389648,5037398.338317871,6527503.490447998,4254045.009613037,11416396.141052246,-30090.991407632828,5752874.374389648,-70962.03416585922
0.44,20565437.31689453,23719684.600830078,11087359.428405762,3195195.436477661,37719047.54638672,7692682.266235352,-10308588.981628418,-10428807.258605957,29496480.94177246,33526309.967041016,36482913.970947266,31813728.33251953,9717121.124267578,13422636.032104492,-2377026.081085205,3382449.6269226074,10986372.947692871,16611064.910888672,28380689.62097168,17063081.741333008,38414604.18701172,11983050.346374512,6675680.160522461,3714444.160461426,-920688.9867782593,6343616.008758545,10895553.588867188,20666358.947753906,9534842.491149902,5399399.757385254,18614267.349243164,-882741.9877052307,6112202.6443481445,8526074.409484863,3872819.185256958,-521733.3436012268,1536304.235458374,-5683170.795440674,11374341.011047363,5310925.006866455,13906851.768493652,2259719.8486328125,1483118.8917160034,5429747.581481934,-1411930.5610656738,-3278110.5041503906,-3851935.1482391357,1833789.9446487427,5526090.145111084,3356249.5708465576,2360591.411590576,1650146.1267471313,5532330.9898376465,-6193247.318267822,4975620.746612549,1976626.1577606201,3366603.374481201,878693.2826042175,8833602.905273438,-3327429.2945861816,2794078.826904297,-2634329.319000244
0.445,25266595.8404541,28984754.56237793,16862770.080566406,8069396.97265625,41612930.29785156,10290740.966796875,-6879576.683044434,-7037206.172943115,33612331.39038086,37701396.94213867,39921337.12768555,36283775.329589844,12586202.621459961,16638662.338256836,-702749.6695518494,5970098.972320557,14369308.471679688,19285343.170166016,31492143.630981445,20145420.07446289,40344291.68701172,14209447.860717773,8094265.937805176,4552984.237670898,1117120.9812164307,8095042.2286987305,12140421.867370605,22408983.23059082,10814414.024353027,6055546.760559082,19139972.686767578,-585382.6403617859,5988706.111907959,9246721.267700195,5012514.591217041,-695783.3766937256,1480242.6099777222,-6298892.021179199,11084367.752075195,4991657.257080078,13381776.809692383,1567346.8112945557,1105404.257774353,5255396.366119385,-2203760.862350464,-5457842.826843262,-6177273.273468018,487801.2537956238,4175808.906555176,1519851.4461517334,614157.3190689087,10211.563669145107,3709492.9218292236,-9193150.520324707,2143268.346786499,-739728.7487983704,615674.8533248901,-2154666.1853790283,6268716.812133789,-6512891.2925720215,-239178.27010154724,-5041893.95904541
0.45,28298007.96508789,32247638.702392578,21434825.897216797,13097696.304321289,45718589.782714844,13850036.62109375,-1934069.7526931763,-1908471.1074829102,37954284.66796875,41859439.849853516,43546451.568603516,39935485.83984375,16172222.137451172,20666505.813598633,3357888.2217407227,10453489.303588867,18844972.610473633,22002565.383911133,33158332.82470703,21665149.688720703,40841777.80151367,16587163.925170898,10499082.565307617,7526140.213012695,5074267.387390137,11467389.106750488,13796277.046203613,23113378.524780273,10706091.88079834,5853540.420532227,19325719.833374023,1455261.5880966187,8237328.52935791,11884278.297424316,7327809.3338012695,319467.9319858551,1666873.6934661865,-6751861.572265625,10912917.137145996,5473084.926605225,14380438.804626465,3327878.475189209,2556755.542755127,6470818.042755127,-1091167.5691604614,-5518488.883972168,-6141533.851623535,1362490.4155731201,4815794.467926025,2364389.419555664,1509357.8100204468,1315272.6888656616,4652853.488922119,-9037575.721740723,2382185.697555542,-340444.4754123688,1105650.544166565,-797801.3753890991,6980787.27722168,-5830855.846405029,607724.0109443665,-3783368.8259124756
0.455,25601848.602294922,28579460.14404297,18861734.39025879,13544772.148132324,45055389.404296875,16627063.751220703,1331025.6004333496,1360207.9153060913,37786079.40673828,40626960.75439453,42124099.73144531,38247917.17529297,16331827.163696289,21437215.80505371,7620712.2802734375,14247374.534606934,21030548.095703125,21997339.248657227,30494228.36303711,19034418.1060791,38224319.45800781,16118070.602416992,12031900.405883789,10815584.182739258,8564897.537231445,14004467.010498047,14314373.970031738,21933698.654174805,8740842.819213867,4334462.1658325195,18395912.170410156,3474890.70892334,11816607.475280762,14887016.296386719,9314721.10748291,1833940.7444000244,1881382.3461532593,-6322323.322296143,11498440.742492676,6082138.538360596,15742759.704589844,7378139.019012451,5371818.065643311,8527740.478515625,1836951.9710540771,-2751921.4153289795,-3689179.1820526123,3433212.5186920166,6650713.920593262,5194576.740264893,5180851.459503174,5271287.441253662,8569610.595703125,-5356265.068054199,5175226.68838501,2767789.125442505,4334256.172180176,4334545.135498047,10567745.208740234,-1353462.2192382812,5051593.30368042,514408.2307815552
0.46,19473632.8125,20971038.818359375,12170305.252075195,10028449.058532715,40950702.66723633,16128293.991088867,738086.1639976501,467777.93765068054,33693206.787109375,35056343.07861328,36881759.64355469,33223587.036132812,13689044.952392578,18799837.112426758,8339757.919311523,14311684.608459473,19825904.846191406,19426456.451416016,25624956.130981445,14391051.292419434,34950000.76293945,13748450.27923584,11575361.251831055,11514180.183410645,8941542.625427246,13750677.108764648,13371076.583862305,20131801.60522461,6655803.203582764,2788801.908493042,17399045.944213867,3873596.668243408,12789019.584655762,15590402.603149414,9403246.879577637,2608063.6978149414,1862934.8278045654,-5395620.346069336,12594054.222106934,6300556.659698486,15920804.023742676,9769782.066345215,7001527.309417725,9513231.27746582,4425645.351409912,420637.99500465393,-1050230.0262451172,4582414.150238037,7969295.978546143,7170058.250427246,8131153.106689453,8154008.865356445,12141983.032226562,-1483582.3774337769,7736935.138702393,5279791.831970215,6891616.344451904,7860842.227935791,12945576.667785645,2396174.430847168,8314143.180847168,3299618.721008301
0.465,15935713.768005371,15665568.351745605,7874423.503875732,6945635.3187561035,38316844.94018555,13074902.534484863,-2099699.4972229004,-2615401.7448425293,30585977.55432129,31275018.6920166,33807178.49731445,30898855.209350586,12087350.845336914,15883015.632629395,5564043.5218811035,11304318.42803955,17660726.54724121,17448419.57092285,23454734.802246094,12448082.92388916,34675094.60449219,12822238.92211914,9759216.30859375,9399879.455566406,6864014.625549316,12071642.875671387,12569214.820861816,19673521.041870117,6556919.097900391,2936406.8508148193,17513858.795166016,2674647.808074951,9548108.100891113,13794798.851013184,8152068.138122559,2479309.08203125,1599485.8741760254,-5211181.640625,12904869.079589844,5968360.424041748,14437020.301818848,8008617.401123047,5960532.188415527,8832066.535949707,4573065.280914307,595702.5289535522,-970297.5153923035,3529266.595840454,7343140.602111816,6132353.30581665,7374491.6915893555,7236049.175262451,12075518.608093262,-1267000.0791549683,7400487.899780273,4391021.728515625,5918483.734130859,6148714.542388916,11316427.230834961,1555842.5188064575,6588324.546813965,1593355.5364608765
0.47,16856470.108032227,14258612.632751465,6765596.866607666,6268571.376800537,38130123.138427734,10570020.67565918,-4128030.776977539,-4481937.408447266,30888837.814331055,32170089.721679688,34992649.07836914,32500286.102294922,11843586.921691895,13758397.102355957,2558509.349822998,8610674.858093262,16907464.9810791,18000453.94897461,25370674.13330078,14377834.32006836,36728919.982910156,13277672.76763916,7158154.9644470215,6291495.800018311,5017643.928527832,11462927.81829834,13119345.664978027,20825096.130371094,8099918.365478516,4105566.5016174316,17465620.040893555,186013.51976394653,4739861.965179443,11641471.862792969,7271195.888519287,2281342.5064086914,1344206.690788269,-6311135.292053223,11286117.553710938,4485265.254974365,11515697.479248047,4099301.338195801,3509241.3425445557,7773780.345916748,2451927.900314331,-2570387.363433838,-3746440.887451172,664534.6879959106,4563666.820526123,2404744.1482543945,3863743.543624878,3779036.521911621,8809423.446655273,-4925445.556640625,4060731.887817383,555461.7643356323,1871160.864830017,1402760.5056762695,7290058.135986328,-2786492.5861358643,1332165.4796600342,-2758878.231048584
0.475,18785816.192626953,14724163.055419922,5761317.729949951,6478663.444519043,37710472.106933594,9737735.748291016,-4561474.800109863,-4448722.362518311,32187740.325927734,34499847.412109375,36666610.71777344,33608627.31933594,10055624.008178711,11291168.212890625,1007313.7283325195,7915326.118469238,17121063.232421875,19409753.799438477,27872779.846191406,16679594.039916992,37130630.49316406,11991950.988769531,4036183.8340759277,3431560.0395202637,4469451.904296875,12030776.977539062,14092821.12121582,21935283.660888672,8951426.50604248,3930738.687515259,15338034.629821777,-3265793.3235168457,1784165.859222412,10631166.458129883,7274045.944213867,2453019.618988037,1319114.8042678833,-7656790.256500244,8475105.285644531,1633248.5675811768,7978734.493255615,1518741.250038147,1873608.8275909424,7576350.688934326,262421.0715293884,-5620309.829711914,-6460329.532623291,-2165585.2794647217,1295214.8914337158,-1487446.5465545654,933499.9918937683,1034937.0241165161,5923873.424530029,-8803848.266601562,525845.4084396362,-2998542.070388794,-1899804.949760437,-1819363.8324737549,4425501.346588135,-6372823.238372803,-2658186.197280884,-5856435.775756836
0.48,18358333.587646484,16127029.418945312,4699570.655822754,6113153.457641602,36445743.560791016,8504996.299743652,-4989486.217498779,-4494865.894317627,31466056.82373047,34368572.23510742,35754898.07128906,32081226.348876953,7074224.948883057,9394301.414489746,-220455.66141605377,7818151.950836182,16703542.709350586,19080228.805541992,27559787.75024414,16415557.861328125,34747123.71826172,8836506.843566895,1856124.758720398,1320800.4236221313,4270369.529724121,12086355.209350586,13943489.074707031,21588932.037353516,8056760.787963867,2094213.7241363525,12274765.968322754,-5938138.961791992,1426336.8844985962,10499505.996704102,7381735.801696777,2572089.433670044,1467093.586921692,-7734847.068786621,6954501.628875732,-879250.168800354,5745609.283447266,1350989.580154419,1840293.8842773438,8167065.620422363,-89686.64705753326,-5326266.288757324,-6066841.125488281,-2740483.7608337402,193270.10214328766,-2707759.8571777344,544459.6409797668,700771.0337638855,6147587.776184082,-9341478.34777832,-14006.810262799263,-3313652.515411377,-2244067.668914795,-1807130.217552185,4314095.020294189,-6532778.263092041,-2424041.748046875,-5893391.6091918945
0.485,15323683.738708496,17873592.376708984,5509513.378143311,5054754.257202148,36288120.26977539,4897708.415985107,-6838521.0037231445,-6250998.497009277,28693555.83190918,31972976.684570312,33803840.63720703,31214416.50390625,7019854.545593262,10722791.67175293,-2196526.288986206,6474469.184875488,15383737.564086914,16951896.66748047,24998495.10192871,14789487.838745117,32753780.364990234,7686611.652374268,2506956.8157196045,350020.05100250244,3602671.6232299805,11021146.774291992,12676450.729370117,20215534.210205078,6935249.328613281,1076261.4011764526,11443764.686584473,-5584262.847900391,1832531.213760376,10298821.449279785,7004293.918609619,2127586.603164673,1566068.5300827026,-6398104.667663574,8247172.3556518555,-762361.6456985474,6472058.296203613,2192244.052886963,2329843.9979553223,8642121.315002441,1103805.661201477,-2531554.698944092,-2980830.430984497,-427533.2987308502,2167439.9375915527,-653527.2598266602,1824355.6022644043,1899191.975593567,8487365.72265625,-6703584.671020508,2736104.965209961,-522893.2499885559,727630.1980018616,-99229.91693019867,5852708.339691162,-4167750.358581543,710676.9680976868,-3873854.875564575
0.49,11300769.805908203,17832324.981689453,7336452.960968018,3303716.1827087402,37517181.396484375,-293027.96721458435,-10025239.944458008,-9499648.094177246,25751567.840576172,29900051.11694336,33342094.42138672,33523498.53515625,10938504.219055176,14886974.334716797,-4722877.502441406,3607194.185256958,13731823.921203613,14957015.991210938,22884099.96032715,14403056.144714355,33459068.298339844,10235629.081726074,5537766.456604004,-346727.1029949188,2166944.2653656006,9501902.58026123,11359776.496887207,19251607.89489746,7272477.626800537,2406748.056411743,13417293.548583984,-2608735.3229522705,475146.3234424591,8972213.745117188,5994131.088256836,1049918.8899993896,1530910.7303619385,-5061287.403106689,10890762.329101562,1672629.2371749878,9147339.820861816,2023163.5570526123,1532185.0776672363,8005839.3478393555,1795711.636543274,-752484.381198883,-430273.26464653015,2815486.6695404053,5054610.729217529,2287012.3386383057,2438774.347305298,2507413.148880005,9512050.62866211,-4054719.924926758,5976587.772369385,2420506.9541931152,3823419.3325042725,1318138.599395752,7067271.2326049805,-1954018.8312530518,3322528.600692749,-1773469.2096710205
0.495,8740688.32397461,15615441.32232666,8000425.338745117,1256515.8605575562,38420253.75366211,-4630679.607391357,-13480430.603027344,-12955007.553100586,24064146.041870117,29420288.0859375,34052757.263183594,36366905.212402344,14561640.739440918,18163627.62451172,-7655049.800872803,-29887.676239013672,11760037.422180176,14165816.307067871,22383136.749267578,15273394.584655762,35105190.27709961,13048487.663269043,8357740.40222168,-2842897.891998291,-637221.2767601013,7734031.200408936,10437546.730041504,19296234.130859375,8593343.734741211,4314726.829528809,15449757.57598877,6640.068255364895,-3922488.9278411865,5736926.078796387,4209239.482879639,-329816.997051239,1507503.867149353,-4886400.6996154785,12183527.946472168,3677222.728729248,10810821.533203125,-537143.7668800354,-1517219.1858291626,5802721.5003967285,550385.594367981,-1516784.906387329,-224842.78678894043,4480342.388153076,6364055.156707764,3465402.364730835,752024.4121551514,945240.7956123352,7282131.671905518,-3687348.6042022705,7316585.063934326,3185522.7947235107,4510120.391845703,1377617.7167892456,6637856.006622314,-1771970.8681106567,3552132.3680877686,-1038665.2946472168
0.5,9183215.141296387,13777378.08227539,7562080.860137939,-158012.61365413666,38123283.38623047,-6806139.945983887,-16138206.481933594,-15519770.622253418,23543945.3125,29576463.69934082,33957633.97216797,36165615.08178711,14360566.139221191,18430795.669555664,-10901966.094970703,-3546220.302581787,9329020.500183105,13787268.63861084,22408000.946044922,15375939.36920166,34983722.68676758,12656243.324279785,9390751.838684082,-7207206.726074219,-4640142.440795898,5581636.905670166,9632381.439208984,19558189.392089844,9236530.303955078,4480936.527252197,15621208.190917969,561063.5876655579,-9869661.331176758,1584925.889968872,2152289.867401123,-1331178.6651611328,1652546.4057922363,-5292356.491088867,11640116.691589355,3889971.7330932617,10322092.056274414,-5094392.776489258,-5682230.9494018555,2959242.582321167,-1699639.6780014038,-2760061.264038086,-678895.5330848694,4572373.390197754,6619285.106658936,3205139.636993408,-2682514.429092407,-2394482.135772705,3512573.719024658,-4726535.320281982,7442027.0919799805,2734956.741333008,3855507.1353912354,-90086.38560771942,4552601.8142700195,-3465688.943862915,2373361.825942993,-1886821.985244751
0.505,9858909.606933594,11948633.193969727,5772966.8617248535,-1779918.4322357178,36031795.501708984,-7665195.465087891,-17706546.783447266,-17049304.962158203,22514389.038085938,28429697.036743164,31835525.512695312,33075954.43725586,11380870.819091797,16673870.086669922,-13158224.105834961,-5949688.911437988,7065023.899078369,12641601.5625,21359325.408935547,13731003.761291504,32827823.638916016,9918765.0680542,8855875.968933105,-10142641.067504883,-7471583.366394043,4007159.2330932617,8966651.916503906,18935668.9453125,8586562.156677246,3180229.902267456,14754743.576049805,12821.757234632969,-13736616.134643555,-466861.21821403503,1468884.4680786133,-1158675.3129959106,1913190.3648376465,-4950878.620147705,11086451.530456543,3690130.4721832275,9333329.200744629,-8823401.45111084,-8110927.581787109,1668384.6712112427,-2541406.1546325684,-2092851.6387939453,398856.90808296204,5059664.249420166,7895306.11038208,3646741.6286468506,-5246826.648712158,-4985187.530517578,1604295.3729629517,-4839215.7554626465,8141843.795776367,3432542.562484741,4453531.265258789,-1913586.3780975342,2335862.636566162,-5204656.600952148,1678663.969039917,-3172061.2049102783
0.51,5187778.472900391,5148125.171661377,-466439.72396850586,-6341130.256652832,30309450.149536133,-8831779.479980469,-18774126.052856445,-18244220.733642578,19152364.73083496,24796300.888061523,27562461.853027344,28926315.307617188,7445333.003997803,13273047.44720459,-12998061.180114746,-6481204.986572266,5805511.951446533,10675457.000732422,18727596.282958984,11169694.900512695,29622972.48840332,6957121.3722229,6426806.926727295,-9316297.53112793,-6614627.361297607,4423628.330230713,8844761.848449707,17320228.576660156,7202628.135681152,1791261.1961364746,13399470.329284668,-1308619.499206543,-13359894.752502441,1495551.9437789917,3348273.992538452,376980.36432266235,2099753.1414031982,-4021157.2647094727,11192166.328430176,3713934.898376465,8512197.494506836,-8565268.516540527,-6750685.214996338,3444801.092147827,-643839.7765159607,36548.25687408447,2097078.800201416,6060151.100158691,9455543.518066406,4485979.5570373535,-4478943.347930908,-4288070.6787109375,3040898.7998962402,-3354133.6059570312,8745172.500610352,4910457.134246826,5960074.901580811,-1966181.2782287598,2050838.7088775635,-5293201.923370361,1741937.0412826538,-3560510.3969573975
