time,Fp1,Fpz,Fp2,AF3,AF4,F7,F5,F3,F1,Fz,F2,F4,F6,F8,FT7,FC5,FC3,FC1,FCz,FC2,FC4,FC6,FT8,T7,C5,C3,C1,Cz,C2,C4,C6,T8,TP7,CP5,CP3,CP1,CPz,CP2,CP4,CP6,TP8,P7,P5,P3,P1,Pz,P2,P4,P6,P8,PO7,PO5,PO3,POz,PO4,PO6,PO8,CB1,O1,Oz,O2,CB2
0.0,2607043.2662963867,4921864.032745361,2710368.1564331055,1498777.6279449463,2145164.2513275146,323914.110660553,708721.8165397644,786620.9149360657,1679057.9557418823,924654.4241905212,1244266.9868469238,1333221.5547561646,1356009.0065002441,1343471.4078903198,-312897.83120155334,-253801.04780197144,321942.44861602783,379647.1953392029,233206.5850496292,542522.6092338562,695095.2410697937,682380.0802230835,659383.237361908,-246517.67313480377,-109066.73222780228,10567.34099984169,-312767.47584342957,-55926.82585120201,256635.21885871887,684590.5184745789,145598.6201763153,673938.8704299927,-288426.63764953613,143266.2159204483,-159842.53585338593,-85200.2501487732,-73268.30923557281,181363.21008205414,-9238.172322511673,-139826.10404491425,-173311.9934797287,-316246.8373775482,-160678.1929731369,-116688.25149536133,-316266.0300731659,-34079.913049936295,-577777.8625488281,-172322.77989387512,-164770.88630199432,-159668.50519180298,-693247.2586631775,-621791.0051345825,-725135.2667808533,15655.303373932838,-159770.29502391815,-192115.82839488983,-196967.76568889618,-184395.50697803497,-222808.01832675934,1857.2297412902117,-154637.75396347046,-144269.86873149872
0.005,8868613.243103027,10799464.225769043,-6491528.511047363,-1448576.807975769,-1254114.1510009766,-13165884.971618652,-13303973.197937012,-11398736.000061035,-2895628.4523010254,1477309.9422454834,-167704.85043525696,-675574.2430686951,-114615.09764194489,-670382.1420669556,3553967.9527282715,-9284990.310668945,-3408766.269683838,-2056264.6389007568,594331.5625190735,1674247.0264434814,586761.5342140198,-2255658.6265563965,1210857.9874038696,5375081.539154053,1970312.7145767212,-4447698.11630249,-3556869.7452545166,-1303975.9397506714,3231.522161513567,2735908.7467193604,-1818938.136100769,937495.4700469971,5033560.752868652,1401081.919670105,-3593230.2474975586,-1952667.9515838623,-1594837.9039764404,-309060.5437755585,1055688.1427764893,2922370.195388794,2104257.583618164,4413372.039794922,-3766034.1262817383,-2595794.200897217,-2777259.111404419,-306809.2167377472,2672474.8611450195,3165401.9355773926,2982956.647872925,3251532.793045044,-4225909.70993042,-2356034.278869629,-20587886.810302734,10716833.114624023,3880694.86618042,3115851.879119873,2608840.9423828125,12168053.62701416,10892065.048217773,10571735.382080078,3468142.7478790283,4583664.894104004
0.01,10609365.463256836,16421541.213989258,-8169228.553771973,-1668120.3842163086,-1020728.588104248,-21723695.755004883,-18088640.213012695,-15265814.781188965,-2486810.6842041016,3348752.737045288,808529.9730300903,-1535539.3886566162,-729007.7209472656,-1523600.459098816,1163899.302482605,-14963199.615478516,-4658913.612365723,-1745352.3874282837,2672333.240509033,5335737.228393555,2481750.011444092,-3290249.824523926,245854.60126399994,3765769.9584960938,792977.0946502686,-6736732.959747314,-5031761.646270752,-1566742.5394058228,2006931.5433502197,4088684.08203125,-3396503.448486328,15228.05169224739,3222876.3103485107,-562590.2414321899,-7451275.825500488,-2638303.518295288,-2024190.1874542236,1005620.7180023193,893616.5571212769,1794841.7663574219,838530.2424430847,2424957.275390625,-7758886.337280273,-5958382.606506348,-5701004.0283203125,-269007.8914165497,2986688.6138916016,2108399.3911743164,1930020.3323364258,2347083.330154419,-9833796.501159668,-7033126.354217529,-33086418.15185547,12485223.770141602,3258801.4602661133,2199441.432952881,1462504.1484832764,13570280.075073242,11753343.58215332,12249379.15802002,2624119.0433502197,4196550.8460998535
0.015,8632985.11505127,19027236.938476562,-5352188.1103515625,-627914.0114784241,285355.8361530304,-22329807.28149414,-15551045.417785645,-12742578.506469727,484086.811542511,4867662.42980957,2020053.8635253906,-2976878.1661987305,-2213502.6454925537,-3001290.5597686768,-3883605.480194092,-15803030.014038086,-3653749.2275238037,377637.23731040955,5408102.512359619,8911033.630371094,4961102.485656738,-3205707.788467407,-2466881.036758423,-1406254.0531158447,-1613258.3618164062,-6617681.503295898,-4612006.187438965,-1067506.3133239746,4640022.754669189,4095184.803009033,-4944116.115570068,-2445404.052734375,-2023849.4873046875,-3693484.5447540283,-9753510.475158691,-2218785.524368286,-1553098.9170074463,3017577.1713256836,-528334.6772193909,-1970314.5027160645,-2604722.261428833,-2702949.047088623,-10159013.748168945,-8315795.8984375,-7445316.314697266,-23075.979202985764,969184.8754882812,-1715294.7187423706,-1781617.0454025269,-1317429.1849136353,-14295558.92944336,-11555026.054382324,-35249660.49194336,7324283.123016357,-452037.66226768494,-1433243.2746887207,-2060376.8825531006,6615608.215332031,4971818.923950195,7014074.325561523,-1053356.7667007446,365670.3233718872
0.02,8008111.000061035,17181539.53552246,-5674470.4246521,-685606.0028076172,-1372302.770614624,-15186890.602111816,-13323767.66204834,-10778556.823730469,991700.3512382507,4062151.9088745117,424539.14880752563,-6324842.929840088,-5654916.286468506,-6472246.6468811035,-2907607.078552246,-12241125.106811523,-2067657.709121704,1707550.048828125,6574075.698852539,8415505.409240723,6079855.442047119,-3354645.4906463623,-5129034.042358398,-654480.8745384216,-329965.82984924316,-5215650.55847168,-3324103.355407715,-829497.218132019,5095441.818237305,3141265.392303467,-6214728.832244873,-5007277.488708496,-1280017.8527832031,-3369234.323501587,-8310055.732727051,-1734265.685081482,-1235926.0320663452,3651200.532913208,-1894024.133682251,-3357462.8829956055,-3897434.949874878,-1928487.6585006714,-8834320.068359375,-7225937.366485596,-6565530.776977539,37716.95867180824,-595009.2673301697,-3114392.2805786133,-3175518.9895629883,-2671363.592147827,-13031076.431274414,-10747971.534729004,-30661088.943481445,4303506.851196289,-1915252.0895004272,-2854202.0320892334,-3211120.367050171,2808978.0807495117,1476334.4526290894,3922635.078430176,-2335346.6987609863,-1158629.6558380127
0.025,11496853.828430176,14039002.418518066,-9842186.92779541,-581186.2349510193,-4550851.821899414,-4193897.7241516113,-13111121.17767334,-10578233.71887207,-376191.8842792511,2303546.667098999,-2599859.9529266357,-9394081.115722656,-8700835.227966309,-9685201.644897461,5794245.719909668,-5977303.028106689,-412432.13415145874,1981363.296508789,5954856.872558594,4972126.483917236,6823985.0997924805,-3279940.605163574,-5642256.736755371,8142757.415771484,5777136.80267334,-3386268.6157226562,-2073888.7786865234,-1303656.4588546753,3875210.2851867676,2441294.1932678223,-6050966.739654541,-5645817.756652832,7504940.986633301,1168030.1427841187,-4233397.483825684,-1882781.6247940063,-1583756.0892105103,3080047.607421875,-2017550.7068634033,-722131.9079399109,-1587763.5478973389,6725689.41116333,-4907421.588897705,-3470850.706100464,-4571289.539337158,-276252.1803379059,-353694.70715522766,-432754.9934387207,-605081.4986228943,-58330.439031124115,-6977784.633636475,-4924412.250518799,-26462898.25439453,7524183.750152588,718356.7881584167,-418812.3643398285,-598759.1743469238,7570156.574249268,6216811.180114746,7137790.679931641,445387.24422454834,1588159.3227386475
0.03,15664840.698242188,12929918.28918457,-12958503.723144531,1772057.7716827393,-5475335.121154785,4505092.620849609,-11310809.135437012,-8640596.389770508,222081.34829998016,2124846.2200164795,-3790322.5421905518,-10324542.045593262,-9541021.347045898,-10661594.39086914,15005460.739135742,6364.229135215282,1542989.2539978027,2670884.132385254,5001043.796539307,3160291.910171509,8333834.648132324,-2947256.565093994,-4700295.448303223,17439409.255981445,12373291.969299316,-1574089.4079208374,-1578789.472579956,-1933441.5197372437,3499943.971633911,2051977.8728485107,-4942039.966583252,-4784678.936004639,16790916.442871094,6216792.583465576,-893889.6656036377,-2418915.033340454,-2129331.8271636963,2820292.9496765137,-1448664.7844314575,2499251.6040802,1423667.073249817,15950376.510620117,-1586101.1743545532,-184762.1351480484,-3831521.0342407227,-722013.1158828735,958890.3188705444,2856726.884841919,2638239.3836975098,3119271.5167999268,-1342893.9580917358,826725.4829406738,-26467317.581176758,12753143.310546875,4103121.757507324,2704897.165298462,2511890.172958374,15524327.278137207,13903420.448303223,12458676.3381958,3827265.739440918,4999252.796173096
0.035,14869097.709655762,11996535.301208496,-14184022.903442383,3997281.312942505,-5397091.865539551,6347812.175750732,-8225685.119628906,-5567942.142486572,1841195.7025527954,2647515.7737731934,-3971496.58203125,-11822575.569152832,-11002188.682556152,-12077626.22833252,18185966.49169922,2264014.959335327,2760339.4985198975,3441433.906555176,4069672.5845336914,3986239.6717071533,8283071.517944336,-4747251.033782959,-5611705.303192139,20354257.583618164,14869668.006896973,-591859.2810630798,-2563374.2809295654,-2111406.8031311035,4152220.7260131836,533385.0383758545,-5704755.3062438965,-5557123.66104126,19750329.971313477,8787508.010864258,201208.35304260254,-2767121.5534210205,-2324903.964996338,2849296.3314056396,-1876451.1346817017,2872067.68989563,2137278.3184051514,18993785.858154297,-197372.00438976288,1184542.179107666,-3893763.780593872,-958294.689655304,2341717.481613159,3414129.4956207275,3275358.4384918213,3527429.5806884766,1223541.7366027832,3564373.016357422,-28025890.350341797,14962060.928344727,4890958.786010742,3403100.2521514893,3103508.472442627,19516887.664794922,17745414.73388672,14757593.154907227,4488285.064697266,5589250.564575195
0.04,8189034.461975098,7617211.34185791,-17311517.7154541,1604928.2550811768,-8641005.516052246,2057078.1230926514,-8511817.932128906,-6032121.181488037,-230955.70504665375,697606.3847541809,-6769273.281097412,-17103340.14892578,-16311231.61315918,-17221807.4798584,16183603.286743164,-305371.16527557373,1680449.366569519,2308955.192565918,2267808.9141845703,3968187.3321533203,4319741.249084473,-9878936.767578125,-9823584.55657959,17983665.466308594,13180521.011352539,-1193568.1104660034,-4785692.21496582,-1993176.2218475342,3969142.198562622,-2229099.988937378,-9473875.045776367,-9569248.19946289,17460065.841674805,9299735.069274902,332508.1467628479,-2761839.1513824463,-2266051.2924194336,2076601.0284423828,-3766810.655593872,993731.1410903931,812864.2439842224,16752943.03894043,400625.3480911255,1724524.1403579712,-2640507.936477661,-962917.8643226624,3052735.0902557373,1845470.4284667969,1764198.1840133667,1777794.0034866333,2140963.7928009033,4465524.673461914,-27110261.917114258,14113809.585571289,3526394.3672180176,2115745.5444335938,1740344.0475463867,18553880.69152832,16854707.717895508,13899460.792541504,2990208.148956299,4038858.8905334473
0.045,336827.3675441742,1299367.4278259277,-22646610.260009766,-4904779.434204102,-14468629.837036133,-3173576.1165618896,-12674180.98449707,-10314404.487609863,-5961488.723754883,-3754717.3500061035,-11968461.990356445,-23494297.02758789,-22705801.010131836,-23490537.643432617,13467333.793640137,-4818880.081176758,-1107500.3147125244,-605774.3430137634,33582.545816898346,1443995.5949783325,-572559.8335266113,-14734984.397888184,-14302893.63861084,15242088.317871094,10415897.369384766,-2967359.781265259,-6510551.452636719,-2060014.4863128662,3067824.8405456543,-3614798.069000244,-13004794.120788574,-14010734.558105469,14727208.137512207,8875630.378723145,419210.5829715729,-2632073.163986206,-2320722.5799560547,1029989.1233444214,-5528114.318847656,-523681.2233924866,-610805.9883117676,13949229.24041748,698248.4459877014,2015956.163406372,-525062.6802444458,-977048.9931106567,2102656.126022339,459448.3971595764,319328.635931015,319705.605506897,2300790.786743164,4479997.158050537,-24912097.930908203,12522268.295288086,2141874.7901916504,822254.3001174927,427758.127450943,15799081.802368164,14158400.535583496,12277517.318725586,1550333.3806991577,2723138.0939483643
0.05,-3895547.389984131,-1656048.6555099487,-25371082.305908203,-9681899.070739746,-16988283.157348633,-4816705.226898193,-15247558.59375,-12815936.088562012,-9358599.662780762,-6573416.233062744,-14704458.236694336,-24970201.49230957,-24110939.025878906,-24886735.916137695,11906806.945800781,-7001765.251159668,-2880122.661590576,-2207323.7895965576,-305098.0567932129,-439411.07392311096,-947501.1229515076,-14702647.20916748,-15174404.14428711,13966771.125793457,8728975.296020508,-4545860.290527344,-6161192.417144775,-2290606.2602996826,3885774.850845337,-1586790.0848388672,-12636728.286743164,-14990875.244140625,13342056.274414062,7089517.593383789,-606852.9486656189,-2572834.7301483154,-2496490.716934204,1494888.7825012207,-5610103.607177734,-968308.2103729248,-1529832.363128662,12519727.70690918,-577699.3036270142,852448.9402770996,-577818.6321258545,-1107554.316520691,-758780.7178497314,-299816.0719871521,-500545.7401275635,-253393.56064796448,332154.5124053955,2446929.454803467,-26484622.955322266,10589314.460754395,1205580.1153182983,-84051.80275440216,-464793.5628890991,13219384.19342041,11437906.265258789,10437837.600708008,614708.9004516602,1989139.0800476074
0.055,-3548286.199569702,443094.5813655853,-22795568.466186523,-8785459.518432617,-13611598.96850586,-2558065.414428711,-12949002.265930176,-10333483.695983887,-6922102.928161621,-4754640.102386475,-12064589.500427246,-20406496.047973633,-19471830.368041992,-20337348.93798828,10900883.674621582,-5461779.1175842285,-1925757.2889328003,-385632.30633735657,2448718.0709838867,1201111.078262329,3198994.8749542236,-10535311.698913574,-12560643.196105957,13132289.88647461,8208792.686462402,-4918581.008911133,-4191481.590270996,-2274870.3956604004,6995196.342468262,1899258.8520050049,-9409271.240234375,-12468952.178955078,12391952.514648438,4068290.2336120605,-3234835.386276245,-2593913.3167266846,-2548925.1613616943,3501630.0678253174,-4422762.393951416,-1400838.2558822632,-2432836.7710113525,11650185.585021973,-3599506.616592407,-2020018.3391571045,-3753120.183944702,-1212897.0623016357,-3756132.125854492,-1222708.2252502441,-1383239.507675171,-849181.2944412231,-3549138.069152832,-1335471.9877243042,-32878807.067871094,7810119.62890625,138683.15517902374,-1148119.0919876099,-1491450.0713348389,10940640.449523926,8952379.22668457,7818837.642669678,-484745.88990211487,951989.8295402527
0.06,-194028.839468956,3862970.8290100098,-18109672.54638672,-4494641.7808532715,-8577282.905578613,1197199.3446350098,-9101126.670837402,-6349396.705627441,-2314562.3207092285,-426643.1927680969,-6988135.33782959,-14812991.14227295,-13919033.05053711,-14928624.153137207,10876135.82611084,-2333733.7970733643,614151.7758369446,2896062.6125335693,6100432.872772217,4078516.960144043,5949740.886688232,-7203792.095184326,-9832832.336425781,12980987.548828125,8824705.123901367,-4016857.147216797,-2331819.2958831787,-1968840.9566879272,9409998.893737793,3013773.202896118,-7460441.112518311,-9754705.429077148,12276004.791259766,2489767.7898406982,-5129400.253295898,-2638216.257095337,-2452529.9072265625,4858891.487121582,-3462441.2059783936,-1993270.3971862793,-3006330.2516937256,11603598.594665527,-5598189.830780029,-3971214.2944335938,-6828752.040863037,-1191979.0506362915,-4699649.333953857,-1909654.974937439,-2033827.543258667,-1401207.9238891602,-5596444.129943848,-3229468.34564209,-38045879.36401367,5730252.265930176,-519539.475440979,-1805422.6636886597,-2130692.958831787,9607322.692871094,7595120.429992676,5734362.602233887,-1260807.752609253,76748.0880022049
0.065,4653134.346008301,5621490.955352783,-15207910.537719727,-1153305.6497573853,-6507910.72845459,4947260.37979126,-7495126.724243164,-4739333.152770996,-426932.9905509949,1863077.7597427368,-4137681.9610595703,-12162342.071533203,-11451918.601989746,-12608895.301818848,13436685.562133789,271420.03178596497,2657789.707183838,3943472.385406494,7044099.3309021,3518572.5688934326,3631390.5715942383,-6915284.633636475,-9160029.411315918,15351677.894592285,11255835.53314209,-2250807.523727417,-1375068.9029693604,-1786671.4000701904,8160017.967224121,902074.5754241943,-8358684.539794922,-9077201.843261719,14839393.615722656,5075010.776519775,-3307030.9162139893,-2642602.6821136475,-2381875.0381469727,4062892.436981201,-3410754.2037963867,-1766264.796257019,-2429797.410964966,14062251.091003418,-3586907.386779785,-2052333.5933685303,-6137446.403503418,-1155215.9786224365,-3847735.88180542,-1271887.0639801025,-1485921.025276184,-967040.9560203552,-2504648.6854553223,-67776.29256248474,-35491680.14526367,7095490.9324646,259342.78964996338,-1054832.5777053833,-1473217.6065444946,10876603.126525879,9050864.219665527,6868898.868560791,-641573.2502937317,597157.2399139404
0.07,9426710.12878418,6994816.780090332,-14124362.94555664,33488.36675286293,-6949639.797210693,8924384.117126465,-6716029.167175293,-4055438.0416870117,-1109829.068183899,363717.9732322693,-4653887.748718262,-11471879.005432129,-10948105.812072754,-12203733.444213867,18673492.431640625,2765912.7712249756,3697945.8332061768,1789566.0400390625,4086077.2132873535,-1478574.3951797485,-736565.9475326538,-7307270.050048828,-9898307.800292969,20553890.228271484,15426266.67022705,-179485.2763414383,-809240.1623725891,-1909897.804260254,3733235.8360290527,-1888722.538948059,-10109662.055969238,-9832200.050354004,20220022.201538086,10959542.274475098,2067054.271697998,-2547410.011291504,-2346738.338470459,1931005.9547424316,-3994157.552719116,-565667.2716140747,-1022714.2572402954,19211093.90258789,1927561.87915802,3319530.487060547,-1721975.564956665,-1202928.3046722412,-3252888.4410858154,352256.6258907318,22779.569029808044,345587.283372879,4445264.81628418,6848305.702209473,-26442264.556884766,12408181.190490723,2031840.8012390137,650323.8081932068,22704.2268961668,15671370.506286621,14022614.479064941,11970574.378967285,1033381.8197250366,2258661.985397339
0.075,12443624.496459961,9921952.247619629,-13045109.748840332,540401.3395309448,-7077754.020690918,13061535.835266113,-3728839.874267578,-1154977.4408340454,-1391784.5487594604,-2588778.495788574,-6425437.450408936,-10666373.252868652,-10146892.547607422,-11433670.043945312,24420780.181884766,6243225.574493408,4614484.3101501465,-959914.2670631409,-400421.29158973694,-7305842.876434326,-2554419.0406799316,-6544892.78793335,-10648321.151733398,26342439.651489258,19710670.471191406,1552182.912826538,-281092.0774936676,-2000149.7268676758,-955844.4023132324,-3305219.6502685547,-11046810.150146484,-10610978.126525879,25991115.57006836,16511449.813842773,7611345.7679748535,-2375278.7113189697,-2201579.5707702637,-25945.233181118965,-4874236.583709717,693063.4379386902,148585.06619930267,24816482.543945312,7391014.575958252,8702637.672424316,3316134.452819824,-1225685.1196289062,-3365689.516067505,1665076.9710540771,1369461.5364074707,1536808.4907531738,10990540.504455566,13328490.257263184,-18556188.583374023,18927026.748657227,3479586.124420166,2047434.0915679932,1257689.9528503418,22771385.192871094,21097101.21154785,18520725.25024414,2522389.4119262695,3747458.9347839355
0.08,13256090.16418457,12978943.824768066,-11859457.969665527,1059186.4585876465,-6436641.216278076,15884580.612182617,410741.7166233063,2989443.54057312,-665431.022644043,-3751476.049423218,-7521313.667297363,-10137854.57611084,-9428504.943847656,-10698393.821716309,28217939.376831055,9680958.74786377,5810891.151428223,-1486973.524093628,-2946134.567260742,-10193916.320800781,-1523336.1721038818,-6042929.649353027,-10635347.366333008,30120588.302612305,22317939.75830078,2578938.7226104736,-31915.348023176193,-1775972.0087051392,-3553548.0976104736,-3587076.6639709473,-11407004.356384277,-10649684.90600586,29543672.561645508,19336280.822753906,10329570.770263672,-2245882.511138916,-1986090.5408859253,-1265258.6698532104,-5529037.952423096,1850834.9657058716,1179356.575012207,28401441.57409668,9967599.868774414,11283495.903015137,6287595.748901367,-1091537.9524230957,-2572617.0539855957,2698805.093765259,2538685.5602264404,2651631.5937042236,14348624.229431152,16652547.836303711,-16793582.916259766,23149068.83239746,4616407.871246338,3217095.8518981934,2470396.9955444336,28906553.268432617,27040851.593017578,22901269.912719727,3819416.9998168945,5003827.5718688965
0.085,12794137.954711914,13272023.20098877,-11861478.805541992,935731.2917709351,-6349416.732788086,16202981.948852539,2298471.9276428223,4945792.198181152,-268244.50492858887,-2231290.340423584,-7536688.327789307,-10548005.104064941,-9661987.3046875,-10892984.390258789,29368919.372558594,10759131.43157959,6688605.785369873,174519.16635036469,-2108711.004257202,-9636417.388916016,-6584.977265447378,-6847665.309906006,-9294778.823852539,31249164.581298828,22958965.301513672,3085415.6017303467,87135.02436876297,-1460692.048072815,-3477812.2901916504,-3101763.2484436035,-11106086.730957031,-9390906.33392334,30419506.072998047,19973096.84753418,10225725.173950195,-2207911.491394043,-1922941.5655136108,-1751414.2990112305,-4939217.567443848,3792018.6519622803,3159651.279449463,29480482.10144043,9850685.119628906,11165228.843688965,6609237.6708984375,-882729.5899391174,-531417.0122146606,4649560.928344727,4535918.712615967,4712761.878967285,15025930.404663086,17340139.389038086,-18213390.350341797,23775339.126586914,6576050.758361816,5282038.688659668,4724509.716033936,31066600.799560547,29042449.951171875,23563211.44104004,5946760.177612305,7107287.883758545
0.09,11964180.946350098,11106300.354003906,-13170690.536499023,409349.6799468994,-6682488.918304443,15642208.099365234,1892754.7931671143,4569141.387939453,180812.0310306549,377330.7502269745,-6695657.730102539,-10364940.643310547,-9511478.424072266,-10709035.873413086,29408235.549926758,9344255.447387695,6939132.213592529,1766491.413116455,679003.4174919128,-7591746.807098389,1543094.9926376343,-7007619.857788086,-6612351.894378662,31366039.276123047,22763225.555419922,3366207.8380584717,758559.2865943909,-1371879.1007995605,-1618452.0721435547,-1089069.128036499,-9244551.658630371,-6760173.320770264,30460708.618164062,20008403.778076172,9390213.966369629,-2137425.8995056152,-2031088.5906219482,-1402829.7662734985,-2802525.9971618652,6413652.8968811035,5873927.593231201,29737815.856933594,9126262.664794922,10332708.358764648,5160248.756408691,-745203.3758163452,528317.3322677612,7304986.476898193,7137018.203735352,7455448.627471924,15211525.917053223,17550197.60131836,-17130783.081054688,22423126.220703125,9155058.860778809,7949710.369110107,7527452.46887207,29782062.530517578,27761709.213256836,22142871.856689453,8596236.228942871,9784114.837646484
0.095,12545788.764953613,11267583.847045898,-13024526.596069336,1562758.5649490356,-5456696.510314941,18259235.382080078,2731394.2909240723,5350480.556488037,2469368.6962127686,2438225.507736206,-5118692.398071289,-7869504.451751709,-7207828.044891357,-8426001.54876709,30798690.795898438,8426181.79321289,7433742.523193359,1802570.104598999,3023653.030395508,-5836105.3466796875,4340987.682342529,-4567692.756652832,-3932307.481765747,32869915.008544922,22962741.85180664,3410242.3191070557,2051756.6204071045,-1411836.5049362183,298323.6610889435,2415987.253189087,-6452394.008636475,-4046474.9336242676,32073715.209960938,20155307.76977539,9408640.86151123,-1929703.2356262207,-2050570.4879760742,-663444.459438324,-602784.1567993164,8070404.052734375,7485936.641693115,31410833.35876465,9273708.34350586,10309676.170349121,3290441.7514801025,-623960.1373672485,-740440.845489502,8771157.264709473,8594174.3850708,9047045.707702637,16471065.521240234,18782678.604125977,-13445955.276489258,21760829.92553711,10549359.321594238,9362979.888916016,8933897.018432617,29127241.134643555,27200956.344604492,21532003.40270996,9973477.363586426,11156718.254089355
0.1,19673252.10571289,20390647.888183594,-5638735.771179199,6729077.339172363,-454749.6438026428,26348094.940185547,6868193.14956665,9409513.473510742,6467633.7242126465,4424630.165100098,-2505724.6685028076,-3282849.5502471924,-2757214.7846221924,-4069456.5773010254,33877483.36791992,10576983.451843262,9262678.146362305,1201993.9422607422,4211140.155792236,-4481876.373291016,8134016.990661621,-466920.1970100403,-2431198.835372925,35954994.201660156,23697376.251220703,3292621.850967407,3195659.399032593,-1320888.0424499512,1109314.0840530396,5592874.526977539,-4777141.571044922,-2483271.837234497,35247535.705566406,20109619.140625,9841870.307922363,-1718038.0821228027,-1862916.111946106,-350041.4788722992,14540.175907313824,7770198.822021484,7050629.615783691,34477626.80053711,9756167.4118042,10756134.033203125,1979846.3582992554,-400066.16711616516,-2309233.9038848877,8207757.949829102,8049442.291259766,8590948.104858398,18059831.619262695,20250171.661376953,-13126253.128051758,22419099.807739258,9906168.937683105,8740666.389465332,8235982.894897461,31217823.028564453,29324232.10144043,22342084.884643555,9334949.493408203,10401544.570922852
0.105,38802947.998046875,42262741.08886719,14331562.995910645,16048044.204711914,9751562.118530273,36196647.64404297,12121163.368225098,14649440.76538086,9690674.781799316,8075592.994689941,1881192.922592163,2953886.2705230713,3503990.411758423,2102543.830871582,34744224.548339844,14125405.311584473,11902065.27709961,1674257.0400238037,5664873.6000061035,-2366865.873336792,11582926.750183105,3892843.48487854,-888452.8279304504,36695068.359375,23529911.041259766,3242666.9597625732,3738925.4570007324,-1205677.3900985718,1688709.2590332031,7263870.2392578125,-4266729.354858398,-947095.6325531006,35894866.943359375,18766439.43786621,8630261.421203613,-1736684.2031478882,-1719975.7099151611,-181458.57751369476,-312796.6523170471,6347838.401794434,5616315.841674805,35035694.12231445,8431645.393371582,9642383.575439453,992179.2149543762,-231357.1274280548,-1739994.764328003,6805809.497833252,6516932.487487793,7129218.578338623,16764305.114746094,18809926.986694336,-20635541.915893555,21622575.759887695,8282716.751098633,7242207.050323486,6660201.072692871,31577068.328857422,29646234.5123291,21473793.029785156,7791744.232177734,8708546.63848877
0.11,67315170.28808594,73646568.29833984,45500732.421875,26634220.123291016,24602575.302124023,39999862.67089844,14897337.913513184,17483940.12451172,10459979.057312012,13309913.635253906,8077431.678771973,11673876.762390137,12326203.346252441,10965247.15423584,28256319.046020508,14328297.61505127,13035170.555114746,3134002.447128296,8489348.411560059,1222457.5281143188,15163655.281066895,9485571.86126709,3110491.2757873535,30036983.489990234,20263683.319091797,2729439.2585754395,4000627.9945373535,-1386851.191520691,3947412.4908447266,8796241.760253906,-2274977.207183838,2999141.216278076,29054035.186767578,14581001.281738281,4029179.573059082,-1989657.4020385742,-1873707.2944641113,1286020.6365585327,608095.2882766724,4728785.991668701,4153479.0992736816,28284324.645996094,3574076.6525268555,5075199.127197266,-835052.490234375,-431361.97328567505,21276.075392961502,5410048.007965088,4888762.474060059,5537417.888641357,9635933.876037598,11663211.822509766,-33428707.122802734,16057731.628417969,6542429.447174072,5677274.703979492,5021877.288818359,23661951.065063477,21760650.634765625,15491996.765136719,6106877.326965332,7004333.019256592
0.115,92549407.95898438,104156761.1694336,77450660.7055664,34471790.3137207,40066989.89868164,34033161.16333008,14162669.18182373,16839126.586914062,9777371.406555176,17170690.536499023,14089833.25958252,22483041.763305664,23216754.913330078,22051391.6015625,14841647.148132324,8832934.379577637,11015452.38494873,3712945.4612731934,11257544.51751709,5040025.71105957,20565610.885620117,17273635.864257812,9462814.331054688,16509023.666381836,13461874.008178711,517329.3352127075,4171870.708465576,-1820342.6599502563,7757872.104644775,11878535.270690918,2375634.6702575684,9370473.861694336,15457624.435424805,7494396.686553955,-3087310.791015625,-2228627.4433135986,-2188301.8016815186,4280270.576477051,3189266.2048339844,2618198.6331939697,2143735.17036438,14868316.650390625,-3728029.96635437,-2131479.024887085,-3746175.527572632,-951039.0162467957,183549.4488477707,3247197.8664398193,2714006.9007873535,3269282.341003418,-1753458.857536316,418881.8335533142,-44841285.705566406,6719665.52734375,4171310.4248046875,3336684.465408325,2672323.226928711,8734971.046447754,6958533.28704834,5766674.995422363,3637228.488922119,4681255.81741333
0.12,102668228.14941406,122496162.41455078,97986160.27832031,37764446.25854492,50339900.970458984,23723655.700683594,12068000.793457031,14856208.801269531,9851725.578308105,17042297.36328125,17169195.1751709,31734760.284423828,32522491.455078125,31601785.65979004,2456857.442855835,946280.0025939941,7409648.418426514,2372377.872467041,11368899.34539795,6632986.545562744,27028686.5234375,24759969.71130371,15228507.041931152,4149465.0840759277,6385534.763336182,-3182731.1515808105,3970048.666000366,-2092988.2526397705,10297325.134277344,15614652.633666992,7073622.226715088,15246409.41619873,3169913.2919311523,749731.7790985107,-8900234.22241211,-2279110.908508301,-2335131.4067840576,6585688.11416626,5232887.744903564,211036.26489639282,-402387.02297210693,2626579.2846679688,-9428065.299987793,-7966202.735900879,-6087540.149688721,-1300161.7193222046,-1557159.185409546,386235.773563385,164541.70644283295,492062.62826919556,-10848392.486572266,-8529429.43572998,-50300701.14135742,-385133.0280303955,1400643.3486938477,378242.3436641693,-132187.81352043152,-2719872.47467041,-4467306.137084961,-1280877.947807312,668739.9744987488,1867492.1989440918
0.125,97998680.1147461,124444946.2890625,102558677.67333984,37966709.13696289,52785243.98803711,17907279.96826172,11339973.449707031,14259100.914001465,11765593.528747559,14059249.877929688,16861740.112304688,35667430.87768555,36486633.30078125,35755035.400390625,-1039913.535118103,-3669352.7698516846,5827467.918395996,295686.12575531006,8438758.850097656,5058659.076690674,31141145.706176758,28205732.345581055,18431348.80065918,820362.2698783875,3778410.4347229004,-5657481.670379639,3459034.6813201904,-2025917.7684783936,9473963.737487793,17781457.901000977,9132428.169250488,18512310.028076172,-83096.59361839294,-1331421.971321106,-9737857.818603516,-2244824.8863220215,-2250800.132751465,6107010.841369629,5161646.366119385,-454506.36744499207,-1293793.2014465332,-773318.7675476074,-9943295.4788208,-8619146.347045898,-6151573.657989502,-1171720.6239700317,-2900135.278701782,-647271.6331481934,-594825.0889778137,-429314.7921562195,-11911128.044128418,-9606618.881225586,-49389938.35449219,-75222.47731685638,568754.3749809265,-651451.1108398438,-912373.5427856445,-2305722.236633301,-4244036.1976623535,-591170.9666252136,-228400.43902397156,955587.62550354
0.13,87090881.34765625,113591484.06982422,93908805.84716797,36401023.864746094,49568126.6784668,18015333.17565918,12109785.079956055,15114462.852478027,14222233.772277832,11469809.532165527,15072302.81829834,34183944.70214844,34991168.97583008,34369758.60595703,3190503.8356781006,-3390231.6093444824,7394338.130950928,-1107640.3856277466,4963486.671447754,2120048.5229492188,31128236.770629883,27356769.561767578,19817947.387695312,5184827.3277282715,6480260.372161865,-4705038.547515869,3183719.8734283447,-1907102.9424667358,6781362.533569336,18157142.639160156,9407521.24786377,19809616.088867188,4350198.745727539,1492215.9910202026,-6077323.436737061,-2323012.590408325,-2174017.906188965,3924588.680267334,4335395.336151123,1891847.9681015015,1065240.740776062,3478761.911392212,-6115837.097167969,-4775310.039520264,-4645952.7015686035,-892572.283744812,-2965870.8572387695,1821876.5258789062,1778240.2038574219,2056577.9209136963,-6339073.657989502,-4154600.143432617,-44554260.25390625,5716973.781585693,3072289.46685791,1916065.2160644531,1746114.4924163818,6111112.594604492,3978180.6468963623,5427076.816558838,2476340.5323028564,3473613.0237579346
0.135,73452705.38330078,94801628.11279297,74614761.35253906,30964296.340942383,43170372.009277344,16281974.792480469,11164397.239685059,14129669.189453125,13873386.38305664,9951418.87664795,12518083.572387695,29318880.081176758,30110025.40588379,29507476.806640625,6599579.811096191,-2408144.474029541,8535514.831542969,-2623860.8360290527,3189634.084701538,128611.44542694092,29110685.348510742,24987783.432006836,20079689.025878906,8465929.985046387,9578923.225402832,-2206946.1345672607,3088948.0113983154,-2009332.8952789307,5301441.669464111,18423654.556274414,9865338.325500488,19921831.130981445,7837099.075317383,4268070.697784424,-2559467.554092407,-2536323.070526123,-2279435.873031616,3106605.052947998,4766345.024108887,4722841.739654541,4192024.7077941895,6890138.626098633,-2768748.0449676514,-1349896.4309692383,-4086023.8075256348,-974475.7413864136,-3605634.927749634,4998415.470123291,4673480.987548828,5277612.209320068,-1387452.7215957642,750895.3213691711,-40092067.71850586,9495593.070983887,6115505.218505859,5270530.223846436,4912117.481231689,11202507.019042969,9177412.986755371,9099894.523620605,5817068.576812744,6624212.741851807
0.14,53035629.27246094,70429794.31152344,46178028.10668945,18900806.427001953,32882041.931152344,6157644.748687744,5182033.538818359,8001869.201660156,7962912.559509277,6942286.968231201,7397756.099700928,21654026.03149414,22507503.509521484,21799924.850463867,3868566.9898986816,-5476429.9392700195,4979955.196380615,-6288338.661193848,2634400.3677368164,-793388.1282806396,27912282.943725586,22350418.090820312,17997924.8046875,5406310.558319092,7858798.027038574,-2312913.417816162,2376499.891281128,-2192140.579223633,5781118.869781494,19035524.368286133,9613451.957702637,17815425.872802734,5104205.60836792,2652310.371398926,-3079948.902130127,-2718603.3725738525,-2464128.255844116,4642208.099365234,5901471.6148376465,4148465.633392334,3847561.1209869385,4183150.7682800293,-3546841.621398926,-2125455.141067505,-5515648.365020752,-1375281.9299697876,-5870526.7906188965,4473036.766052246,4087574.9588012695,4936083.3168029785,-1940107.1071624756,260905.71284294128,-40269306.18286133,6830053.806304932,5491242.408752441,4896820.068359375,4296288.967132568,8049898.147583008,6358290.672302246,6267019.748687744,5270226.955413818,6047739.505767822
0.145,26111810.6842041,44482810.974121094,16207187.65258789,3020711.898803711,18649557.11364746,-8513519.287109375,-4664029.598236084,-1985231.3995361328,-1849129.319190979,1308419.7044372559,-668535.8881950378,11622822.761535645,12576924.324035645,11699597.358703613,-1361570.5966949463,-12108849.52545166,-2511088.3712768555,-12261716.842651367,1600431.6806793213,-2012538.6714935303,27668807.983398438,18587741.85180664,13471470.832824707,29342.781752347946,2276405.3344726562,-5870022.296905518,928112.9240989685,-2180780.1723480225,6335438.251495361,18569112.77770996,6803402.900695801,13441191.673278809,-101025.17157793045,-1571296.5726852417,-6462541.580200195,-2707085.609436035,-2521449.089050293,6229403.972625732,5691362.380981445,576788.9022827148,140078.06777954102,-933681.070804596,-6924468.994140625,-5560442.924499512,-6928691.387176514,-1563319.0870285034,-7588588.237762451,652838.2301330566,455959.2008590698,1254142.165184021,-5158530.235290527,-2926342.9641723633,-44745525.36010742,1858415.6036376953,1704613.0895614624,1048452.2581100464,468413.5615825653,3114888.1912231445,1581923.9616394043,1293827.2953033447,1232440.2332305908,2139922.3804473877
0.15,3185168.504714966,24995716.094970703,-2258876.323699951,-8817567.825317383,5512518.405914307,-18221998.21472168,-12896934.509277344,-10293199.53918457,-9692626.953125,-3916628.59916687,-7749999.046325684,2872734.785079956,3809960.6037139893,2866551.160812378,-2782095.193862915,-17515451.431274414,-8696183.204650879,-18080501.556396484,27923.24312031269,-3600680.8280944824,26921550.750732422,14594696.998596191,9943063.735961914,-1139681.5776824951,-1544086.8139266968,-9297693.252563477,-222601.979970932,-2000488.28125,5696458.339691162,16634971.618652344,3174410.581588745,10103019.714355469,-1418290.4958724976,-3249303.102493286,-8345506.66809082,-2494836.0919952393,-2389406.681060791,5647726.535797119,4268193.244934082,-925436.794757843,-1696767.6877975464,-2102770.5669403076,-8543875.694274902,-7238703.727722168,-5829913.61618042,-1297595.500946045,-6112977.981567383,-920139.7895812988,-988885.8199119568,-479009.62829589844,-4824576.854705811,-2677352.6668548584,-47384700.775146484,2243328.094482422,242535.62092781067,-711820.3639984131,-1014844.7751998901,4623539.924621582,2915175.9147644043,1742492.1989440918,-584446.9666481018,465892.40431785583
0.155,-6196175.575256348,17314411.163330078,-3770913.83934021,-12356336.59362793,-322902.70924568176,-19864557.26623535,-15700065.612792969,-13138098.71673584,-11428158.7600708,-5249217.510223389,-9480212.211608887,69779.07568216324,849627.8524398804,17508.68745148182,-317961.99083328247,-18891187.66784668,-10490404.12902832,-21256954.193115234,-609371.7813491821,-3891958.713531494,25324895.85876465,13612284.660339355,10788471.221923828,1684549.5700836182,-1168063.0445480347,-10021569.25201416,-612914.0853881836,-1891483.4260940552,4978981.018066406,15358116.149902344,2872725.72517395,11003426.551818848,1148020.625114441,-1311526.7753601074,-7025289.058685303,-2247424.364089966,-2188659.429550171,3923808.0978393555,4309330.463409424,2733763.2179260254,1843611.717224121,631002.7241706848,-7012379.6463012695,-5804368.495941162,-2750051.736831665,-966772.4967002869,-2085965.633392334,3058281.183242798,2926990.9858703613,3144467.353820801,216133.63921642303,2250936.985015869,-43311038.970947266,9356514.930725098,4327006.816864014,3132977.9624938965,3044917.106628418,11821442.604064941,9919166.564941406,8846038.818359375,3356306.552886963,4427061.557769775
0.16,-5698112.487792969,16956542.96875,1855421.781539917,-12053521.156311035,623582.5419425964,-19762590.408325195,-15194777.488708496,-12653353.691101074,-9435646.057128906,-3482228.7559509277,-6755269.0505981445,2740883.3503723145,3407019.1383361816,2714169.502258301,515958.13035964966,-18608591.079711914,-10567875.862121582,-21531332.01599121,181438.20762634277,-2099095.106124878,23194183.349609375,16260742.1875,14359338.760375977,2572094.202041626,-449101.68647766113,-10318613.052368164,-1403809.1897964478,-1915366.6496276855,5723822.593688965,16612218.856811523,6404354.095458984,14461450.576782227,1947373.0325698853,-243251.07038021088,-5520703.315734863,-2174136.6386413574,-2079178.0948638916,3867080.2116394043,7213532.447814941,8138882.637023926,7444242.000579834,1524000.644683838,-5528938.770294189,-4466391.563415527,-936179.0418624878,-996801.1975288391,1316452.3839950562,8816006.660461426,8600262.641906738,8732521.057128906,4583350.658416748,6592357.635498047,-36220863.342285156,16245044.708251953,10093893.051147461,8915162.086486816,8760518.074035645,16753971.099853516,14968051.91040039,15732418.060302734,9263972.282409668,10236432.075500488
0.165,-6450851.917266846,14623881.340026855,1143258.4524154663,-14467336.654663086,1667133.8081359863,-24031560.89782715,-15796391.487121582,-13192072.868347168,-9048690.795898438,-2259248.2566833496,-4494155.8837890625,5035824.298858643,5735846.519470215,5027043.342590332,-3087877.035140991,-20201568.603515625,-12697034.83581543,-20063779.830932617,1121909.1415405273,121079.37037944794,19751394.271850586,18202112.197875977,15630092.62084961,-1249335.765838623,-3217820.644378662,-13415891.647338867,-3479065.6566619873,-1885462.0456695557,7546874.046325684,19199035.64453125,9311900.13885498,15577940.940856934,-1836284.875869751,-3340744.4953918457,-7070234.775543213,-2311560.63079834,-2097656.9652557373,6167095.184326172,10804482.460021973,9848041.534423828,9344989.776611328,-2276094.675064087,-7175097.465515137,-6173170.08972168,-2389320.135116577,-1226484.4179153442,2285569.190979004,10519074.440002441,10301226.615905762,10597083.09173584,3706908.702850342,5771654.12902832,-34129486.083984375,16361627.578735352,11624650.955200195,10644816.398620605,10273706.436157227,14907705.307006836,13441248.893737793,15939718.246459961,11014858.24584961,11879442.21496582
0.17,-11721593.856811523,7928331.37512207,-6736937.046051025,-19075929.641723633,-980949.878692627,-30151266.09802246,-17715314.865112305,-14975518.226623535,-11144834.518432617,-2980116.844177246,-5112284.183502197,2985609.769821167,3702335.834503174,2858099.937438965,-7552590.370178223,-23178886.41357422,-15846839.904785156,-17683784.48486328,976166.1887168884,476793.3785915375,14409508.70513916,15403830.528259277,12725475.311279297,-5823095.321655273,-7163853.168487549,-17903406.143188477,-5479073.524475098,-1675874.5908737183,8591584.205627441,20244569.778442383,8103289.604187012,12632863.998413086,-6455158.233642578,-7750776.290893555,-10488532.066345215,-2418518.06640625,-2117737.054824829,8499428.749084473,12017913.818359375,7674868.583679199,7110833.168029785,-6971751.689910889,-10537298.202514648,-9415437.698364258,-5351597.309112549,-1174650.0730514526,1997377.0380020142,8093980.78918457,7851598.739624023,8394370.079040527,-305576.77149772644,1821445.7035064697,-38298229.2175293,11520528.793334961,8922762.870788574,8103916.168212891,7648600.5783081055,10119874.954223633,8820478.439331055,11153903.007507324,8398694.99206543,9214080.810546875
0.175,-15292320.251464844,2368777.9903411865,-12348439.21661377,-20474853.515625,-4411545.753479004,-31537288.665771484,-17691814.422607422,-14905260.08605957,-12122796.058654785,-4049122.3335266113,-6671871.185302734,-1359267.8308486938,-797776.1030197144,-1721587.4195098877,-8319511.413574219,-24296302.795410156,-16162775.039672852,-15125662.803649902,-152269.69122886658,-1500850.6774902344,9081865.310668945,9537090.301513672,8737504.959106445,-6455974.102020264,-7308026.313781738,-19416316.986083984,-5462947.368621826,-1417874.813079834,7662649.631500244,18506153.106689453,4517450.80947876,8758877.754211426,-7181530.475616455,-8480697.631835938,-11857060.432434082,-2212744.71282959,-2004460.334777832,8596920.96710205,10688090.324401855,6402830.600738525,5670463.085174561,-7789096.832275391,-11734915.733337402,-10451216.697692871,-6447402.000427246,-775150.716304779,2556459.426879883,6741075.9925842285,6403963.565826416,7033928.394317627,-2138011.2171173096,19877.33691930771,-41907352.447509766,8678643.226623535,7436086.177825928,6614979.267120361,6284142.971038818,8429356.575012207,6996210.57510376,8210197.448730469,6863609.790802002,7658827.304840088
0.18,-14444444.65637207,625147.1638679504,-12283677.101135254,-18216602.325439453,-5725046.157836914,-27762243.270874023,-15683879.852294922,-13054887.771606445,-11081142.42553711,-4916591.644287109,-7777565.479278564,-4728296.756744385,-4334667.205810547,-5236104.488372803,-5819162.368774414,-22968307.495117188,-13665965.08026123,-14012810.707092285,-1717372.8942871094,-4518213.748931885,6507414.817810059,5181077.003479004,6639770.030975342,-3831109.2853546143,-3705087.184906006,-17151184.08203125,-4068886.2800598145,-1319183.7072372437,5136343.955993652,14892894.744873047,1997780.5614471436,6827986.717224121,-4487354.278564453,-5239612.579345703,-9818442.344665527,-1744532.4659347534,-1802305.1023483276,6809385.299682617,9129758.834838867,8593491.554260254,7837871.551513672,-5169497.966766357,-9662051.2008667,-8380454.063415527,-4477729.797363281,-472835.39175987244,4533815.383911133,9155526.161193848,8772010.803222656,9264035.22491455,-459114.134311676,1695844.054222107,-40406471.252441406,10556354.522705078,9956034.660339355,9064657.211303711,8858500.480651855,10412302.97088623,8695595.741271973,9965280.532836914,9337174.415588379,10114493.370056152
0.185,-15241000.175476074,-1854604.0058135986,-13450347.900390625,-18086917.877197266,-7339208.602905273,-25116188.049316406,-16065431.594848633,-13680867.195129395,-11996112.823486328,-7360630.035400391,-10219763.75579834,-7857175.827026367,-7391526.222229004,-8269649.505615234,-3739930.8681488037,-22178857.803344727,-12799180.030822754,-15602952.003479004,-3632150.888442993,-7149240.493774414,6325581.5505981445,3358440.399169922,5593369.483947754,-1812762.4988555908,-1358574.2712020874,-14987524.98626709,-3917889.8334503174,-1391224.6227264404,2228045.94039917,10591647.148132324,627247.2739219666,5849677.562713623,-2271811.2468719482,-2089159.2502593994,-6787215.232849121,-1395231.3661575317,-1677414.4172668457,4985056.8771362305,8639616.012573242,11147513.389587402,10496709.823608398,-2931675.672531128,-6836644.649505615,-5701065.540313721,-1029199.0041732788,-574114.1438484192,6737454.414367676,11943662.643432617,11607367.515563965,11932276.725769043,1675308.7043762207,3773304.9392700195,-36998626.708984375,13302646.63696289,12855165.481567383,12007259.368896484,11695768.356323242,12170336.723327637,10244952.201843262,12752724.647521973,12244458.198547363,13053790.092468262
0.19,-21274799.346923828,-7393764.019012451,-19462909.698486328,-22254394.53125,-11735300.064086914,-26842592.239379883,-20436052.322387695,-18182922.36328125,-16637042.999267578,-11478833.198547363,-14696065.902709961,-12549524.307250977,-11837913.513183594,-12728827.476501465,-3143810.033798218,-23360660.552978516,-15468450.546264648,-18379987.716674805,-5482698.440551758,-8477981.567382812,5553139.686584473,1445023.6558914185,3956680.5362701416,-1295885.9205245972,-2444159.746170044,-15422612.190246582,-5637779.235839844,-1452900.767326355,132331.2073945999,6536559.104919434,-1575696.8259811401,4102865.695953369,-1723514.3184661865,-1088532.3286056519,-4914975.643157959,-1436245.7990646362,-1676417.1123504639,3927763.4620666504,8277264.595031738,10403826.713562012,9809444.427490234,-2212035.655975342,-5202105.99899292,-4163312.9119873047,2062485.933303833,-833543.4198379517,7650860.786437988,11143654.823303223,10838629.722595215,11163207.054138184,2844919.9199676514,4826374.530792236,-35334560.39428711,13556507.110595703,11964113.235473633,11291249.27520752,10683733.940124512,12278856.27746582,10360416.412353516,13124501.22833252,11353733.06274414,12262791.633605957
0.195,-25552206.03942871,-9528846.740722656,-22597633.361816406,-24622463.22631836,-15075297.355651855,-28309808.7310791,-23793872.833251953,-21547952.65197754,-20100345.611572266,-13648522.37701416,-17510078.43017578,-16329637.52746582,-15492463.111877441,-16358995.43762207,-1575425.8632659912,-23778907.775878906,-17668304.443359375,-18855907.440185547,-6003214.359283447,-7901076.316833496,3408250.331878662,-1093432.068824768,3214042.6635742188,361316.62130355835,-3245095.4914093018,-15978484.153747559,-6622987.270355225,-1376378.1785964966,-345792.14453697205,4360665.321350098,-3994547.128677368,3127230.644226074,-290961.1761569977,-33201.832324266434,-3538133.6212158203,-1712383.9855194092,-1675603.8665771484,3203880.548477173,7289862.155914307,7829453.945159912,7230234.146118164,-591607.0938110352,-3838798.5229492188,-2781156.063079834,4284193.515777588,-837752.4614334106,7010819.435119629,8286022.186279297,7969044.6853637695,8397047.04284668,5384837.627410889,7260626.792907715,-33120613.09814453,13503668.785095215,8996636.390686035,8433331.489562988,7634425.640106201,13920258.522033691,12222514.152526855,13049520.492553711,8353188.514709473,9313706.398010254
0.2,-20362524.032592773,-2201640.6059265137,-15270113.945007324,-19964281.08215332,-11702389.71710205,-24522724.151611328,-21406120.30029297,-19167087.55493164,-17468366.622924805,-11084507.942199707,-15060956.001281738,-14744057.655334473,-13966250.4196167,-14759213.4475708,2077968.8358306885,-21056745.529174805,-15470551.490783691,-15767039.29901123,-4541460.990905762,-5563513.75579834,2726600.408554077,-1027094.7217941284,6059526.443481445,4162098.4077453613,-494027.34637260437,-13659009.93347168,-4824181.55670166,-1240805.983543396,765057.0273399353,5659483.432769775,-3634862.4229431152,5769374.847412109,3313996.3150024414,2763172.149658203,-1692239.9997711182,-1876230.1206588745,-1607503.5333633423,2830372.3335266113,6907159.805297852,8001859.664916992,7458280.086517334,2994533.3003997803,-1815872.6692199707,-736143.171787262,5433973.31237793,-558050.1556396484,6292233.943939209,8247300.148010254,7992043.495178223,8436227.798461914,10194394.1116333,12074497.22290039,-27741567.611694336,16620170.593261719,9119392.395019531,8448489.18914795,7777812.0040893555,19197103.50036621,17750410.079956055,16026208.877563477,8480415.344238281,9323109.62677002
0.205,-10373998.641967773,8805437.088012695,-3268364.429473877,-12963896.751403809,-3512385.845184326,-18402215.9576416,-16305854.797363281,-14070487.976074219,-11755028.72467041,-6487313.747406006,-9771619.79675293,-8634343.147277832,-7867435.932159424,-8628603.9352417,4963630.199432373,-17540077.209472656,-11177139.282226562,-12078719.139099121,-2458216.428756714,-2898679.733276367,5099829.196929932,3193760.633468628,11473283.767700195,7045065.879821777,3208864.212036133,-10181146.621704102,-1913761.6157531738,-1193128.9434432983,2250743.3891296387,9476744.651794434,-99452.9277086258,11139918.327331543,6277055.740356445,4910575.389862061,-763094.9020385742,-1811356.1868667603,-1559465.8851623535,3438495.397567749,8346857.070922852,11966873.168945312,11527379.035949707,5719559.669494629,-776408.2551002502,265598.863363266,4889397.144317627,-293210.7150554657,7224282.741546631,12233184.814453125,12111248.016357422,12465291.976928711,13291563.987731934,15277517.318725586,-23230598.44970703,21396886.825561523,13425026.893615723,12554207.801818848,12184764.862060547,24479221.34399414,23081148.147583008,20773981.09436035,12854485.511779785,13507058.143615723
0.21,-6781571.388244629,12476994.514465332,1482222.9146957397,-11864184.379577637,1471018.5527801514,-16384574.890136719,-14952970.504760742,-12610637.664794922,-9687763.214111328,-4845372.676849365,-7403690.814971924,-4313032.627105713,-3392483.4728240967,-4176725.387573242,4249696.254730225,-16875942.23022461,-9679064.750671387,-11228116.035461426,-1737720.6087112427,-1522021.770477295,7622704.982757568,7891790.866851807,14938029.289245605,6209898.471832275,3644088.5066986084,-9462347.030639648,-836903.8105010986,-1216539.978981018,2479893.207550049,12302392.959594727,2994377.374649048,14711784.362792969,5662755.012512207,3691251.9931793213,-2292138.3380889893,-1652291.6555404663,-1547622.4422454834,4608623.027801514,10232497.215270996,15665500.64086914,15235724.449157715,4893166.542053223,-2378384.3517303467,-1353008.6278915405,2889373.302459717,-201354.17580604553,9398339.27154541,16071975.708007812,15960673.332214355,16257263.18359375,10868245.124816895,12916659.355163574,-24957029.342651367,23049341.201782227,17349853.515625,16448648.452758789,16188535.690307617,24450847.625732422,22899692.53540039,22571191.787719727,16819047.927856445,17439224.243164062
0.215,-10799510.00213623,8511002.540588379,-2032501.220703125,-16025283.813476562,115016.90000295639,-18365583.419799805,-17522182.46459961,-15028194.427490234,-11508790.016174316,-6619589.328765869,-9197770.118713379,-5389416.217803955,-4343420.505523682,-5093791.484832764,1601747.2743988037,-18110168.45703125,-10838159.561157227,-12528894.424438477,-2431521.17729187,-1402666.8071746826,6937712.1925354,8598382.949829102,13976429.93927002,3532906.5322875977,1788865.566253662,-11348697.662353516,-1509962.558746338,-1135805.368423462,1037505.2690505981,11777733.80279541,2718158.960342407,13866243.362426758,3059622.5261688232,1018802.4044036865,-4524119.853973389,-1477982.1634292603,-1395232.6774597168,4717408.180236816,9950897.216796875,15491394.996643066,14953392.028808594,2289083.242416382,-4717076.301574707,-3623273.6110687256,1360741.0192489624,-153656.5124988556,10303930.282592773,15977729.797363281,15691875.457763672,15998576.164245605,5638772.964477539,7588282.108306885,-30207620.62072754,20446146.01135254,17036172.86682129,16333688.735961914,15840222.358703613,19649648.666381836,17979475.021362305,20105745.315551758,16452116.012573242,17221759.796142578
0.22,-12393692.970275879,7555359.363555908,-3366825.1037597656,-16938837.0513916,-1899474.3824005127,-18166969.299316406,-18225030.89904785,-15756327.629089355,-11140645.027160645,-7537147.521972656,-10655591.96472168,-8166379.928588867,-7193767.547607422,-7820840.358734131,1090634.4652175903,-17212379.455566406,-10133059.50164795,-12422143.936157227,-2776095.8671569824,-1082392.8117752075,4370857.238769531,6037022.590637207,11094610.214233398,3160126.4476776123,2109381.1988830566,-11574417.114257812,-1323594.9277877808,-878983.0803871155,-790974.7362136841,9334350.5859375,661755.9194564819,10998940.467834473,2568698.4062194824,1288612.6041412354,-3959402.084350586,-1231167.5548553467,-1032331.2282562256,3230722.188949585,7446828.365325928,12966614.723205566,12321358.680725098,1917947.6499557495,-4158358.097076416,-2955762.3863220215,2160222.053527832,-24033.797904849052,8585266.11328125,13441421.508789062,13012089.729309082,13306834.22088623,4196709.156036377,5970178.604125977,-30941835.403442383,17755554.19921875,14335913.65814209,13843867.301940918,13017653.465270996,16511686.325073242,14849705.696105957,17425125.122070312,13690750.122070312,14535836.219787598
0.225,-6273903.846740723,14542998.313903809,2973001.9569396973,-11274210.929870605,893264.2936706543,-13755918.502807617,-14830261.23046875,-12574426.651000977,-6468428.134918213,-5181680.679321289,-8579842.567443848,-7389675.140380859,-6569211.959838867,-7129839.4203186035,3488568.067550659,-13655923.843383789,-6270224.571228027,-9763805.389404297,-1878741.3835525513,109807.71481990814,3755768.060684204,4667544.841766357,10086957.931518555,5714926.719665527,5392318.248748779,-8092119.216918945,498985.26072502136,-624762.3562812805,-1546227.9319763184,7978378.772735596,268183.8870048523,9946861.267089844,5001243.591308594,4984119.892120361,-294270.48563957214,-949305.534362793,-738707.0059776306,1935180.5448532104,5700957.775115967,12182102.20336914,11469750.40435791,4397132.396697998,-494796.9317436218,805774.450302124,4800848.007202148,120835.97481250763,6174347.400665283,12637827.87322998,12253269.19555664,12533044.815063477,8403701.782226562,10132066.72668457,-25455734.252929688,18562168.12133789,13663515.090942383,13181503.295898438,12248695.373535156,19178668.975830078,17445074.0814209,18209020.614624023,13044003.4866333,13735336.303710938
0.23,-36477.815359830856,21062789.916992188,9551151.275634766,-5733964.920043945,5812508.106231689,-10590527.534484863,-11856195.449829102,-9715231.895446777,-3027528.762817383,-2289964.6759033203,-5464530.467987061,-3658206.9396972656,-2887167.6921844482,-3551899.194717407,5411431.312561035,-11355253.219604492,-3349524.49798584,-7283321.380615234,-928210.7353210449,1129779.6964645386,5308962.345123291,6196244.239807129,11005330.085754395,7641046.047210693,7653396.129608154,-4219664.573669434,1598757.9822540283,-611123.1446266174,-1183420.0620651245,8364094.7341918945,1875923.0375289917,10850073.81439209,6932171.821594238,7697456.836700439,2582248.9261627197,-847133.1000328064,-828045.904636383,2709236.8602752686,6646695.137023926,13822624.206542969,13023610.11505127,6251767.158508301,2248771.4290618896,3639800.0717163086,6803087.7113342285,173751.5926361084,5691579.818725586,14294565.200805664,13981792.449951172,14371994.972229004,12896361.351013184,14769310.95123291,-20932184.21936035,20988489.151000977,15519625.663757324,14877587.31842041,14097548.484802246,23935789.108276367,21944856.643676758,20678379.05883789,14944850.92163086,15483090.4006958
0.235,-2130781.1737060547,18569353.103637695,7836149.6925354,-6757436.752319336,6700540.542602539,-12784460.067749023,-12874476.432800293,-10601289.749145508,-5279863.357543945,-2318566.32232666,-5268345.832824707,-2037338.0184173584,-1277367.8302764893,-2108306.646347046,4125100.612640381,-12773178.100585938,-4511789.798736572,-7413456.439971924,-1330114.6030426025,912596.1661338806,5317499.63760376,7510579.586029053,10484998.70300293,6193351.745605469,6203784.465789795,-4202428.817749023,-7237.930782139301,-854810.5359077454,-622578.4420967102,8496091.842651367,2559328.317642212,10299080.848693848,5578699.111938477,5908288.955688477,1247039.1988754272,-1044586.8968963623,-1180154.800415039,4891979.217529297,8292710.304260254,14200734.13848877,13342528.343200684,4791011.810302734,741719.9611663818,2192892.31300354,6221390.247344971,145123.4072446823,6631920.337677002,14693966.86553955,14284386.63482666,14867844.581604004,11910191.535949707,13934877.395629883,-23313699.72229004,20252763.748168945,15854672.4319458,15063949.584960938,14469273.567199707,23714176.177978516,21568647.384643555,19978698.73046875,15233674.049377441,15917589.18762207
0.24,-9282699.584960938,11135893.821716309,441580.0869464874,-11727313.041687012,2853829.6222686768,-16806907.653808594,-15271528.244018555,-12883286.476135254,-9904018.40209961,-4745788.097381592,-8001811.0275268555,-4919948.577880859,-4317119.598388672,-5189387.321472168,598830.5807113647,-16087360.382080078,-7746421.813964844,-9237292.289733887,-2833909.9884033203,-121081.8886756897,2032762.050628662,5343698.024749756,6265223.503112793,2479905.843734741,2851959.228515625,-7967580.318450928,-3272112.3695373535,-1142787.0988845825,-253599.52449798584,6847812.652587891,388930.88698387146,5915394.7830200195,1960685.7299804688,1019722.4617004395,-3282863.140106201,-1348830.3422927856,-1364208.698272705,6165812.4923706055,7448098.182678223,10485576.629638672,9737225.532531738,1144701.361656189,-3786918.4017181396,-2367871.9997406006,3447169.303894043,83430.32747507095,6302244.663238525,10986153.602600098,10426973.342895508,11042967.796325684,5922517.2996521,7936281.681060791,-29795621.871948242,14809769.630432129,11845991.134643555,11023705.48248291,10479614.2578125,16699270.248413086,14785544.395446777,14467536.926269531,11162896.156311035,12178834.915161133
0.245,-12245218.276977539,8586511.611938477,-3737645.387649536,-14201281.547546387,-893072.9627609253,-17773513.793945312,-15485589.981079102,-13293502.807617188,-11374753.952026367,-6714731.216430664,-10772774.696350098,-9448058.128356934,-9118346.214294434,-9896923.065185547,-3130055.4275512695,-19293380.737304688,-9923659.324645996,-10727375.984191895,-4216574.668884277,-970958.7693214417,-1506459.7129821777,549571.6333389282,-128297.40345478058,-1324227.0946502686,45791.3875579834,-12051378.25012207,-5988058.567047119,-1259744.40574646,254933.05921554565,4256947.5173950195,-3083334.6843719482,-720405.8766365051,-1792584.5384597778,-3491356.134414673,-7273698.806762695,-1452921.986579895,-1198413.372039795,5628726.482391357,4293868.064880371,4839464.6644592285,4330486.297607422,-2481185.6746673584,-7583531.856536865,-6284323.692321777,672798.752784729,-16608.78397524357,4197174.072265625,5343633.651733398,4815871.238708496,5229653.358459473,-62454.61851358414,1867757.5588226318,-33733875.2746582,8277375.221252441,5964200.973510742,5195857.048034668,4604970.455169678,8140126.2283325195,6623514.652252197,7833170.8908081055,5385764.598846436,6511164.18838501
0.25,-9468641.28112793,11985435.485839844,-2125200.9868621826,-13319260.597229004,-1333201.6468048096,-17297252.655029297,-14861317.63458252,-13027115.821838379,-10081714.630126953,-7163103.103637695,-12059791.564941406,-11933180.809020996,-11748526.573181152,-12466254.234313965,-6941882.610321045,-23068931.579589844,-11238903.045654297,-11757135.391235352,-4827631.950378418,-1490631.8187713623,-1936749.3391036987,-3476013.8988494873,-5449568.748474121,-5099434.852600098,-2499876.9760131836,-14144533.157348633,-7468278.884887695,-1153554.916381836,858716.3090705872,2434566.9746398926,-5135100.364685059,-6113200.1876831055,-5568800.926208496,-6431143.283843994,-8669915.199279785,-1310186.0284805298,-935485.1245880127,4527904.987335205,2064545.8698272705,1692571.6400146484,1303324.6994018555,-5993840.69442749,-8799578.666687012,-7617118.358612061,-160383.6566209793,-132586.21096611023,2831274.0325927734,2183291.9120788574,1816921.353340149,2062603.47366333,-2872049.8085021973,-900085.44921875,-33327518.463134766,5240155.6968688965,2777219.533920288,2085271.8353271484,1450651.2880325317,3822925.090789795,2404808.521270752,4812802.791595459,2458849.9069213867,3352262.258529663
0.255,-7895336.151123047,13765479.08782959,34753.46788764,-13144780.158996582,-117264.08451795578,-20021469.116210938,-16454648.971557617,-14748465.538024902,-10420800.20904541,-7154803.75289917,-12525043.487548828,-12160815.238952637,-11842131.614685059,-12674096.10748291,-11270007.133483887,-27653612.13684082,-13018333.435058594,-13133544.921875,-4747163.29574585,-2014002.5615692139,-281452.7153968811,-5111270.904541016,-8255584.716796875,-9405508.041381836,-5579503.536224365,-14813113.21258545,-8090871.810913086,-918577.0750045776,934426.7249107361,1835574.3885040283,-5282991.886138916,-8691248.893737793,-9909259.796142578,-8611566.543579102,-8501701.354980469,-1171684.8611831665,-871391.1175727844,4052623.748779297,2473901.7486572266,2129077.911376953,1619687.795639038,-10123926.162719727,-8638797.760009766,-7505014.419555664,839169.3234443665,-163138.2554769516,3813156.843185425,2570711.612701416,2226860.523223877,2582494.9741363525,-3774204.730987549,-1655285.120010376,-32396827.697753906,6205875.873565674,3218446.2547302246,2604486.9422912598,1954919.0998077393,3925866.12701416,2259470.4627990723,5927270.889282227,3078473.5679626465,3739460.4682922363
0.26,-11909342.765808105,9906685.829162598,-1375321.5074539185,-15523497.581481934,-189461.45474910736,-25461772.918701172,-19445348.739624023,-17566730.499267578,-13546075.820922852,-7628170.490264893,-12973485.946655273,-12374118.80493164,-11751123.428344727,-12854256.629943848,-14762516.975402832,-30599464.416503906,-14246808.052062988,-14479182.243347168,-4314950.466156006,-2348160.0284576416,-62997.10273742676,-5467648.506164551,-9613233.56628418,-12964506.149291992,-7856134.89151001,-15515903.47290039,-7849784.374237061,-702147.4242210388,372009.7243785858,1740869.2836761475,-5232787.132263184,-9731545.448303223,-13509947.776794434,-10047002.792358398,-8582326.889038086,-1233484.6258163452,-996964.9314880371,3930844.306945801,3703794.479370117,3049184.0839385986,2357063.2934570312,-13786812.782287598,-8891157.150268555,-7744759.559631348,1748221.1589813232,-67414.3135547638,5591258.0490112305,3461181.402206421,2925632.953643799,3535655.0216674805,-5413776.874542236,-3260221.9581604004,-34103240.966796875,7432791.709899902,4057842.73147583,3520888.8053894043,2866954.0882110596,4090628.6239624023,2227298.2597351074,7261926.174163818,3873898.983001709,4596282.958984375
0.265,-18554485.321044922,4238940.238952637,-4925635.814666748,-18705745.697021484,-2314357.7575683594,-28985357.2845459,-20949640.27404785,-18895994.186401367,-16813163.75732422,-8941623.68774414,-13812317.848205566,-13776206.016540527,-12906370.162963867,-14277771.949768066,-15779347.41973877,-30404058.4564209,-13591696.739196777,-15161935.806274414,-4269464.492797852,-2236837.148666382,-2299203.1574249268,-5782907.962799072,-10814449.310302734,-14038599.014282227,-7828876.495361328,-16660655.975341797,-6988979.816436768,-602342.3671722412,-30040.884390473366,1742739.6774291992,-6085334.777832031,-10842411.994934082,-14640572.547912598,-9877964.01977539,-9217736.24420166,-1367000.1029968262,-1101094.0074920654,3610514.4023895264,3577960.252761841,1784843.5640335083,1047119.140625,-15204041.481018066,-9716237.06817627,-8522172.927856445,1237294.07787323,36863.11095952988,6140158.176422119,2270071.9833374023,1535197.6156234741,2238577.127456665,-8139560.699462891,-6143962.860107422,-36932643.89038086,5579512.119293213,2692434.549331665,2217283.9641571045,1568537.712097168,1248039.960861206,-519098.2222557068,5301681.041717529,2377321.95854187,3298616.409301758
0.27,-23695089.34020996,689267.1585083008,-8055000.305175781,-21643505.096435547,-5403305.530548096,-29339031.219482422,-21033594.131469727,-18975881.576538086,-18969861.98425293,-11410362.243652344,-15525668.144226074,-15320853.233337402,-14397801.399230957,-15836605.072021484,-14927295.684814453,-29343925.47607422,-12623277.66418457,-15895916.938781738,-5346197.605133057,-2143636.94190979,-4704630.8517456055,-5586200.23727417,-11359858.512878418,-13122220.039367676,-6339845.180511475,-17521587.371826172,-6832352.161407471,-602907.121181488,396366.149187088,2294169.6643829346,-6789175.987243652,-11566016.19720459,-13816048.622131348,-8412775.993347168,-9438224.792480469,-1296722.5313186646,-1047628.2835006714,3525928.020477295,2766726.7322540283,-403275.13217926025,-1087327.8379440308,-14574386.596679688,-9997122.764587402,-8762649.536132812,335708.9161872864,24159.209802746773,5877846.717834473,223727.5093793869,-545936.4056587219,30650.54677426815,-9794979.095458984,-7988081.932067871,-37263820.64819336,1871350.1691818237,487338.48333358765,43607.82355070114,-597877.2640228271,-2754157.304763794,-4306276.321411133,1302286.5056991577,137024.37281608582,1084457.9935073853
0.275,-27080165.86303711,-1933215.0220870972,-11044276.237487793,-24942182.540893555,-8100495.338439941,-29506799.697875977,-21646087.646484375,-19603092.193603516,-21208988.189697266,-14332607.26928711,-17798238.75427246,-15544033.05053711,-14736238.479614258,-15962332.725524902,-13755517.959594727,-29658817.291259766,-13521276.473999023,-17254430.770874023,-6938821.792602539,-2496271.6102600098,-5483210.563659668,-4063002.586364746,-9874575.6149292,-11849474.906921387,-4871314.04876709,-16975967.407226562,-8073776.2451171875,-627197.7424621582,1371842.5035476685,3723398.208618164,-5840731.143951416,-10279464.721679688,-12631631.851196289,-7032861.709594727,-8587224.006652832,-996915.7576560974,-872666.8953895569,4265237.331390381,3351782.0835113525,-376657.00912475586,-1038975.3580093384,-13299390.79284668,-9014813.423156738,-7831367.015838623,902783.0362319946,-55903.252214193344,6357829.0939331055,307826.7574310303,-373151.3023376465,32585.985958576202,-8368559.837341309,-6646502.494812012,-34415935.51635742,679973.1254577637,564235.6276512146,120940.51390886307,-547786.8914604187,-3404658.555984497,-4842930.793762207,-128700.45006275177,252954.45322990417,1072568.655014038
0.28,-29362440.10925293,-5200085.163116455,-14654778.480529785,-27586685.180664062,-9337256.43157959,-30449050.903320312,-22162847.5189209,-20030828.47595215,-23236562.728881836,-15482424.73602295,-18882465.362548828,-14445716.857910156,-13786908.149719238,-14672900.199890137,-11974802.97088623,-29715488.43383789,-15107100.486755371,-17768749.237060547,-7202758.312225342,-2653689.384460449,-5593567.371368408,-1959308.9818954468,-6491933.822631836,-10112680.435180664,-3109399.3186950684,-14524201.393127441,-9161478.042602539,-669874.0124702454,2262330.5320739746,5378881.931304932,-3574436.1877441406,-6907483.100891113,-10902146.339416504,-6156157.01675415,-7102825.164794922,-761920.0348854065,-720787.2271537781,5371039.867401123,5539904.1175842285,2813307.523727417,2141278.5053253174,-11360649.108886719,-7315461.158752441,-6295739.650726318,2729963.3026123047,-63815.81723690033,7712232.1128845215,3391433.000564575,2831444.025039673,3114769.93560791,-4261548.5191345215,-2580510.6163024902,-31664825.439453125,4177268.9819335938,3801069.498062134,3322131.633758545,2584791.660308838,1282091.2599563599,-118109.91168022156,3390805.721282959,3468730.688095093,4272349.3576049805
0.285,-28889188.766479492,-6347810.745239258,-16909849.166870117,-26942251.205444336,-8739130.973815918,-29338687.896728516,-20354578.018188477,-18188520.431518555,-22610767.364501953,-13725136.756896973,-17636747.360229492,-13213552.474975586,-12601766.586303711,-13281598.091125488,-8744900.703430176,-27508516.311645508,-14738387.107849121,-16056642.532348633,-5702624.797821045,-1922534.5849990845,-6685909.271240234,-949846.6849327087,-3282229.9003601074,-7045023.441314697,-635168.0755615234,-11391160.011291504,-8439855.575561523,-781239.6883964539,2758631.944656372,6193480.491638184,-1802234.8880767822,-3552495.7180023193,-7762700.080871582,-5147912.979125977,-5938012.599945068,-812848.7467765808,-711479.0081977844,5939578.533172607,7572965.145111084,7257555.4847717285,6593863.487243652,-8149612.4267578125,-6076421.737670898,-5178025.722503662,3794102.668762207,22261.545062065125,9100262.641906738,7658782.482147217,7248446.941375732,7407551.7654418945,-101206.65282011032,1522409.0814590454,-31807018.280029297,9698133.46862793,8291050.910949707,7704822.063446045,6924146.1753845215,8158294.677734375,6806234.836578369,9153183.937072754,7848258.972167969,8810442.924499512
0.29,-24514892.578125,-2058959.9609375,-14783534.049987793,-22923423.767089844,-6833255.767822266,-25234716.415405273,-17105247.497558594,-15119042.39654541,-18939905.166625977,-11260742.1875,-15398918.151855469,-12402404.78515625,-11710953.712463379,-12404397.010803223,-5955352.783203125,-25484537.12463379,-13120474.815368652,-13906641.960144043,-4764311.790466309,-1070181.131362915,-8389319.41986084,-1349788.0697250366,-1868028.0447006226,-4300707.3402404785,632690.7277107239,-10075079.917907715,-7206796.169281006,-879310.0118637085,2704762.9356384277,6044784.069061279,-1423275.8283615112,-1990366.1012649536,-4953575.134277344,-4308155.536651611,-5631188.869476318,-970711.7676734924,-784456.4318656921,5991493.225097656,8336751.937866211,10712255.477905273,10023251.5335083,-5417200.088500977,-5908622.264862061,-4912795.543670654,3450695.753097534,110522.62783050537,10441967.010498047,10992641.44897461,10744969.367980957,10799796.104431152,1609253.168106079,3257696.3901519775,-33224899.291992188,13052330.017089844,11838977.813720703,11042572.021484375,10324495.315551758,11961313.247680664,10629197.120666504,12719216.346740723,11272243.49975586,12354545.593261719
0.295,-19779085.159301758,4846085.071563721,-9194280.624389648,-19614034.65270996,-4666592.121124268,-22299396.514892578,-16337076.187133789,-14603579.5211792,-15792714.11895752,-11229133.605957031,-14349421.501159668,-11378531.455993652,-10580280.303955078,-11349803.924560547,-6783257.961273193,-27668010.711669922,-13670685.768127441,-14442284.58404541,-6477941.989898682,-1330369.9493408203,-9073451.99584961,-1746826.7679214478,-1658890.2473449707,-4957592.010498047,-1442279.6964645386,-11770278.930664062,-8274138.450622559,-746701.3001441956,2108424.9019622803,5965393.543243408,-1535509.1094970703,-1723675.7278442383,-5582943.916320801,-5032111.167907715,-6046546.459197998,-894830.4653167725,-722712.8744125366,6360252.380371094,8441266.059875488,12439524.65057373,11648916.244506836,-6138326.168060303,-6451660.15625,-5212580.20401001,3410761.833190918,166184.06772613525,12060632.705688477,12680454.25415039,12497594.833374023,12587905.883789062,736889.4815444946,2554157.7339172363,-32421318.05419922,13230630.874633789,13700076.10321045,12647927.284240723,12094412.803649902,10859347.343444824,9491248.13079834,12903849.601745605,13051960.945129395,14091567.993164062
0.3,-20408836.364746094,6832520.484924316,-5901509.761810303,-20903638.83972168,-3099801.0635375977,-24542783.737182617,-19580947.875976562,-17920045.852661133,-16490156.173706055,-13442633.628845215,-14533226.96685791,-9731621.742248535,-8911382.675170898,-9667612.075805664,-10560214.042663574,-32937469.482421875,-17035459.518432617,-17303758.62121582,-9169656.753540039,-2044925.6896972656,-8472258.567810059,-1046605.7062149048,-1078273.892402649,-8540637.016296387,-5328423.023223877,-14592820.167541504,-11576206.20727539,-354902.6846885681,1721932.4111938477,6759523.391723633,-1097759.0084075928,-1184655.1895141602,-9116282.46307373,-7353721.141815186,-6686850.547790527,-583937.8833770752,-454237.55049705505,7335625.171661377,8771346.092224121,12872397.422790527,12015667.915344238,-9769549.369812012,-6978343.0099487305,-5612107.276916504,4769086.3609313965,236258.93890857697,13284667.015075684,13132134.437561035,12833608.627319336,13097270.965576172,-534997.5824356079,1427674.1743087769,-29564254.760742188,12497030.258178711,14223791.122436523,13029684.066772461,12638799.667358398,8172228.813171387,6796175.003051758,12029338.836669922,13567888.259887695,14532773.0178833
0.305,-27679494.857788086,98742.37328767776,-9834309.577941895,-26088806.15234375,-2633227.586746216,-30306791.305541992,-23944238.662719727,-22153367.99621582,-19971939.086914062,-14718053.817749023,-14215958.595275879,-8366640.090942383,-7626106.262207031,-8322859.764099121,-12547850.608825684,-35755001.068115234,-19747726.440429688,-18630332.946777344,-9116435.050964355,-1043181.4193725586,-8039976.119995117,250214.42770957947,144281.84926509857,-10507392.883300781,-7015763.282775879,-15573373.794555664,-13763159.75189209,-31949.63186979294,2696500.301361084,7849712.84866333,-356340.1997089386,-77136.82949542999,-11009794.235229492,-9080146.789550781,-7055114.269256592,-399196.20752334595,-230975.79181194305,8152139.663696289,9271948.81439209,12639190.673828125,11873459.815979004,-11818661.6897583,-7127154.350280762,-5850498.676300049,6008905.410766602,322022.14002609253,12990318.298339844,12981018.06640625,12467328.071594238,12874732.01751709,-126103.4607887268,1772330.641746521,-28443368.911743164,12644490.242004395,13965657.234191895,12859196.662902832,12517676.35345459,8089210.510253906,6756057.7392578125,12042092.323303223,13420675.277709961,14398880.004882812
0.31,-35570659.63745117,-9671991.348266602,-18036914.825439453,-30348360.061645508,-2691974.401473999,-34048282.623291016,-25865835.189819336,-23912687.301635742,-22061141.967773438,-13094617.84362793,-12411868.09539795,-7990719.318389893,-7372532.844543457,-8056020.736694336,-10186510.08605957,-33504516.6015625,-18929071.4263916,-16234189.987182617,-5595158.576965332,2326442.4800872803,-8572038.650512695,1421107.7690124512,1212827.5632858276,-8239986.419677734,-5116964.340209961,-14174381.256103516,-12797699.928283691,-75756.9819688797,4940343.379974365,8229842.185974121,100643.8210606575,865506.4702033997,-8746239.66217041,-8492331.504821777,-6984289.646148682,-544635.2958679199,-301502.7940273285,7999558.925628662,9460769.653320312,12076243.40057373,11490804.672241211,-9663685.79864502,-7071918.964385986,-5934455.394744873,5256372.451782227,359011.85870170593,11111155.50994873,12527438.163757324,11872097.969055176,12302188.873291016,1641621.1128234863,3366356.134414673,-30530876.15966797,12961116.790771484,13271713.256835938,12394558.906555176,11987853.050231934,10674777.030944824,9312407.493591309,12294587.135314941,12931952.476501465,13909018.516540527
0.315,-36294872.28393555,-12443776.13067627,-21402042.388916016,-29323442.459106445,-1390037.5366210938,-32318790.435791016,-24580663.681030273,-22524177.55126953,-20140439.987182617,-9708252.906799316,-9662773.132324219,-7567218.30368042,-7065044.87991333,-7738916.873931885,-6590985.7749938965,-29031690.59753418,-15574215.88897705,-12150628.089904785,-1843730.092048645,6057910.442352295,-9093393.325805664,2756419.6586608887,2007782.4592590332,-4710139.274597168,-2225961.446762085,-12525046.348571777,-10541752.815246582,-296414.2858982086,6742451.190948486,8083348.274230957,554460.4063034058,1616071.8202590942,-5317989.349365234,-6680838.584899902,-6928769.111633301,-772800.087928772,-499906.8081378937,7006615.63873291,9113440.51361084,10985685.348510742,10514578.819274902,-6137755.870819092,-7301956.653594971,-6202796.936035156,3059063.196182251,345435.64915657043,8545685.768127441,11462982.177734375,10831290.245056152,11264693.260192871,2459070.6825256348,4155854.7019958496,-32762329.1015625,12011405.944824219,12018803.596496582,11296676.635742188,10832714.080810547,12406593.322753906,10894124.031066895,11341889.381408691,11832783.699035645,12662830.352783203
0.32,-28594898.223876953,-4984391.212463379,-15477785.110473633,-23237735.748291016,2340003.01361084,-26443897.247314453,-21421207.427978516,-19300006.866455078,-15657456.398010254,-6544886.589050293,-6932536.602020264,-5938220.024108887,-5512989.9978637695,-6105960.369110107,-5711050.987243652,-25462720.87097168,-12256983.757019043,-9157809.257507324,-565470.278263092,8029946.327209473,-8747377.395629883,4323942.184448242,2935532.808303833,-3889565.944671631,-812513.1130218506,-12157999.992370605,-9517739.295959473,-244886.8602514267,6899154.6630859375,8451398.849487305,1346906.6619873047,2625046.730041504,-4551897.048950195,-5782077.789306641,-7553638.458251953,-764310.1811408997,-460694.67067718506,5993699.550628662,8261499.404907227,9078016.28112793,8637186.050415039,-5127593.994140625,-8150524.139404297,-7034046.649932861,1436404.7050476074,359300.6730079651,6210348.606109619,9463711.738586426,8970455.169677734,9472145.080566406,1009861.2308502197,2842159.0328216553,-32533653.259277344,9967104.9118042,9985078.811645508,9267967.224121094,8861324.310302734,11209397.315979004,9580883.979797363,9352717.399597168,9795644.760131836,10429116.249084473
0.325,-18947849.27368164,5697617.053985596,-6506719.589233398,-16566528.3203125,6552745.342254639,-20188993.453979492,-17740486.14501953,-15606846.809387207,-12035279.273986816,-4277455.806732178,-4998177.051544189,-4160931.5872192383,-3728542.3278808594,-4218752.384185791,-6585194.5877075195,-22404840.46936035,-9832164.764404297,-7178878.7841796875,-750190.0792121887,8451180.458068848,-8235742.568969727,4924456.1195373535,3635309.4577789307,-4899148.941040039,-170515.31374454498,-11964060.78338623,-9147275.924682617,123555.88376522064,6332335.948944092,9467197.41821289,1874576.210975647,3470598.6976623535,-5472591.400146484,-5698127.746582031,-8528120.040893555,-585584.4616889954,-203913.01810741425,5502852.439880371,7323385.715484619,7141158.103942871,6730247.020721436,-5882355.213165283,-9081539.154052734,-7956974.983215332,1346074.2235183716,417574.9719142914,4962666.034698486,7434898.853302002,7085123.062133789,7615509.986877441,-946145.1768875122,942536.1156463623,-31179504.39453125,8443179.1305542,7976315.975189209,7263106.346130371,6967217.445373535,9121326.446533203,7544647.216796875,7908608.436584473,7713790.8935546875,8306373.596191406
0.33,-14360382.080078125,10881789.207458496,-3509520.2922821045,-13660111.427307129,8017545.700073242,-16396907.806396484,-14633326.530456543,-12541792.869567871,-11043123.245239258,-2845542.9077148438,-4520325.183868408,-4224136.3525390625,-3693796.6346740723,-4122457.981109619,-5214086.532592773,-18798004.150390625,-7795043.9453125,-4776234.6267700195,-98059.9895119667,8867312.43133545,-8311229.705810547,3930680.751800537,3517329.216003418,-3650153.875350952,1598003.5066604614,-10062748.908996582,-7217647.075653076,345792.82999038696,6505297.660827637,9955342.292785645,1597967.7438735962,3453790.9030914307,-4121864.7956848145,-4241648.6740112305,-8218471.527099609,-534777.5220870972,-138119.1611289978,5286782.741546631,7168389.797210693,6989840.984344482,6618251.800537109,-4510620.1171875,-8642654.418945312,-7464516.639709473,2581200.122833252,427022.63593673706,5433449.745178223,7278551.10168457,7016001.7013549805,7414321.8994140625,-180634.58800315857,1573634.6244812012,-30197719.57397461,8873808.860778809,7816534.042358398,7226845.741271973,6914778.232574463,9546840.66772461,8104207.992553711,8349299.430847168,7546255.111694336,8268480.30090332
0.335,-15107311.248779297,9956417.083740234,-6549597.74017334,-14500614.166259766,6632877.349853516,-15117131.233215332,-12979026.794433594,-10850090.026855469,-11586030.006408691,-2420588.0165100098,-5317565.441131592,-5680119.037628174,-5057246.208190918,-5381581.3064575195,-697933.7334632874,-15900472.640991211,-6105322.83782959,-2271658.6589813232,1377001.5239715576,9727826.118469238,-8095638.275146484,3083774.3282318115,3431815.8626556396,921330.8095932007,4528437.614440918,-6587799.549102783,-3832011.6996765137,124291.5466427803,7073916.435241699,9126834.869384766,1282625.9136199951,3383900.8808135986,387233.704328537,-577728.3310890198,-5630876.064300537,-664878.1299591064,-398551.43427848816,4789189.338684082,8186674.118041992,9154577.255249023,8788054.466247559,13175.629079341888,-6040932.655334473,-4762517.929077148,4912045.955657959,341646.79050445557,6807283.401489258,9425632.47680664,9204949.378967285,9420049.667358398,4026444.435119629,5667666.912078857,-27813018.798828125,11329359.05456543,10068531.99005127,9591919.898986816,9075050.354003906,13081415.176391602,11708701.133728027,10710204.124450684,9807908.058166504,10635828.018188477
0.34,-16094818.115234375,9089228.630065918,-7830334.663391113,-15507667.541503906,5673875.80871582,-14301657.676696777,-12793218.612670898,-10438043.594360352,-12014921.188354492,-2941092.7295684814,-6026888.370513916,-5992800.235748291,-5408912.658691406,-5487635.612487793,3550970.5543518066,-15225044.250488281,-5238974.571228027,-1254595.9949493408,1980688.3335113525,10137823.104858398,-6571984.29107666,4311743.259429932,4712787.628173828,5369928.359985352,6908198.833465576,-3690676.212310791,-1625485.6586456299,-213864.63940143585,6630041.599273682,7738041.400909424,1821135.2825164795,4673779.010772705,4648611.068725586,2973539.8292541504,-2481075.5252838135,-735093.2359695435,-574203.0739784241,4047886.848449707,9400437.355041504,11349412.91809082,10983553.886413574,4345954.895019531,-2883674.144744873,-1614822.1492767334,7540261.268615723,279402.82225608826,7018991.470336914,11482316.970825195,11285363.19732666,11503736.49597168,8339812.278747559,10111169.815063477,-22898654.93774414,14288028.717041016,12436504.364013672,11858586.311340332,11125494.003295898,16924852.37121582,15581092.834472656,13577525.13885498,12057498.931884766,12843000.411987305
0.345,-14034504.890441895,12068940.162658691,-3404433.488845825,-14248507.499694824,7012177.467346191,-12608269.691467285,-13182034.492492676,-10598875.045776367,-12553900.718688965,-3522900.8197784424,-5501364.707946777,-4419857.501983643,-3994370.698928833,-3815093.2788848877,4298655.986785889,-15705852.508544922,-5241170.883178711,-1721287.8465652466,1469166.63646698,9696789.741516113,-4819084.167480469,6434791.564941406,6505721.569061279,6253187.17956543,7338115.692138672,-3179139.3756866455,-2238722.801208496,-187362.939119339,5306562.423706055,7031824.111938477,2494133.472442627,6578072.071075439,5396692.752838135,3269063.4727478027,-1928609.9672317505,-624926.8651008606,-327801.4361858368,3793340.6829833984,9484441.757202148,10916789.054870605,10587946.891784668,5111244.678497314,-2164201.9748687744,-1081310.749053955,8364397.048950195,370630.9497356415,5551172.256469727,10898853.302001953,10701926.231384277,11140480.995178223,8663912.773132324,10685284.614562988,-19220417.022705078,15443511.009216309,12131724.35760498,11299250.602722168,10555763.244628906,17828115.463256836,16571002.960205078,14756990.432739258,11543951.034545898,12255455.97076416
0.35,-10640693.664550781,16646020.889282227,2323474.407196045,-11755476.951599121,8787262.916564941,-11405265.808105469,-13272518.157958984,-10783077.239990234,-14410743.713378906,-3047833.4426879883,-4056329.2503356934,-3000939.6076202393,-2687688.112258911,-2490242.7196502686,1875888.8244628906,-15228685.37902832,-5717471.122741699,-1706274.6286392212,1492699.7423171997,9379940.032958984,-4805105.686187744,6535613.536834717,6464725.494384766,3803180.456161499,5792553.424835205,-4815595.1499938965,-4338561.058044434,128940.6567811966,4768692.0166015625,7263351.4404296875,2033215.7611846924,6740929.60357666,2906860.3515625,-6547.412369400263,-4671191.692352295,-526900.8278846741,34697.01483845711,4341890.811920166,8566573.143005371,8515845.29876709,8196623.802185059,2538696.2890625,-4713327.407836914,-3787337.5415802,6023456.09664917,542989.0155792236,4740817.546844482,8506556.510925293,8285138.130187988,8906672.477722168,4947506.904602051,7005693.435668945,-20913259.506225586,13802372.932434082,9648540.496826172,8707571.029663086,8142225.26550293,15389401.43585205,14227605.819702148,13211449.62310791,8977613.44909668,9777202.606201172
0.355,-8672876.358032227,19889295.57800293,4873583.793640137,-9823477.745056152,9287684.440612793,-12764068.603515625,-12556399.34539795,-10472966.194152832,-17150466.918945312,-1154554.843902588,-2489510.7746124268,-2854664.087295532,-2490152.12059021,-2537382.125854492,-1125441.551208496,-13507765.769958496,-6219260.692596436,176097.94437885284,2963248.9681243896,10260179.51965332,-6237202.167510986,4640964.508056641,4724322.319030762,704763.2932662964,3441752.9106140137,-6779958.724975586,-5561047.077178955,203494.93622779846,5519908.905029297,8005179.405212402,1091916.799545288,5126521.110534668,-224738.61277103424,-3938155.174255371,-7754676.342010498,-655541.4199829102,-37683.29322338104,4776486.873626709,7871747.970581055,7357162.4755859375,6965655.80368042,-649223.9236831665,-7822274.684906006,-6829406.261444092,2282224.178314209,573289.5135879517,6410420.894622803,7441787.7197265625,7228212.833404541,7778952.121734619,1331288.0992889404,3117774.486541748,-25609624.8626709,11130226.135253906,8201303.482055664,7441918.37310791,7019451.61819458,12450762.748718262,11248993.873596191,10589406.01348877,7656371.593475342,8710560.79864502
0.36,-8571684.837341309,21651830.673217773,5518646.240234375,-8732219.696044922,9637237.548828125,-16115945.816040039,-10940754.890441895,-9178844.451904297,-19232904.4342041,1108413.6962890625,-1149202.1083831787,-2606770.0386047363,-2121812.8204345703,-2402459.6214294434,-2664223.4325408936,-11926379.203796387,-6457633.018493652,2955816.2689208984,4538456.439971924,11827640.533447266,-6960614.6812438965,3836828.2318115234,4209563.732147217,-909059.4053268433,1943972.7067947388,-7430744.171142578,-5210879.802703857,-190250.9331703186,5998082.160949707,9096779.823303223,1407362.461090088,4503525.257110596,-1856872.55859375,-5530263.900756836,-8119513.511657715,-942698.1210708618,-556214.451789856,3951139.211654663,7579017.162322998,8581558.227539062,8153327.941894531,-2236771.34513855,-8381761.55090332,-7237204.074859619,517565.66762924194,372381.5977573395,8605005.264282227,8625850.677490234,8500498.77166748,8828229.904174805,1236780.1666259766,2734640.8367156982,-26909379.959106445,10273698.806762695,9162201.881408691,8659698.486328125,8204871.17767334,12111725.807189941,10737306.594848633,9721487.998962402,8772552.490234375,10030969.619750977
0.365,-9917435.646057129,21708597.18322754,6294613.361358643,-8564591.407775879,10749506.950378418,-18720558.166503906,-9127021.789550781,-7331251.621246338,-20819196.701049805,1821693.4204101562,-632365.8227920532,-1645947.3371505737,-1157786.3693237305,-1433644.0563201904,-2416564.94140625,-11498630.52368164,-6522783.279418945,4638613.224029541,4487861.633300781,12353188.514709473,-6469033.241271973,5095998.287200928,5774277.210235596,-734423.6969947815,2175442.4571990967,-6570078.372955322,-4320497.989654541,-657791.1972999573,5032877.9220581055,10408748.626708984,2588406.3243865967,5801406.8603515625,-1559053.1826019287,-4602866.172790527,-6079579.3533325195,-1131097.5551605225,-981656.6109657288,2242946.3863372803,6569364.547729492,9759496.688842773,9470407.485961914,-1900511.9800567627,-6443073.749542236,-5325246.334075928,1820308.5660934448,114858.53791236877,8213146.209716797,9663230.895996094,9626263.618469238,9850215.911865234,3550722.83744812,5056627.7503967285,-23274534.225463867,11609363.555908203,10342993.73626709,9884029.388427734,9313786.506652832,14065304.75616455,12564579.963684082,11049011.23046875,9943651.19934082,11153219.223022461
0.37,-12635202.407836914,18872100.830078125,5455612.1826171875,-9855659.484863281,10986804.008483887,-19041711.807250977,-8018212.31842041,-6028509.616851807,-23196268.08166504,469079.25605773926,-1595083.5943222046,-1806415.6770706177,-1460194.706916809,-1582729.8164367676,-1311619.6393966675,-11964245.796203613,-6618001.937866211,4896665.096282959,3290071.964263916,11164755.821228027,-6602140.426635742,5365418.910980225,5994490.146636963,274815.23156166077,3414640.9034729004,-5156333.923339844,-3735657.215118408,-727952.3611068726,3679749.011993408,11219203.94897461,2175228.8341522217,5848705.768585205,-281819.3733692169,-3160596.6091156006,-4002516.746520996,-1071436.882019043,-954628.5271644592,1355743.7658309937,4714696.407318115,8916389.465332031,8846941.947937012,-666284.97838974,-4311798.572540283,-3364267.110824585,4174051.7616271973,30630.454421043396,5895514.011383057,8875259.399414062,8774222.373962402,9088096.618652344,4801841.735839844,6544593.811035156,-19695266.723632812,12449408.531188965,9745181.0836792,9123228.073120117,8515088.081359863,14854019.165039062,13409775.733947754,11909966.468811035,9215996.742248535,10166573.524475098
0.375,-15018602.37121582,14968420.028686523,1738551.6166687012,-11301219.940185547,9353315.353393555,-17348485.946655273,-7073581.695556641,-5071514.60647583,-25289381.02722168,-498780.63797950745,-2953788.995742798,-4068301.200866699,-3844930.88722229,-3926628.828048706,-123041.45842790604,-11974110.60333252,-6139214.038848877,5551774.501800537,3216930.150985718,9768572.807312012,-8365866.661071777,2383014.20211792,2120771.4080810547,1387407.7796936035,4622797.48916626,-3964846.134185791,-3131220.1023101807,-466484.9638938904,3468671.7987060547,10769390.106201172,-395438.5221004486,2025267.1241760254,1033383.6078643799,-2328627.347946167,-2618374.5861053467,-858279.3474197388,-695201.8737792969,2036420.8221435547,3830848.6938476562,7856793.8804626465,7854587.554931641,650563.12084198,-2906820.297241211,-1995625.0190734863,5541698.932647705,115569.17428970337,5375978.469848633,8156627.655029297,7828536.510467529,8239655.494689941,4221119.403839111,6066827.774047852,-19985807.418823242,10935087.203979492,8882788.65814209,8159049.034118652,7612615.585327148,12757531.16607666,11494234.085083008,10444220.542907715,8303120.6130981445,9030659.675598145
0.38,-13441641.807556152,15185179.710388184,-1352367.639541626,-9483130.45501709,8105679.512023926,-13105133.056640625,-4482813.835144043,-2682289.1235351562,-24089424.13330078,1666144.7286605835,-2390227.3178100586,-6376411.437988281,-6139245.986938477,-6402456.760406494,1699133.7537765503,-9725078.582763672,-3883391.3803100586,7942283.153533936,5104648.590087891,9798327.445983887,-10430046.081542969,-1613230.9436798096,-3323758.363723755,3190879.8217773438,6240195.274353027,-2904588.6993408203,-2060039.0434265137,-319026.4701843262,3871807.098388672,9242514.610290527,-2404901.2660980225,-3273345.708847046,2788866.9967651367,-1057733.178138733,-538092.5536155701,-702242.4340248108,-587733.805179596,2895387.649536133,5163515.567779541,9337776.184082031,9208247.184753418,2563027.3818969727,-919879.1980743408,165072.05367088318,6188280.10559082,163170.57609558105,7750710.010528564,9928340.911865234,9409538.269042969,9778425.216674805,4597606.182098389,6237075.328826904,-21598222.732543945,9019928.932189941,10249586.10534668,9653842.92602539,9180853.843688965,10807340.621948242,9688782.691955566,8618062.019348145,9795771.598815918,10514576.91192627
0.385,-7212098.598480225,20903724.670410156,-451360.4938983917,-3832025.0511169434,8764997.482299805,-5438306.80847168,-421681.7915439606,1190894.2461013794,-20097227.096557617,5099006.175994873,-407056.8084716797,-7238874.435424805,-6942741.870880127,-7459995.746612549,4927006.721496582,-5048368.93081665,-388980.06081581116,10319496.154785156,6459500.789642334,10196641.92199707,-11887300.491333008,-3636340.1412963867,-6250327.110290527,6443855.762481689,9028160.095214844,-1899115.0856018066,-1354453.5636901855,-467527.4193286896,2889316.3204193115,7325407.5050354,-2014107.2273254395,-6126080.513000488,5807226.181030273,1626579.761505127,2824874.4010925293,-718883.3951950073,-667988.8963699341,2204337.3584747314,6990388.3934021,12248446.464538574,11973329.544067383,5747521.40045166,2391770.362854004,3634464.979171753,7555553.913116455,79497.5608587265,9716026.306152344,12754261.97052002,12265728.950500488,12543650.62713623,7819488.525390625,9186412.811279297,-19891979.217529297,9803369.522094727,12790015.22064209,12422250.747680664,11993460.655212402,12650007.247924805,11563842.7734375,9471717.834472656,12537290.573120117,13394111.633300781
0.39,-2186664.342880249,25645511.627197266,1543267.3692703247,-52904.25941348076,8041766.166687012,2140623.8079071045,1069338.6793136597,2632334.2323303223,-19091770.17211914,3653552.0553588867,-1580422.4014282227,-8941026.68762207,-8686218.26171875,-9287261.009216309,7793612.003326416,-1595679.521560669,767086.1482620239,9014872.550964355,3867145.538330078,7949670.791625977,-14224342.346191406,-4934483.528137207,-7212224.960327148,9362940.788269043,11076433.181762695,-1970099.5683670044,-2760934.829711914,-625997.2453117371,-210982.91873931885,5044885.635375977,-1684514.6417617798,-7074816.703796387,8531435.9664917,4113426.2084960938,5718897.342681885,-835058.7487220764,-705427.1101951599,192854.6577692032,6288763.046264648,12291156.768798828,11963363.647460938,8432435.035705566,5392707.824707031,6612230.30090332,10115140.914916992,25338.57896924019,8566343.307495117,12491836.547851562,12204410.552978516,12478549.003601074,11400496.482849121,12750724.792480469,-14807600.021362305,12651130.676269531,12540648.460388184,12264926.91040039,11878054.61883545,16335586.547851562,15237653.732299805,12223362.922668457,12385816.57409668,13341606.140136719
0.395,-5224718.09387207,22797231.674194336,-512901.30615234375,-4471978.664398193,2331912.5175476074,1949631.5717697144,-3872031.2118530273,-2291896.104812622,-25253383.63647461,-5519312.381744385,-8726881.02722168,-13720520.973205566,-13575888.633728027,-13986249.923706055,6373653.888702393,-4425053.119659424,-3662528.0380249023,2766538.381576538,-2712581.3961029053,2228305.8166503906,-18629413.604736328,-8482028.007507324,-9785440.444946289,7998869.4190979,8579842.567443848,-4407903.671264648,-6919734.001159668,-514352.61964797974,-3895053.3866882324,2225149.393081665,-4683000.087738037,-9622116.088867188,7148262.977600098,3541789.770126343,6081708.908081055,-905698.7166404724,-631380.7368278503,-1339191.0791397095,2607758.9988708496,7670787.334442139,7329149.24621582,6882932.186126709,5915908.8134765625,7025417.804718018,12911715.507507324,147815.92786312103,6219035.1486206055,7777844.429016113,7662133.21685791,7956381.320953369,11132643.699645996,12684831.619262695,-10908271.789550781,13484785.079956055,7961434.841156006,7606354.236602783,7241745.471954346,16001987.45727539,14950248.718261719,12799403.190612793,7724349.9755859375,8676696.77734375
0.4,-14926532.745361328,14811533.92791748,-6033757.68661499,-15253648.75793457,-5486968.994140625,-8150791.168212891,-13054851.531982422,-11470683.097839355,-34610279.08325195,-16787157.05871582,-17612657.54699707,-19025215.14892578,-18894771.575927734,-18988895.416259766,1507.0342924445868,-13133968.353271484,-11635375.9765625,-5061617.374420166,-9257685.661315918,-3732965.2309417725,-23255088.806152344,-13257449.15008545,-14006872.177124023,1620029.330253601,1390573.6207962036,-8456282.615661621,-12024469.375610352,-294927.9248714447,-6164762.9737854,-126507.7292919159,-9682775.497436523,-13869021.41571045,860515.1176452637,-109399.10262823105,4149149.4178771973,-926683.0086708069,-645028.4123420715,-1355511.7845535278,-1098894.1192626953,1910317.301750183,1567821.0258483887,593770.444393158,4049387.9318237305,5083623.886108398,14518009.185791016,281755.9242248535,6292891.025543213,2277653.217315674,2202516.0789489746,2377819.061279297,6668453.216552734,8335969.924926758,-11868722.915649414,10469514.846801758,2478220.4627990723,2069580.7933807373,1624681.7111968994,10484860.42022705,9514745.712280273,9658665.657043457,2080631.2561035156,3027089.5957946777
0.405,-21364248.275756836,10432476.997375488,-9639074.325561523,-22715583.80126953,-8543383.598327637,-17533620.834350586,-18797630.310058594,-17226316.452026367,-38698863.9831543,-21450918.197631836,-21013784.408569336,-20597385.40649414,-20340337.7532959,-20298553.466796875,-5092226.028442383,-19409624.099731445,-16311033.248901367,-9416101.455688477,-11742513.656616211,-6068349.838256836,-25378993.98803711,-15335297.584533691,-16308874.130249023,-3572777.032852173,-4190850.257873535,-10665559.768676758,-15026447.296142578,-349959.73110198975,-6522816.6580200195,-380960.1962566376,-12128628.730773926,-16333082.19909668,-4291663.16986084,-2730364.7994995117,2403168.9167022705,-1044143.795967102,-894660.2940559387,-609167.2778129578,-1890262.8421783447,-221673.6674308777,-494789.60037231445,-4336964.130401611,2258549.928665161,3215708.017349243,14066241.264343262,124015.90496301651,8882089.614868164,483076.4830112457,378744.2147731781,313037.36567497253,2640539.1693115234,4229934.215545654,-16369455.337524414,6986502.170562744,553003.2515525818,271432.0719242096,-369698.01783561707,6125997.066497803,5126219.272613525,6420564.651489258,94717.79316663742,1119867.6824569702
0.41,-16833450.317382812,13678952.21710205,-9248250.007629395,-19551452.63671875,-5112112.045288086,-11728537.559509277,-15455475.807189941,-13921322.8225708,-34018367.767333984,-17406442.642211914,-17392076.49230957,-19184463.500976562,-18805799.48425293,-19005599.975585938,-1204552.6504516602,-14725729.942321777,-12771561.622619629,-8229435.920715332,-9950355.529785156,-4549566.268920898,-25202371.59729004,-14484317.779541016,-16436187.744140625,220927.25336551666,-1200130.581855774,-7748944.282531738,-14250379.56237793,-729394.793510437,-5949861.0496521,1216358.4232330322,-10963026.04675293,-16631162.643432617,-578669.9056625366,-210389.34588432312,3151515.483856201,-1298180.2225112915,-1224086.5230560303,-440699.66673851013,-335392.5049304962,1422621.0117340088,1246195.5547332764,-490009.1886520386,2893838.64402771,3734914.3028259277,11864488.60168457,-310340.2554988861,10478927.612304688,2264635.0860595703,2139725.2082824707,1904676.3181686401,3488399.9824523926,5019303.798675537,-19552434.92126465,7108622.074127197,2215838.4323120117,2119214.2963409424,1311641.9315338135,8403585.433959961,7197471.618652344,6942678.928375244,1835036.9930267334,2982394.4568634033
0.415,-5236937.999725342,19274017.333984375,-9158537.864685059,-8782273.292541504,-1065228.1045913696,9935565.948486328,-5459414.482116699,-4009500.503540039,-25177379.608154297,-10460629.4631958,-12192907.333374023,-19968326.568603516,-19604932.78503418,-20303010.940551758,11427612.3046875,-478813.40980529785,-3376966.714859009,-3629911.184310913,-6671930.78994751,-2101796.6270446777,-25384662.628173828,-15428309.440612793,-19412946.701049805,12866655.349731445,9552834.510803223,-424970.5672264099,-10747437.477111816,-1063991.3082122803,-5598597.526550293,1897816.6580200195,-10700030.326843262,-19565032.958984375,11967560.768127441,6617598.056793213,6205905.437469482,-1489106.7743301392,-1341363.1916046143,-1374783.6351394653,60851.86451673508,2183059.9308013916,1966152.6679992676,11849781.036376953,5798999.309539795,6579766.750335693,9239379.8828125,-626331.0313224792,8632556.915283203,3015878.438949585,2875204.8015594482,2633036.6134643555,8286971.092224121,9931521.41571045,-18376152.03857422,9925612.449645996,3023653.745651245,2893317.461013794,2120510.8165740967,14144995.68939209,12741701.126098633,9874512.672424316,2688869.4763183594,3905552.625656128
0.42,1601453.423500061,18985546.112060547,-14755919.456481934,-432424.51548576355,-2536807.5370788574,30911289.21508789,2902704.954147339,4236241.340637207,-19166727.06604004,-6799152.374267578,-10812124.252319336,-25340789.794921875,-25096000.67138672,-26197763.442993164,23628181.45751953,12455934.524536133,4553680.896759033,588956.8328857422,-4464727.878570557,-1083590.3882980347,-27466724.395751953,-21340734.481811523,-28260274.88708496,25109268.188476562,19512533.18786621,6398342.609405518,-7256471.633911133,-1055047.2736358643,-5979104.518890381,-598789.5727157593,-15387877.464294434,-28180042.266845703,24243635.177612305,12449859.619140625,8866894.721984863,-1446469.1877365112,-1186994.0757751465,-3033402.681350708,-3218385.2195739746,-1725070.3573226929,-2154365.301132202,23761819.83947754,8374332.427978516,9211273.193359375,7534515.380859375,-542498.8269805908,4813500.881195068,-827209.1150283813,-1011889.4577026367,-1212575.3164291382,11970826.148986816,13739709.854125977,-15209889.41192627,11036302.56652832,-589202.344417572,-1046608.0904006958,-1602291.464805603,16067289.352416992,14742700.576782227,10755958.557128906,-1051501.989364624,133682.20627307892
0.425,-3624057.2929382324,9753810.88256836,-26825422.286987305,-1714542.6273345947,-9711730.95703125,34964824.67651367,3127752.7809143066,4326210.498809814,-19244758.60595703,-7644881.725311279,-13757554.054260254,-32205177.307128906,-32076198.57788086,-33247509.002685547,27003747.940063477,14975781.440734863,5679183.9599609375,1596411.4665985107,-4456860.542297363,-1801059.1268539429,-30755687.713623047,-29455366.134643555,-38585189.81933594,28397447.58605957,21516920.08972168,7977722.644805908,-6090465.068817139,-837675.0349998474,-7095295.429229736,-4994584.083557129,-22932582.85522461,-38349971.771240234,27685649.871826172,13140152.931213379,8658947.944641113,-1312407.374382019,-1005097.0315933228,-4688358.783721924,-8784563.064575195,-8475319.862365723,-9100330.352783203,27071762.084960938,8293344.497680664,9186275.482177734,7342991.352081299,-251081.55608177185,2500895.0233459473,-7376577.377319336,-7624258.041381836,-7847413.063049316,11466731.071472168,13169637.680053711,-14760540.962219238,9199671.745300293,-6923135.280609131,-7745891.094207764,-8108726.501464844,13121193.885803223,12121060.371398926,8724186.897277832,-7559301.853179932,-6490736.961364746
0.43,-16307327.270507812,-3881548.8815307617,-40587882.99560547,-10832883.834838867,-18284814.834594727,23968389.5111084,-3829722.4044799805,-2810182.3329925537,-23893627.166748047,-11124407.768249512,-18651895.52307129,-36757270.81298828,-36690174.1027832,-37690219.87915039,22560070.037841797,8657753.944396973,851958.4536552429,-1251444.2205429077,-6984915.733337402,-3837595.4627990723,-34074272.15576172,-34742374.420166016,-43439300.537109375,23777391.43371582,16991353.98864746,4227126.121520996,-7570752.6206970215,-731104.2547225952,-8737688.064575195,-7630464.07699585,-27437938.690185547,-43256610.87036133,23159700.393676758,9962944.030761719,6407052.040100098,-1330275.7740020752,-1009651.6609191895,-5580400.466918945,-12515257.835388184,-12307819.366455078,-12952577.590942383,22715476.989746094,6361950.874328613,7190196.990966797,8754561.424255371,-106761.00850105286,3574330.0914764404,-11022339.820861816,-11302777.290344238,-11580859.184265137,9249876.022338867,10771783.828735352,-17080696.10595703,8393223.762512207,-10558543.20526123,-11482736.587524414,-11824384.689331055,11444048.881530762,10637914.657592773,7970503.330230713,-11154850.959777832,-10233122.825622559
0.435,-25253278.732299805,-13116175.651550293,-48633941.650390625,-19252952.575683594,-23717031.478881836,14179718.017578125,-10637042.045593262,-9786952.018737793,-28898120.880126953,-15355195.045471191,-23170213.69934082,-38187858.58154297,-38116851.806640625,-38979572.29614258,18302482.60498047,2733540.5349731445,-4523491.859436035,-5881478.786468506,-11134367.942810059,-6541145.801544189,-36548309.326171875,-35315982.818603516,-41111877.44140625,19456060.4095459,13164833.068847656,-482558.87627601624,-9797843.933105469,-789573.1329917908,-10398076.057434082,-6570822.238922119,-25952360.153198242,-41019199.37133789,18793502.807617188,7838701.248168945,5732223.5107421875,-1421678.4238815308,-1101205.587387085,-5268664.360046387,-11666150.093078613,-9767748.832702637,-10313909.530639648,18489194.869995117,5946294.784545898,6649662.494659424,11452941.89453125,-125187.48641014099,6843129.634857178,-8462551.11694336,-8702438.354492188,-9011540.412902832,10038843.154907227,11456205.368041992,-16603559.494018555,12034482.0022583,-8159461.975097656,-8907548.904418945,-9322137.832641602,15105010.032653809,14092490.196228027,11678112.983703613,-8479114.532470703,-7658621.311187744
0.44,-23745002.74658203,-11268507.00378418,-45985553.74145508,-19400814.056396484,-23221834.182739258,16961044.311523438,-10248821.258544922,-9360519.409179688,-29881511.688232422,-18202501.29699707,-24939256.66809082,-36773429.87060547,-36635002.13623047,-37518283.84399414,20009456.634521484,3997529.7451019287,-5377187.252044678,-8379442.21496582,-14011229.515075684,-8199464.797973633,-36923557.28149414,-32488121.032714844,-35230228.424072266,21239606.857299805,14868717.193603516,-1796958.4465026855,-10121363.639831543,-807063.4603500366,-11161967.277526855,-3442385.43510437,-20853437.423706055,-35080814.361572266,20545122.146606445,9915534.973144531,8639199.256896973,-1268757.5817108154,-1029130.4588317871,-4078351.0208129883,-7547273.1590271,-3374704.8377990723,-3827642.2023773193,20102186.20300293,8829876.899719238,9469367.027282715,13955920.219421387,-48860.65796017647,9433686.256408691,-2213005.542755127,-2358966.35055542,-2691004.0378570557,14708066.940307617,16086910.247802734,-10139199.256896973,17631715.774536133,-2023433.6853027344,-2559768.9151763916,-2978517.770767212,20505390.167236328,19118515.014648438,17151803.970336914,-2091761.589050293,-1295395.851135254
0.445,-14503319.74029541,232801.4224767685,-35187473.29711914,-11215867.042541504,-17215105.056762695,28146263.122558594,-2429668.90335083,-1194885.6115341187,-25325616.83654785,-17303014.755249023,-22224040.985107422,-32356620.78857422,-32165637.969970703,-33098133.087158203,26070451.736450195,10960268.9743042,-997845.1132774353,-6258716.106414795,-12845152.854919434,-7068217.2775268555,-34462158.203125,-28139326.095581055,-29625402.450561523,27303237.915039062,20534446.716308594,836100.2206802368,-7670243.740081787,-701623.4993934631,-10331941.604614258,-1191381.0968399048,-16338081.359863281,-29329891.204833984,26714981.079101562,14492420.196533203,12472390.174865723,-856369.7338104248,-774837.1958732605,-3014484.8823547363,-4034122.943878174,1173829.7939300537,794056.8327903748,26046108.24584961,12417903.900146484,13038127.899169922,13866359.71069336,158797.2640991211,9269504.54711914,2154261.827468872,2047128.438949585,1726460.576057434,18881015.77758789,20149623.87084961,-3028342.7238464355,19558988.571166992,2383332.7293395996,1913977.7421951294,1573136.806488037,21786113.739013672,20340469.360351562,19006250.381469727,2354618.549346924,3138182.4016571045
0.45,-5411192.893981934,11906340.599060059,-25687793.731689453,-2033689.9757385254,-10608193.397521973,36102630.615234375,6120108.127593994,7750583.171844482,-18426280.975341797,-12903349.876403809,-16892814.63623047,-26863306.045532227,-26752054.21447754,-27606758.11767578,30466850.28076172,16769924.16381836,4637243.747711182,-1329976.4394760132,-8428252.220153809,-3979647.397994995,-30987695.693969727,-24520593.643188477,-26456895.82824707,31535106.658935547,25168130.87463379,4764649.391174316,-4442302.227020264,-648875.1769065857,-8471919.059753418,-1202122.5690841675,-14754097.938537598,-26078847.885131836,31037778.854370117,17197507.858276367,12820984.840393066,-612120.9859848022,-598648.190498352,-3004518.2704925537,-3855623.483657837,646900.5942344666,331722.58734703064,30397548.67553711,12530533.790588379,13094609.260559082,10342207.908630371,205963.67120742798,6447851.181030273,1520980.715751648,1292920.1126098633,1126246.2139129639,17972421.646118164,19093580.24597168,-3284933.567047119,16046777.725219727,1814259.2906951904,1302432.2986602783,1004652.2617340088,18335218.42956543,17264724.731445312,15773333.549499512,1716116.0707473755,2426224.946975708
0.455,-2436203.0029296875,14503374.099731445,-25469181.060791016,431670.09949684143,-9606345.176696777,35006324.768066406,8561423.301696777,10218964.576721191,-14559368.133544922,-8817252.159118652,-13976178.169250488,-24738801.956176758,-24801691.05529785,-25504377.365112305,29221477.508544922,16368074.417114258,6605265.6173706055,2005352.258682251,-4663728.713989258,-1995065.3314590454,-29811986.923217773,-24317140.579223633,-27293460.845947266,30180524.826049805,25396324.157714844,7574625.9689331055,-3203616.142272949,-785729.1102409363,-7289817.333221436,-2878935.3370666504,-16028903.96118164,-26918899.536132812,29537973.403930664,15671398.162841797,9053337.097167969,-841515.5410766602,-692713.3798599243,-4213267.803192139,-6606472.969055176,-3448998.6896514893,-3777878.761291504,29163959.503173828,8667929.649353027,9177539.825439453,5798949.241638184,-77680.16308546066,2636904.9549102783,-2607272.6249694824,-3048334.5985412598,-2935858.964920044,12600052.833557129,13706259.727478027,-10801384.925842285,10875374.794006348,-2344228.744506836,-2903478.8608551025,-3220330.238342285,14196434.97467041,13532890.319824219,11023141.860961914,-2470684.051513672,-1823711.87210083
0.46,-5862164.9742126465,8137963.29498291,-32907630.920410156,-4366823.673248291,-14702507.019042969,28353534.698486328,4811438.56048584,6053132.057189941,-15659059.524536133,-8155944.82421875,-15748058.319091797,-27534816.74194336,-27639530.181884766,-28305046.08154297,24098819.732666016,11119161.605834961,3941770.553588867,1771727.442741394,-3917509.3173980713,-2411118.984222412,-31505056.381225586,-27495382.30895996,-31551887.51220703,25212852.478027344,21892398.834228516,9296391.487121582,-4347124.5765686035,-980167.3293113708,-7764942.646026611,-4729140.758514404,-18270280.838012695,-31210157.39440918,24289728.16467285,11862430.572509766,5147993.564605713,-1279544.711112976,-947808.563709259,-5987970.82901001,-9861230.850219727,-7482192.516326904,-7944057.464599609,24062078.47595215,4775261.402130127,5350049.018859863,3590989.589691162,-449766.3378715515,-591467.1421051025,-6703256.130218506,-7215593.338012695,-6938287.258148193,7852080.345153809,9079794.883728027,-17207458.49609375,8220932.960510254,-6463631.629943848,-7061341.762542725,-7350985.050201416,12216146.469116211,11586675.643920898,8417997.360229492,-6634194.374084473,-5889409.54208374
0.465,-11045248.031616211,1490039.7062301636,-39022232.05566406,-9757347.106933594,-19181243.896484375,23045932.76977539,841871.5596199036,1619155.2877426147,-18151552.200317383,-9432401.657104492,-18368083.953857422,-30462579.72717285,-30363441.467285156,-31166656.494140625,20869499.20654297,7257602.214813232,678975.4629135132,365700.0660896301,-4474547.386169434,-2891463.7565612793,-32641185.760498047,-29432201.385498047,-34474292.75512695,22271394.729614258,18483078.002929688,11551902.770996094,-5778538.227081299,-1033859.372138977,-8801678.657531738,-5233898.162841797,-18547939.30053711,-34197196.96044922,21263048.17199707,9910889.625549316,4913186.073303223,-1460592.0314788818,-1151773.8103866577,-7361625.671386719,-11498420.715332031,-9197788.23852539,-9809762.001037598,20887035.369873047,4576399.326324463,5336137.294769287,4193464.756011963,-582599.2822647095,-2718359.7087860107,-8595911.979675293,-8905703.5446167,-8751006.126403809,7688672.065734863,8994017.601013184,-16565412.521362305,8397976.875305176,-8221543.312072754,-8882690.4296875,-9060445.785522461,12047013.282775879,11156702.995300293,8174217.224121094,-8559042.930603027,-7575504.302978516
0.47,-12379935.264587402,1647550.4636764526,-37768981.93359375,-9573526.382446289,-17248802.185058594,23223011.016845703,1466429.591178894,2145945.5490112305,-17496080.39855957,-9197113.990783691,-17161199.56970215,-28129934.310913086,-27799499.51171875,-28759305.953979492,23564615.24963379,9614196.77734375,1319486.0219955444,856776.2970924377,-3706646.203994751,-1109603.1665802002,-30442111.96899414,-25836320.877075195,-31364202.49938965,25108976.364135742,18942134.857177734,15185207.36694336,-5977522.373199463,-982786.8342399597,-8759497.64251709,-3842898.8456726074,-15342041.969299316,-31193721.771240234,24292440.41442871,11973427.772521973,8116806.983947754,-1355396.2707519531,-1265319.7050094604,-7811491.012573242,-11121598.243713379,-8570034.02709961,-9222341.537475586,23726713.180541992,7784049.034118652,8705749.51171875,5223193.645477295,-496895.76029777527,-3887642.1451568604,-8197051.048278809,-8202575.68359375,-8287187.576293945,11359182.357788086,12625948.905944824,-11579534.530639648,9538523.67401123,-7592442.035675049,-8317550.6591796875,-8445663.452148438,13050474.166870117,11997518.539428711,8893050.193786621,-8107556.343078613,-6983113.765716553
0.475,-8470158.576965332,6807516.574859619,-31807615.280151367,-4825353.622436523,-11560029.983520508,27969125.747680664,5348747.730255127,6294974.803924561,-13675484.657287598,-7271006.107330322,-13335892.677307129,-22234712.600708008,-21929965.97290039,-22899869.918823242,29991773.60534668,16417369.842529297,5573307.991027832,2938758.134841919,-1965798.4972000122,1458215.2366638184,-27065208.435058594,-19099138.259887695,-24249511.71875,31478670.120239258,23281581.87866211,18883193.969726562,-5859270.095825195,-1023219.2277908325,-7969980.716705322,-1985205.054283142,-10970592.498779297,-24155427.932739258,30853834.15222168,16115400.314331055,11740632.057189941,-1333097.4578857422,-1370205.044746399,-7678192.615509033,-9944774.627685547,-6648431.777954102,-7237644.195556641,30341733.932495117,11373463.63067627,12315539.360046387,4966995.716094971,-468565.3746128082,-4164847.3739624023,-6388929.36706543,-6271056.175231934,-6411972.999572754,15192820.54901123,16424005.508422852,-8064203.262329102,11023562.43133545,-5651320.457458496,-6384041.309356689,-6648973.46496582,15632203.102111816,14701411.247253418,10375675.201416016,-6132542.133331299,-5141864.29977417
0.48,-3875376.9397735596,10108152.389526367,-27903985.97717285,-1482491.2548065186,-9390909.194946289,32639881.134033203,7844624.5193481445,9076500.89263916,-10614490.509033203,-6448907.852172852,-11943565.368652344,-19456155.77697754,-19382745.74279785,-20234207.153320312,33939971.923828125,21213401.794433594,8894891.738891602,4064411.6401672363,-1373691.3204193115,1674223.0653762817,-26917610.16845703,-16037765.502929688,-20156337.73803711,35303722.3815918,27277885.43701172,20264759.063720703,-6829209.327697754,-1186860.44216156,-8213253.974914551,-2073694.7059631348,-9642719.268798828,-20064428.329467773,34677608.489990234,18424674.98779297,13472233.772277832,-1561391.830444336,-1457889.0800476074,-7673658.37097168,-9460977.554321289,-4506005.28717041,-5018045.902252197,34348411.560058594,13091680.526733398,13921298.98071289,3978641.5100097656,-600745.3799247742,-3504734.0393066406,-4173830.032348633,-4157469.7494506836,-4158563.1370544434,16516168.594360352,17796453.47595215,-7676942.825317383,13183650.016784668,-3437072.515487671,-4133294.105529785,-4593694.21005249,19026782.989501953,18305660.247802734,12864063.262939453,-3677263.9751434326,-2982706.7852020264
0.485,-3518884.6588134766,9314231.872558594,-28311349.868774414,-2199319.60105896,-12254027.366638184,33258613.58642578,7453630.9242248535,8709592.819213867,-10335965.156555176,-7215513.706207275,-13851022.720336914,-21814832.68737793,-21864946.365356445,-22610073.08959961,32430427.55126953,20492361.068725586,8536040.306091309,3726459.264755249,-1767223.7157821655,-154663.3541584015,-30228919.982910156,-18758926.391601562,-21620056.15234375,33649780.2734375,27103557.586669922,18701477.05078125,-8161589.622497559,-1264521.2411880493,-9528846.740722656,-4305743.69430542,-11926419.258117676,-21547698.974609375,32997371.673583984,17242626.190185547,13165900.230407715,-1776282.0720672607,-1438224.4348526,-7885243.892669678,-9889727.592468262,-2893946.647644043,-3355457.7827453613,32654487.60986328,12868675.231933594,13534638.404846191,2977060.317993164,-702981.1143875122,-2296175.718307495,-2444355.4878234863,-2548183.9179992676,-2452126.5029907227,15294347.763061523,16649154.663085938,-8483970.642089844,14944181.442260742,-1708005.7859420776,-2407429.6951293945,-2860824.8233795166,20464284.896850586,19782859.802246094,14940761.56616211,-1751370.6684112549,-1264978.289604187
0.49,-5279621.124267578,9989250.183105469,-28014259.338378906,-2686140.775680542,-13358997.344970703,30952714.920043945,7549740.791320801,8599688.529968262,-9765275.001525879,-6055748.462677002,-13815436.363220215,-23390317.916870117,-23323593.139648438,-24055297.8515625,29043590.545654297,17724187.85095215,7185594.55871582,4402642.726898193,-456853.2705307007,-97105.15290498734,-32035572.052001953,-21498289.108276367,-23121149.06311035,30059576.0345459,24072980.880737305,16592693.328857422,-7820318.222045898,-1096121.6688156128,-9477113.723754883,-5464581.489562988,-13291994.094848633,-23180442.810058594,29550189.971923828,14762995.719909668,12000452.995300293,-1698515.6536102295,-1315598.6070632935,-7678718.090057373,-10091968.536376953,-2083142.0421600342,-2517332.3154449463,28961326.599121094,11853357.315063477,12379397.39227295,1343882.0838928223,-592558.3839416504,-1501258.4924697876,-1665790.7962799072,-1778731.5845489502,-1701903.4624099731,13088813.781738281,14501255.03540039,-9235684.394836426,14344547.271728516,-881684.422492981,-1665517.2109603882,-1852481.484413147,18264245.986938477,17451112.747192383,14493738.174438477,-939402.9974937439,-474266.55888557434
0.495,-1802052.9747009277,18195922.8515625,-20597705.841064453,2211166.1434173584,-6547791.004180908,30557924.270629883,11375777.244567871,12249792.098999023,-4892467.975616455,-516208.5294723511,-7804719.924926758,-18311883.9263916,-18078260.42175293,-18858013.153076172,28632493.97277832,18158706.665039062,8913135.528564453,7769963.264465332,3590025.4249572754,3929239.03465271,-28418504.71496582,-18354658.126831055,-19285829.544067383,29489898.681640625,22713680.267333984,16763305.6640625,-5547979.831695557,-801543.8318252563,-6659690.856933594,-2561869.8596954346,-9888418.197631836,-19531913.75732422,29136508.94165039,14042920.112609863,11195354.461669922,-1401410.3412628174,-1194519.8774337769,-6796113.014221191,-9271240.234375,-1866269.1116333008,-2305867.1951293945,28375299.45373535,11128436.088562012,11582315.444946289,-1229643.9409255981,-342348.27756881714,-1874222.755432129,-1642056.7035675049,-1751874.327659607,-1611969.1133499146,11467233.657836914,12940187.454223633,-9828107.833862305,11558019.638061523,-880109.1909408569,-1754128.2176971436,-1650992.9895401,14506197.929382324,13582685.470581055,11753465.65246582,-1062242.6271438599,-508359.6110343933
0.5,8258918.762207031,31216894.149780273,-6934471.607208252,10267084.121704102,4904754.161834717,33514842.987060547,16702394.485473633,17673938.751220703,2582853.7940979004,6095898.628234863,631592.333316803,-9104170.799255371,-8836150.169372559,-9665549.278259277,30544445.037841797,21186050.415039062,12674939.155578613,11529743.194580078,7340806.484222412,8722773.551940918,-21870567.321777344,-11366511.344909668,-12860016.822814941,31474971.771240234,24053602.21862793,18585727.69165039,-3671662.5690460205,-623324.6922492981,-3412307.024002075,2755295.753479004,-4133726.5968322754,-13240876.197814941,30997985.83984375,15026554.107666016,10969474.792480469,-1131184.458732605,-1108632.206916809,-5975684.642791748,-8319705.963134766,-1995198.0113983154,-2473683.1188201904,30338924.407958984,10839775.085449219,11314334.869384766,-3286596.7750549316,-153209.3733549118,-2825859.546661377,-1957841.6347503662,-2162475.5859375,-1763624.3104934692,10938899.040222168,12405456.54296875,-9635265.350341797,9338932.037353516,-1355213.1652832031,-2199983.3583831787,-2039631.1283111572,12801296.23413086,11905719.757080078,9498698.234558105,-1589172.124862671,-903925.6572723389
