time,Fp1,Fpz,Fp2,AF3,AF4,F7,F5,F3,F1,Fz,F2,F4,F6,F8,FT7,FC5,FC3,FC1,FCz,FC2,FC4,FC6,FT8,T7,C5,C3,C1,Cz,C2,C4,C6,T8,TP7,CP5,CP3,CP1,CPz,CP2,CP4,CP6,TP8,P7,P5,P3,P1,Pz,P2,P4,P6,P8,PO7,PO5,PO3,POz,PO4,PO6,PO8,CB1,O1,Oz,O2,CB2
0.0,-861708.4622383118,73628.23188304901,-168290.30215740204,196547.94037342072,89823.12679290771,-727308.988571167,-687400.2814292908,-710215.2109146118,-666394.7701454163,-11718.986555933952,-6590.752396732569,-67611.925303936,-9511.271491646767,373276.025056839,-764988.2435798645,-750016.8085098267,-803428.1134605408,-535801.4106750488,-48416.3761138916,-110468.87189149857,109458.87118577957,233427.86729335785,31334.534287452698,-16055.840998888016,-2717.4726128578186,-643509.1495513916,-11240.08558690548,-12151.881121098995,-167387.08317279816,156157.76181221008,141132.75706768036,22366.952151060104,1667133.4505081177,247871.39892578125,-198983.74378681183,1654.488150961697,8429.715409874916,126898.95927906036,508890.21158218384,506854.23612594604,37075.28859376907,559191.8230056763,-52677.34080553055,211253.68773937225,650756.0610771179,-23882.657289505005,178090.69156646729,21835.20793914795,62158.26794505119,-8376.391604542732,454480.0817966461,437324.97096061707,202077.38876342773,7578.290533274412,111125.46175718307,57607.654482126236,84137.13425397873,-107098.84762763977,-188372.32887744904,-159216.94040298462,105426.14758014679,92198.945581913
0.005,702212.0952606201,1107094.0494537354,-511207.4613571167,6318130.970001221,2159868.9556121826,791242.9571151733,-1928907.2751998901,-1985516.3097381592,-1761085.7486724854,1076699.6145248413,1290623.7840652466,-1949812.889099121,-645835.5188369751,-3111799.0016937256,-952762.8421783447,-3080152.750015259,-7361382.961273193,-4050026.8936157227,397078.90152931213,-448213.04082870483,1782443.2849884033,-1511704.444885254,-1723738.193511963,8669393.539428711,3412924.05128479,-3481091.022491455,-2676543.951034546,-645027.0414352417,-2370405.435562134,301876.3065338135,-405811.99526786804,-1686055.302619934,23942203.521728516,7116376.3999938965,989644.2890167236,-1271587.4910354614,-407678.7829399109,34930.83268404007,1297289.0138626099,961698.2936859131,-961587.4886512756,11007147.789001465,6454959.869384766,5343417.167663574,2204985.8570098877,-1366428.3752441406,1454034.686088562,-674045.0263023376,-23349.815979599953,-1364713.6688232422,8295661.926269531,7940485.000610352,6159364.700317383,-520076.4536857605,602397.3226547241,-375430.97138404846,626264.3337249756,5923912.525177002,4897195.339202881,3674378.6334991455,335639.20855522156,525902.9269218445
0.01,-519969.4633483887,725609.4813346863,-379179.9247264862,8916410.446166992,1799088.954925537,-522387.38536834717,-4742586.135864258,-4945116.996765137,-4516598.224639893,-781826.2577056885,-422558.7546825409,-2401425.838470459,-530462.8014564514,-1639346.0035324097,605316.0429000854,-4045114.517211914,-9927205.085754395,-6349502.086639404,-417649.2691040039,-1613136.5299224854,2294390.4399871826,-658857.2859764099,-730311.1553192139,11228982.925415039,5102363.109588623,-3831434.965133667,-3285069.9424743652,-826942.9206848145,-2541209.4593048096,920928.3590316772,-1902.412623167038,-591937.780380249,29547449.111938477,8505012.512207031,1910166.5019989014,-1550946.2356567383,-522584.14030075073,1055388.5698318481,2119105.815887451,1721292.3765182495,251041.2037372589,13446371.078491211,8134369.850158691,6755377.769470215,2042918.2052612305,-1896412.1341705322,3064898.2524871826,535208.6424827576,1496967.5540924072,-477535.27760505676,10956455.23071289,10482093.811035156,7464164.733886719,-683640.4204368591,1969293.3559417725,1008924.7226715088,2272324.562072754,8975987.434387207,8517977.714538574,5851385.116577148,1645707.4880599976,1860268.5928344727
0.015,-1434334.635734558,1252301.573753357,1702506.3037872314,8113751.411437988,1182846.5461730957,-2486254.4536590576,-6643090.24810791,-7002154.82711792,-6412515.163421631,-3209953.784942627,-2815315.9618377686,-738386.8098258972,1043445.8255767822,3902777.4333953857,3860368.9670562744,-3061821.937561035,-8009035.110473633,-6407433.032989502,-1615416.6460037231,-2635746.479034424,2148295.4025268555,2218162.775039673,2184954.881668091,8870138.168334961,5458285.331726074,-1667953.4912109375,-1814810.7528686523,-727256.5364837646,-1382679.5816421509,1609169.840812683,869905.412197113,2403418.3025360107,21761781.692504883,5853990.55480957,2380929.946899414,-962078.1540870667,-393759.51886177063,2643215.1794433594,2569747.20954895,2371037.9600524902,2894361.972808838,9000336.647033691,6242562.294006348,5324118.614196777,885249.0186691284,-1692646.3842391968,4528593.063354492,2955350.160598755,3886038.303375244,1967622.7569580078,9240252.494812012,8823367.11883545,5658237.457275391,-558169.0073013306,3742198.944091797,3540738.344192505,4424902.91595459,9305915.832519531,10310802.459716797,6450408.935546875,3604323.8639831543,3660245.895385742
0.02,1596853.0178070068,4289408.6837768555,5057016.372680664,6612034.797668457,2789742.2313690186,-1723314.4044876099,-4855446.338653564,-5180994.510650635,-4601164.3409729,-2586005.926132202,-2268797.6360321045,1380933.7615966797,2954166.889190674,7593515.396118164,6781969.07043457,-1176922.9173660278,-4688868.522644043,-4599427.700042725,-1761050.9395599365,-2372159.719467163,2160504.102706909,3881659.984588623,3643613.815307617,6988690.376281738,5790561.676025391,580181.1218261719,-33449.97391104698,-796662.8670692444,-1196425.3187179565,1255709.7673416138,658259.8686218262,3830774.5456695557,15738733.291625977,4451753.616333008,2374208.688735962,-444598.9429950714,-301460.862159729,3149214.98298645,2077687.2634887695,2095912.9333496094,4095508.575439453,5064793.586730957,5513692.855834961,4477845.191955566,663608.729839325,-1458423.9721298218,4846943.378448486,4050650.5966186523,4800774.574279785,3182001.829147339,7836964.130401611,7430302.619934082,5455899.238586426,-500323.71282577515,4440446.376800537,4750607.490539551,5246088.50479126,9087039.947509766,10919730.186462402,6640497.207641602,4519567.012786865,4416153.907775879
0.025,5291676.044464111,6051063.537597656,5476607.799530029,6012707.710266113,3983647.108078003,107756.22725486755,-1798324.8233795166,-1897066.354751587,-1522214.8895263672,-535962.4624252319,-345787.7039909363,712969.6607589722,2286689.281463623,5247312.545776367,7087271.213531494,-637149.6319770813,-3442755.699157715,-3140603.542327881,-1404242.1579360962,-1755982.756614685,1687137.8421783447,2172781.467437744,2046342.8497314453,7269981.384277344,6005451.202392578,610472.9175567627,471096.2176322937,-1086534.1424942017,-2663143.1579589844,-577564.2395019531,-1277194.9768066406,2159395.456314087,17023498.53515625,5766772.747039795,1945500.9698867798,-591721.4155197144,-395367.6223754883,2017497.0626831055,794586.0624313354,860115.4685020447,2601677.894592285,5283260.822296143,7303581.237792969,5108116.626739502,1665970.3254699707,-1603403.2106399536,3809946.060180664,2706726.312637329,3336148.977279663,1850218.0576324463,8804597.854614258,8260076.522827148,7657102.584838867,-678945.6009864807,3442716.360092163,3502399.682998657,3974035.0246429443,8989218.711853027,11094038.009643555,6947955.131530762,3479211.0919952393,3388118.028640747
0.03,3632539.5107269287,2447427.0343780518,663546.3833808899,5757395.267486572,1027200.1028060913,-1503239.5124435425,-2424860.0006103516,-2354218.4829711914,-2200551.5098571777,-1526813.3878707886,-1414247.6320266724,-3392836.332321167,-1749393.9399719238,-650164.1273498535,4436054.706573486,-2700747.25151062,-5102279.186248779,-4037446.0220336914,-2127991.4379119873,-2505025.625228882,-67710.2878689766,-1348412.6329421997,-378671.43750190735,6961195.468902588,5044787.406921387,-1362764.4777297974,-432220.13115882874,-1296434.4024658203,-4107535.8390808105,-2553157.8063964844,-3409543.752670288,-227082.65483379364,18593187.33215332,6712547.302246094,1073405.385017395,-1240531.2061309814,-621602.7736663818,775806.4866065979,-36073.01041483879,-44503.76704335213,501822.5908279419,6208375.930786133,8640957.832336426,5172358.989715576,2356681.5853118896,-1927822.232246399,2705974.578857422,823304.4147491455,1467080.7123184204,-143021.30043506622,9947810.173034668,9267471.313476562,8874881.744384766,-942644.1788673401,2138315.6776428223,1614236.59324646,2254811.7637634277,7917751.789093018,11165157.318115234,7055195.331573486,1851874.2322921753,1900534.5106124878
0.035,-2391510.486602783,-3565690.279006958,-5250321.865081787,5219058.513641357,-3872780.3230285645,-6568344.593048096,-6923052.3109436035,-6950894.355773926,-6813621.997833252,-5502109.527587891,-5364122.8675842285,-7208336.353302002,-5635997.295379639,-3974675.6553649902,886485.3978157043,-6060902.118682861,-7803974.151611328,-6744838.237762451,-3748763.3228302,-4270370.960235596,-1948227.1671295166,-3270398.6167907715,-487741.70875549316,4753002.166748047,3155427.932739258,-3187214.136123657,-1870032.548904419,-1311184.7639083862,-3993794.4412231445,-2639555.9310913086,-3502655.506134033,-177513.59939575195,16153547.286987305,5558556.079864502,-259382.15851783752,-2033175.2300262451,-860914.8859977722,1270393.6100006104,809847.9509353638,778752.6249885559,576739.490032196,3730860.471725464,7527445.7931518555,3751629.114151001,1917374.7301101685,-2079595.5657958984,3119186.8782043457,995022.0584869385,1752435.2073669434,-135400.14624595642,9311474.800109863,8686064.720153809,7628931.999206543,-1068980.8130264282,2498953.5808563232,1683086.9913101196,2398307.0850372314,5845351.219177246,11209953.308105469,6943359.375,1947442.650794983,2035208.9405059814
0.04,-5630448.341369629,-5396959.7816467285,-6711427.688598633,4977473.735809326,-5131912.2314453125,-9962000.846862793,-10254451.751708984,-10545486.450195312,-10230266.571044922,-7856323.719024658,-7626656.055450439,-7198844.909667969,-5779289.722442627,-2383520.8415985107,-1102684.736251831,-8155958.17565918,-9304955.48248291,-8849902.153015137,-4520981.788635254,-5097169.399261475,-2091063.4994506836,-2526588.9167785645,1745493.0543899536,2997640.609741211,2060097.9328155518,-3446227.3120880127,-2945797.2049713135,-1277760.9825134277,-2908896.6846466064,-652777.8506278992,-1419768.5718536377,2165274.3816375732,14870018.005371094,4505613.803863525,-1656888.0081176758,-2730858.087539673,-970485.5680465698,3257112.503051758,2912722.110748291,2975484.609603882,2706016.0636901855,-959248.6023902893,5884138.107299805,2687171.9360351562,1486974.1201400757,-1955503.225326538,4954666.1376953125,3168877.8400421143,4061365.1275634766,1890669.2266464233,8312571.5255737305,7904908.657073975,6758677.959442139,-964979.6485900879,4527772.426605225,3774755.4779052734,4435893.0587768555,4865663.051605225,11405580.520629883,7223949.909210205,4088645.4582214355,3965255.4988861084
0.045,-3081913.2328033447,-2353486.0610961914,-4462810.516357422,5575212.9554748535,-2266633.987426758,-8428607.940673828,-9124357.223510742,-9542123.794555664,-9094879.150390625,-6478960.037231445,-6155813.694000244,-4828117.370605469,-3476054.906845093,407925.0991344452,-1065397.85861969,-7762668.132781982,-8722467.422485352,-8849463.46282959,-3955301.7616271973,-4477331.161499023,-817461.1926078796,-1436414.122581482,3343550.92048645,3707366.943359375,2862085.1039886475,-2517890.214920044,-2960468.292236328,-1230122.685432434,-2486092.5674438477,1090885.4007720947,389239.28141593933,3721652.9846191406,19297229.766845703,5833485.6033325195,-2079354.5246124268,-2822052.001953125,-804914.8917198181,4555906.295776367,4296386.241912842,4444998.264312744,4106157.7796936035,-3530523.5385894775,6421573.162078857,3665847.7783203125,2447204.828262329,-1649665.9517288208,6301078.796386719,4676344.871520996,5638713.836669922,3365746.021270752,9228875.160217285,8992260.932922363,8825200.080871582,-664883.9116096497,5997881.889343262,5315146.923065186,5902008.533477783,6529955.3871154785,12070316.314697266,8147228.240966797,5962944.030761719,5491311.550140381
0.05,679603.8746833801,79438.91733884811,-3682979.3453216553,6356216.907501221,-185018.1519985199,-4366850.852966309,-5569200.51574707,-5848116.397857666,-5460953.235626221,-4154171.4668273926,-3756429.1954040527,-4126282.215118408,-2753764.867782593,162866.60730838776,-692382.0376396179,-5555863.380432129,-6306071.2814331055,-7166538.238525391,-3356072.9026794434,-3837651.252746582,-222581.08854293823,-2270313.9781951904,2210444.688796997,5954064.846038818,5097328.186035156,-875199.2583274841,-1299466.848373413,-1039088.249206543,-3160557.270050049,458750.9036064148,-213467.8214788437,2508227.3483276367,25941364.288330078,8755193.710327148,-412718.0576324463,-1543016.6721343994,-396394.5806026459,3669224.977493286,3607224.702835083,3676409.2445373535,2961955.785751343,-2309320.6882476807,9038727.760314941,5951441.764831543,4585540.771484375,-1299088.716506958,5606406.688690186,3583892.822265625,4505681.51473999,2433050.6324768066,11679198.265075684,11439032.554626465,12283693.313598633,-302992.46311187744,5097447.872161865,4316047.191619873,4872474.193572998,9316420.555114746,13319528.579711914,8911872.863769531,5385843.276977539,4692864.418029785
0.055,1412621.9749450684,-599057.9724311829,-5446897.029876709,6366456.508636475,-949984.6696853638,-1606584.5489501953,-2685074.3293762207,-2757326.126098633,-2479187.488555908,-3196899.4140625,-2747718.334197998,-5568670.749664307,-4185432.9109191895,-2313534.97505188,-1740628.0040740967,-2623398.542404175,-2623426.1989593506,-4626509.189605713,-3216858.6254119873,-3731925.4875183105,-807553.1125068665,-4079700.9468078613,-440499.78256225586,8159241.676330566,7854783.058166504,2005919.9333190918,2048387.050628662,-726821.7206001282,-3731203.79447937,-1707169.2943572998,-2322334.5279693604,-112869.42660808563,29463140.4876709,11238600.730895996,3358635.663986206,1121731.0428619385,-25860.54988205433,1479621.0527420044,1810536.9806289673,1655220.5085754395,517598.6886024475,201327.94976234436,11591315.269470215,7934402.942657471,6613985.538482666,-1049129.843711853,3486949.920654297,936836.7195129395,1764921.6651916504,49534.29102897644,13325940.132141113,12981584.548950195,13986125.946044922,-78433.11131000519,2586164.2360687256,1678826.3320922852,2300595.998764038,10068574.905395508,14708707.809448242,8364288.330078125,2889796.733856201,2266993.284225464
0.06,947493.9107894897,-524520.4567909241,-5334687.70980835,5703594.68460083,-903776.0496139526,-706685.7814788818,-460864.24589157104,-524055.6001663208,-206538.31958770752,-2083455.8010101318,-1643426.8951416016,-5745877.265930176,-4350375.652313232,-2959394.4549560547,-4273358.345031738,297405.77936172485,1350669.503211975,-1498104.3338775635,-2181999.683380127,-2741395.950317383,-654660.1057052612,-4155034.5420837402,-1988479.495048523,10031660.079956055,10443074.226379395,5924106.597900391,5855842.113494873,-486976.3255119324,-2942532.539367676,-2630164.384841919,-3168641.8056488037,-1567670.464515686,29785062.789916992,12495299.339294434,7660928.726196289,3927837.133407593,82106.5902709961,-30115.73664844036,1009749.8893737793,679431.140422821,-887665.8082008362,805511.8918418884,12672727.584838867,9204705.238342285,7797168.731689453,-979717.493057251,1862741.3511276245,-833304.4052124023,-30428.452417254448,-1580014.944076538,13069081.30645752,12645832.061767578,13449343.68133545,-89684.3820810318,685314.2380714417,-219062.64126300812,604228.0197143555,7872586.727142334,15498826.026916504,6366134.166717529,787369.7876930237,480474.20382499695
0.065,2305740.8332824707,2985514.1639709473,-1235925.4360198975,5225245.475769043,2374610.9008789062,-354630.88750839233,1939136.5051269531,1674050.5695343018,2133461.9522094727,572416.4247512817,939267.9929733276,-3068707.9429626465,-1581125.7362365723,-356156.6174030304,-7185169.696807861,2042101.1447906494,3907236.337661743,1393726.9449234009,325319.43917274475,-224738.6872768402,1405606.985092163,-1861595.869064331,-1588739.7527694702,10988530.158996582,11678922.653198242,8368466.377258301,8162529.945373535,-373648.0176448822,-914147.5558280945,-1197571.873664856,-1700598.8359451294,-1183258.4142684937,29095441.818237305,12299161.911010742,10317119.598388672,5523429.393768311,58843.02780032158,-47457.15111494064,1845127.7017593384,1526055.932044983,-677605.0329208374,-1218565.3448104858,12298551.559448242,9837879.180908203,8270906.448364258,-1009736.7763519287,1728134.036064148,-810979.4855117798,79484.61920022964,-1642800.8079528809,11850158.69140625,11386293.411254883,12534673.690795898,-199606.68683052063,468681.4248561859,-333132.14778900146,704248.84557724,5440768.241882324,15525709.15222168,4340173.721313477,361671.8351840973,432816.2968158722
0.07,3527500.629425049,5887744.426727295,2334302.4253845215,5318528.652191162,5182081.699371338,-737460.6728553772,2700875.759124756,2245780.9448242188,2750678.539276123,2228801.488876343,2573855.6385040283,-520329.0581703186,1097216.248512268,2468271.493911743,-9844575.881958008,1138810.5154037476,3551137.685775757,2126880.168914795,2169004.201889038,1659941.4348602295,3618496.6564178467,402890.4438018799,-546416.2230491638,9492771.14868164,10286409.378051758,6854660.987854004,7840704.441070557,-280036.598443985,1004452.4669647217,795971.3339805603,239225.90911388397,-305409.4612598419,27350404.739379883,10171592.712402344,10326360.702514648,5905197.1435546875,175083.2200050354,700653.7914276123,2967783.212661743,2754087.448120117,-29914.429411292076,-4129377.841949463,10996710.777282715,9243234.634399414,8304732.322692871,-999225.7952690125,2453181.505203247,-38685.17652153969,943843.6627388,-1022508.8596343994,10805489.540100098,10290165.901184082,12343681.335449219,-185496.56867980957,1201199.1739273071,476318.8660144806,1491563.6777877808,6062354.564666748,15586606.979370117,4177138.328552246,1010961.651802063,1317144.3939208984
0.075,460831.55274391174,3082893.6100006104,144883.6773633957,5597130.298614502,2872621.774673462,-2828622.579574585,-492085.9634876251,-964370.07188797,-538137.4359130859,-353300.0349998474,141905.23326396942,-1606616.735458374,41411.19495034218,1916801.3334274292,-12494680.404663086,-2266410.1123809814,653977.09608078,-297935.3666305542,928766.667842865,449469.59614753723,3455491.065979004,14128.373004496098,-286057.08479881287,5910084.247589111,7034991.264343262,2789582.4909210205,5604771.614074707,-237638.1754875183,1483680.8443069458,1201272.8452682495,464848.3693599701,-211944.44596767426,25191785.81237793,7095144.271850586,8797502.517700195,6073498.249053955,418577.3432254791,1273388.147354126,3065870.761871338,2874150.037765503,81671.67752981186,-5528187.7517700195,9636096.954345703,7451215.744018555,8186574.935913086,-928940.7134056091,2985921.3829040527,272109.09128189087,1219500.7801055908,-731897.1753120422,10288334.846496582,9730368.614196777,12633630.752563477,-12630.973942577839,1770908.9517593384,1003162.5032424927,1718608.8562011719,9659711.837768555,16516618.728637695,6258511.066436768,1668433.666229248,1953848.8388061523
0.08,-6269783.020019531,-3425418.3769226074,-6389123.439788818,5615588.665008545,-2953181.505203247,-5550789.356231689,-5841756.820678711,-6218757.152557373,-5816232.681274414,-5717422.4853515625,-4979442.596435547,-5603165.626525879,-4050140.857696533,-2047853.946685791,-15089172.36328125,-5532402.992248535,-2348153.3527374268,-3872304.677963257,-2402420.997619629,-2846355.199813843,1041338.9205932617,-2944007.158279419,-988979.6376228333,3699721.574783325,5064650.058746338,811889.0523910522,3411535.0246429443,-396146.2080478668,496116.9958114624,165527.8503894806,-867704.2126655579,-964170.2175140381,26463672.637939453,6035374.164581299,7951095.5810546875,6422361.373901367,541860.4016304016,1385003.924369812,2458057.403564453,2202278.6140441895,-311361.3724708557,-4332310.199737549,9359029.769897461,6333131.313323975,8529837.608337402,-859251.081943512,2953371.047973633,-74197.918176651,724809.7062110901,-994390.2492523193,10493121.147155762,9961739.540100098,13395276.069641113,167044.2670583725,1767996.1919784546,821653.0680656433,1256256.5803527832,12638602.256774902,17914216.995239258,8639167.785644531,1873061.6569519043,1959474.802017212
0.085,-11165760.040283203,-6276111.602783203,-10588642.120361328,5345361.709594727,-5923777.103424072,-6395412.921905518,-8234387.397766113,-8536199.569702148,-8003121.376037598,-8528794.288635254,-7692970.275878906,-8307609.558105469,-6853734.493255615,-5916954.040527344,-16750411.987304688,-5976212.501525879,-2992415.189743042,-5011958.599090576,-3991494.655609131,-4364463.329315186,-785535.8123779297,-5702581.405639648,-1926157.832145691,5189783.096313477,6432139.3966674805,3311791.41998291,2876467.227935791,-659345.5076217651,-442579.80585098267,-440604.5079231262,-1734220.3855514526,-1892862.5583648682,32382598.876953125,8333804.130554199,8900883.674621582,6479383.46862793,473977.62537002563,1178342.4615859985,2305350.7804870605,2062259.4356536865,-857472.1813201904,-2087697.982788086,10324658.393859863,7433757.781982422,9674825.668334961,-774788.0220413208,2592313.528060913,-629573.4643936157,36311.72701716423,-1510664.939880371,11375343.322753906,10917131.423950195,14679885.864257812,254640.19179344177,1317210.6742858887,159981.77230358124,599808.0372810364,11809973.71673584,18313045.501708984,8829324.722290039,1566126.5850067139,1503557.801246643
0.09,-10594922.065734863,-1709605.4553985596,-7989244.46105957,4963634.490966797,-2409474.6112823486,-4771296.501159668,-5134992.599487305,-5401206.493377686,-4706369.400024414,-5554292.678833008,-4863107.204437256,-6485377.311706543,-5060688.018798828,-5842957.973480225,-16848949.432373047,-3915548.56300354,-968221.0087776184,-2343218.8034057617,-1593434.8106384277,-1902377.8438568115,475167.4234867096,-5307169.437408447,-2182930.7079315186,7773060.321807861,9200802.80303955,7326250.5531311035,4167729.8545837402,-694333.2552909851,435904.20484542847,597083.2109451294,-694119.9898719788,-2202114.8204803467,36693187.71362305,10898254.39453125,10497950.553894043,6397995.948791504,400300.4729747772,945428.2522201538,3050540.4472351074,2970105.4096221924,-1191665.8878326416,-2148746.2520599365,11009368.896484375,9186810.493469238,10767368.31665039,-625497.2219467163,2320914.9837493896,-866491.9137954712,-257915.31801223755,-1728942.9903030396,11731276.512145996,11304884.910583496,15187336.921691895,297491.192817688,824204.3256759644,-375540.52472114563,243846.19295597076,7710321.90322876,16735393.524169922,6513183.116912842,969378.7693977356,945628.1065940857
0.095,-6851628.78036499,6306520.462036133,-668222.7253913879,4591794.013977051,4865416.049957275,-2631028.652191162,475654.15501594543,255331.66527748108,986115.7536506653,991028.0108451843,1466816.9021606445,-859295.904636383,538181.3049316406,-1131722.8078842163,-16009889.602661133,-1984809.398651123,1974236.3691329956,1891049.1466522217,2896176.57661438,2549133.30078125,4460433.483123779,-1419450.044631958,-1239573.0018615723,7328219.890594482,9937768.936157227,8527331.352233887,6187047.958374023,-434431.94031715393,3191639.6617889404,2764938.8313293457,1754248.023033142,-1361095.3092575073,33120666.50390625,9839764.595031738,10792955.39855957,7583437.442779541,418579.3399810791,1049268.9609527588,4189428.3294677734,4291360.378265381,-796829.8196792603,-6136618.137359619,10139691.352844238,8674087.524414062,10561184.883117676,-478125.7212162018,2499417.0665740967,-407564.4016265869,167237.41590976715,-1113800.4064559937,10066119.194030762,9621996.879577637,13470289.23034668,335276.5440940857,893627.2859573364,-87203.82302999496,606458.4851264954,3603487.968444824,13754693.984985352,3876742.124557495,743521.0943222046,818463.921546936
0.1,-5019444.942474365,10806257.247924805,5068707.466125488,4343733.310699463,10048329.35333252,-1594947.5765228271,3756669.044494629,3567311.7637634277,4212837.696075439,5942463.397979736,6327657.699584961,4381008.625030518,5684442.520141602,4466699.600219727,-15442567.825317383,-1605638.9808654785,3909790.7543182373,4445497.512817383,5694871.425628662,5185422.897338867,8126690.864562988,2759243.965148926,278474.50971603394,4492459.774017334,8580056.190490723,6955521.106719971,7663099.765777588,-249644.13046836853,5660433.292388916,4495104.3128967285,3753732.681274414,125767.42470264435,25658327.102661133,6274682.998657227,9594046.592712402,10943583.488464355,406159.6393585205,1469435.0957870483,4931635.37979126,5088096.141815186,300878.8526058197,-11188227.653503418,8983100.891113281,6180495.262145996,9462829.58984375,-441299.58748817444,3052267.074584961,474632.1737766266,1029477.7154922485,16083.074733614922,7175727.844238281,6755566.596984863,10860786.437988281,321466.326713562,1649368.8821792603,931419.7301864624,1574574.589729309,2093578.577041626,11114837.646484375,3117679.5959472656,1297071.2184906006,1317764.163017273
0.105,-7468761.920928955,8668457.984924316,4338920.116424561,4370567.321777344,9377491.95098877,-1111334.4430923462,3044280.2906036377,2796703.577041626,3340647.4590301514,5876278.877258301,6260074.138641357,4880092.144012451,6086554.050445557,5680465.6982421875,-15621040.344238281,-1593919.6348190308,4020659.4467163086,4216654.7775268555,5031380.653381348,4355049.133300781,8370834.3505859375,3063612.937927246,703647.6135253906,4109999.179840088,8404202.461242676,6494191.1697387695,8092684.745788574,-417166.94831848145,5540980.339050293,4439846.038818359,3675782.4420928955,645105.4215431213,24676219.940185547,5384962.08190918,8787969.589233398,15060852.05078125,308549.3743419647,1526734.1136932373,4687259.197235107,4783764.362335205,903286.2186431885,-12410387.03918457,10050848.960876465,5429781.913757324,9572110.176086426,-474992.90108680725,3299558.401107788,696883.499622345,1340308.0701828003,293373.167514801,6250741.481781006,5927280.902862549,10816345.21484375,251776.39722824097,2174265.3846740723,1406913.9957427979,2081801.414489746,3313776.2546539307,10407950.401306152,4230521.678924561,1896686.7923736572,1743788.5999679565
0.11,-12263210.29663086,2530245.780944824,-2134506.940841675,4706031.799316406,3721535.9210968018,-183646.44050598145,219035.87877750397,-148479.81929779053,330068.4690475464,1428105.115890503,1750852.2272109985,85661.82851791382,1294842.8392410278,1248116.7316436768,-16263832.092285156,-735785.2458953857,2164933.443069458,2227444.1719055176,2166507.7209472656,1481199.860572815,5023049.831390381,-1165220.1414108276,-708418.1904792786,8082746.505737305,10757023.811340332,8913254.737854004,7654450.416564941,-698288.9175415039,3020967.721939087,2679870.128631592,1657990.9324645996,-637968.7190055847,32660034.1796875,9287914.276123047,9717153.549194336,17127014.16015625,289509.3262195587,857948.4224319458,3580229.7592163086,3592818.021774292,52668.12443733215,-8575519.561767578,13456087.112426758,8327583.312988281,11886917.114257812,-447825.5808353424,2851516.2467956543,-288138.0021572113,570047.7361679077,-928614.3183708191,9196558.952331543,8934988.975524902,14414241.790771484,243178.1142950058,1654442.9063796997,479405.9693813324,1310778.1410217285,6029584.4078063965,12087972.640991211,5805824.279785156,1611698.9850997925,1419988.6322021484
0.115,-15792041.778564453,-2308390.3789520264,-8418636.322021484,5151974.201202393,-2323161.1251831055,652767.4198150635,-2502207.040786743,-2912448.6446380615,-2478580.4748535156,-3743173.837661743,-3516148.567199707,-5588939.666748047,-4290329.456329346,-3838977.575302124,-17169271.46911621,-72662.21195459366,-1658937.931060791,-425663.44141960144,-641296.0290908813,-1151588.4399414062,1445547.342300415,-5604750.156402588,-2016588.9263153076,12169439.315795898,12523162.841796875,11176580.429077148,6489843.845367432,-696127.1166801453,743924.9157905579,1225015.640258789,-10789.857245981693,-1913370.2516555786,40331806.18286133,13851111.41204834,11171811.1038208,15776858.32977295,446978.8670539856,585613.5487556458,2989420.6523895264,2914009.5710754395,-897973.0606079102,-3857600.688934326,16255384.44519043,11755173.683166504,14458720.207214355,-367339.28322792053,2696504.3544769287,-1001037.1208190918,20815.84371626377,-1856349.5874404907,13854260.444641113,13511566.162109375,18394296.646118164,389736.92059516907,1129655.361175537,-411128.9978027344,511345.86334228516,9149630.546569824,15249069.213867188,7180816.173553467,1254562.3779296875,1242536.5447998047
0.12,-15824817.657470703,-2051907.5393676758,-8484971.046447754,5425765.9912109375,-3842986.822128296,525056.9581985474,-4266237.258911133,-4574418.067932129,-4162393.093109131,-5846354.961395264,-5549628.734588623,-6617758.750915527,-5245363.235473633,-3258035.182952881,-18093566.89453125,-1142209.1722488403,-6522142.41027832,-3170291.1853790283,-2101012.2299194336,-2414373.1594085693,1414363.6226654053,-5308517.4560546875,-343904.7336578369,11679441.452026367,10609522.819519043,9948570.251464844,4643065.452575684,-426561.29598617554,900231.122970581,2465277.671813965,1183420.7773208618,-330443.6504840851,39081733.70361328,14170944.213867188,11046011.924743652,12419901.847839355,610619.6045875549,2346506.118774414,4606902.599334717,4432825.088500977,659466.9222831726,-2879098.415374756,16083789.825439453,11499958.038330078,14615444.18334961,-362474.32231903076,4364209.175109863,804501.7123222351,1775626.8978118896,73794.19356584549,16236162.185668945,15712877.27355957,19128234.86328125,605875.4324913025,2697324.275970459,1230153.5606384277,2099955.5587768555,11814265.251159668,18120992.66052246,8732128.143310547,2844695.0912475586,2976925.849914551
0.125,-12569950.103759766,3286204.8149108887,-1752872.109413147,5414258.003234863,500842.75007247925,314086.10939979553,-4657806.873321533,-4839890.956878662,-4377640.247344971,-3655815.601348877,-3051173.448562622,-1847816.2288665771,-467624.9921321869,3620452.1656036377,-18163143.157958984,-3120090.4846191406,-10021490.097045898,-4911632.537841797,-2045696.9738006592,-2330598.3543395996,5128025.054931641,-389466.3453102112,4160248.279571533,7565489.768981934,6754198.07434082,6557629.585266113,2807474.8516082764,-231794.43180561066,2899307.9662323,6230806.350708008,4948747.634887695,4063244.8196411133,31343500.1373291,10699347.496032715,9341945.64819336,9663413.047790527,601685.1663589478,5759563.92288208,8024529.457092285,7815072.059631348,4818613.529205322,-5631230.83114624,13903439.52178955,7779888.62991333,12353876.113891602,-440496.86193466187,7559224.605560303,4889613.628387451,5691152.572631836,4469857.692718506,14803844.451904297,14153694.152832031,16935329.43725586,710583.8060379028,6378527.641296387,5335737.228393555,6183176.9943237305,12911226.272583008,19119651.794433594,10292569.160461426,6448607.444763184,6457743.167877197
0.13,-8090529.441833496,10327323.913574219,6703888.416290283,5222214.221954346,7407652.378082275,1550957.9181671143,-3248688.4593963623,-3451301.336288452,-2830611.46736145,881310.4629516602,1824502.8257369995,4717824.935913086,6078402.519226074,11324988.36517334,-16705417.63305664,-3798833.8470458984,-10079758.644104004,-4209661.960601807,-810655.2958488464,-1237853.765487671,9125657.081604004,4216521.263122559,7631260.871887207,4028090.476989746,5024038.791656494,5089521.408081055,2337684.392929077,-256100.02875328064,4421062.94631958,9199555.397033691,7855315.685272217,7526441.0972595215,24705238.342285156,7511647.2244262695,8005561.828613281,8863587.379455566,515185.4157447815,8029441.833496094,10162245.750427246,10058692.932128906,8077409.744262695,-8892089.84375,12053226.470947266,4436513.423919678,9976759.910583496,-463321.328163147,9667525.291442871,7910701.274871826,8629508.018493652,7569079.875946045,11216765.403747559,10608000.755310059,14684910.774230957,641340.3749465942,9132260.3225708,8435130.11932373,9403987.884521484,11435869.216918945,17912673.950195312,10560387.61138916,9042637.825012207,8822985.649108887
0.135,-5114915.370941162,14814686.77520752,11361721.03881836,4996987.819671631,11958187.103271484,3593733.072280884,-816528.6183357239,-1176714.1819000244,-349698.33493232727,4472498.416900635,5523118.495941162,8488821.029663086,9846633.911132812,14671961.784362793,-14756427.764892578,-2975310.5640411377,-7486694.812774658,-1278211.5936279297,874511.71875,323213.666677475,10260222.434997559,4621549.606323242,6851991.176605225,2177304.0294647217,5858625.411987305,6717745.304107666,3841813.802719116,-330556.6906929016,4159166.3360595703,8414651.870727539,7024080.753326416,6851153.373718262,21118549.346923828,6470999.240875244,8084603.309631348,9426809.310913086,541601.0618209839,7021869.659423828,8505976.676940918,8572594.64263916,7330530.643463135,-10989650.72631836,11061439.514160156,3622612.237930298,8817132.949829102,-396899.551153183,8597562.789916992,7135895.252227783,7837252.616882324,6555953.025817871,7695967.674255371,7299262.046813965,13643603.324890137,514479.45833206177,8235285.758972168,7586042.881011963,8651722.90802002,7634478.569030762,15629944.801330566,8734793.663024902,7931983.470916748,7717092.514038086
0.14,-5531011.10458374,14517164.23034668,10845653.533935547,4796332.836151123,11788840.293884277,3975916.1472320557,411583.0659866333,-47280.795872211456,867214.0836715698,5002026.557922363,5903626.918792725,8270106.315612793,9641109.466552734,13428157.806396484,-14353486.061096191,-2668894.5293426514,-5422177.791595459,1339477.777481079,1857436.0609054565,1337235.3315353394,8595337.867736816,1769174.337387085,3164139.2707824707,-204988.494515419,6006395.33996582,8680495.262145996,6100193.977355957,-327835.73865890503,2698163.2709503174,4845138.072967529,3550294.1608428955,3249769.926071167,17772357.940673828,6267407.8941345215,8778721.809387207,10059521.675109863,644445.2404975891,3990293.9796447754,4424037.456512451,4541488.170623779,3798870.325088501,-12538712.501525879,10147975.92163086,4020052.433013916,8242436.408996582,-372747.2126483917,5500828.266143799,3817098.85597229,4370356.08291626,3022784.948348999,5514326.572418213,5379335.880279541,13192843.437194824,474271.08883857727,4801243.782043457,4074208.7364196777,5019230.842590332,3658478.9752960205,14055056.57196045,6115559.101104736,4385094.64263916,4414244.651794434
0.145,-8997191.429138184,10711770.057678223,7603486.53793335,4662134.647369385,8450900.077819824,2021255.9700012207,-1036253.5715103149,-1403478.8608551025,-644573.1520652771,2693447.8282928467,3387317.180633545,5757438.182830811,7132618.9041137695,10520739.555358887,-15870989.799499512,-3758036.6134643555,-5945786.476135254,1198354.6018600464,1230959.6538543701,794040.0838851929,6076678.276062012,-1081562.2806549072,672876.3580322266,-3362365.484237671,4154561.5196228027,8761395.454406738,7123097.896575928,-329221.9042778015,1049559.235572815,2097881.79397583,1026729.8221588135,696128.9048194885,15195087.432861328,6241510.86807251,9400904.655456543,10132185.935974121,640733.4208488464,2130711.078643799,1712552.4282455444,1713466.8827056885,1423684.1201782227,-13455357.551574707,9731883.04901123,4145365.7150268555,7921661.853790283,-442270.04051208496,3547842.7410125732,1592732.7871322632,1887553.334236145,841056.764125824,5492826.93862915,5462727.5466918945,13649121.284484863,533355.176448822,2514378.309249878,1782339.334487915,2496644.7353363037,2419067.621231079,14334075.927734375,5080172.538757324,2241150.379180908,2390844.5835113525
0.15,-13086326.599121094,7036087.989807129,4637204.170227051,4714045.524597168,5246577.739715576,152294.0695285797,-4028025.6271362305,-4233518.123626709,-3756784.677505493,-575230.8964729309,17670.72267830372,3047328.472137451,4376594.066619873,8144069.671630859,-17311544.41833496,-4606441.974639893,-7997725.009918213,-1413345.456123352,-754816.5321350098,-1266203.2842636108,3932299.6139526367,-2582391.7388916016,1205926.8951416016,-4250914.096832275,2987874.984741211,7971810.340881348,6244500.160217285,-399496.9129562378,-486420.06516456604,1909093.6183929443,1037401.4377593994,1048232.5553894043,17145532.608032227,7534195.423126221,10332974.433898926,9784997.940063477,510544.8365211487,2755818.3670043945,1957454.6813964844,1842826.7240524292,1931439.1613006592,-12501465.797424316,11086368.560791016,4484986.305236816,8717450.141906738,-479927.9570579529,4164860.725402832,2047416.2101745605,2273289.442062378,1424870.8486557007,7701097.9652404785,7482204.437255859,16249023.4375,572449.3265151978,3143972.873687744,2417543.411254883,3054788.35105896,4932008.743286133,16091287.612915039,6348777.770996094,3175946.2356567383,3102150.4402160645
0.155,-15340202.331542969,6460483.074188232,3511378.288269043,5007748.126983643,4304500.102996826,616470.6349372864,-6055471.897125244,-6250538.8259887695,-5894689.559936523,-2750742.4354553223,-2161606.788635254,1691355.4668426514,2883310.556411743,7058205.127716064,-16784561.157226562,-3774680.8528900146,-9263120.651245117,-4002809.524536133,-2698782.444000244,-3462263.822555542,2560113.9068603516,-3399698.7342834473,2767914.7720336914,-1506183.14743042,4670094.4900512695,8005467.414855957,4689984.321594238,-464771.21114730835,-1715171.456336975,2659180.164337158,1809159.8749160767,2477322.3400115967,22877386.09313965,10095999.717712402,11489047.050476074,9214658.737182617,395443.49908828735,4132443.904876709,3083148.241043091,3010274.1718292236,3324895.143508911,-10069609.642028809,13794635.772705078,5545563.220977783,10431545.25756836,-446783.3936214447,5665103.435516357,3373488.664627075,3850057.601928711,2734793.6630249023,10424079.895019531,9843605.041503906,20051023.483276367,474234.78960990906,4838694.095611572,4006984.7106933594,4746917.247772217,8917858.123779297,17874181.747436523,8099240.303039551,5046373.8441467285,4632544.51751709
0.16,-15365707.397460938,8748081.20727539,4192861.557006836,5349365.234375,5318570.613861084,2564446.9261169434,-5895438.671112061,-6240535.259246826,-5742835.04486084,-2898632.287979126,-2290324.6879577637,2487905.740737915,3481477.0221710205,7514842.510223389,-14536347.389221191,-2022288.5608673096,-8767391.204833984,-4596879.482269287,-3191128.4923553467,-4168756.0081481934,2600105.7624816895,-3710750.102996826,2896436.4528656006,1971949.3389129639,7577347.755432129,8638721.466064453,4162938.117980957,-497808.39681625366,-1965937.0183944702,2504548.5496520996,1452711.7013931274,2616709.2323303223,26591802.5970459,11836449.62310791,11807314.8727417,8414908.409118652,327298.70080947876,4176176.071166992,2838178.873062134,2869147.0623016357,3254047.632217407,-8376808.166503906,15819510.459899902,6315165.042877197,10970787.048339844,-539159.2383384705,5825361.251831055,3373376.6078948975,4127085.6857299805,2646003.007888794,11377353.66821289,10583088.874816895,21866367.34008789,241242.09582805634,5087440.013885498,4111779.21295166,4902324.676513672,11051462.173461914,18699363.708496094,8325009.346008301,5199269.2947387695,4683158.397674561
0.165,-14609416.007995605,10982595.443725586,5458641.052246094,5476540.088653564,6523288.249969482,3810193.0618286133,-4243225.09765625,-4671082.973480225,-4016917.2286987305,-1583486.6762161255,-926736.59324646,4719833.3740234375,5598737.2398376465,8835137.367248535,-11883739.471435547,-430974.42388534546,-6892227.1728515625,-3214776.9927978516,-1932651.162147522,-2910347.4617004395,4411826.133728027,-2779335.2603912354,1868269.3243026733,3456883.430480957,9362687.110900879,9225309.371948242,5329693.31741333,-594074.9645233154,-896813.8098716736,2176365.375518799,808504.4026374817,1652865.0522232056,26326557.159423828,11964506.149291992,11276528.358459473,7610124.111175537,201122.67136573792,3133643.15032959,1972279.5486450195,1932561.993598938,2142541.8853759766,-7958624.839782715,16403068.542480469,6187234.878540039,9602250.099182129,-874251.6040802002,4761288.166046143,2321702.718734741,3056513.547897339,1627928.9722442627,10488211.631774902,9803318.977355957,20511308.670043945,5568.709224462509,3988049.9839782715,2955510.139465332,3643699.884414673,10710986.137390137,18881526.947021484,7388463.020324707,3899222.3739624023,3567914.4859313965
0.17,-14347929.954528809,10785981.178283691,5828307.151794434,5421159.744262695,6658500.194549561,4067953.109741211,-2333641.767501831,-2656597.375869751,-2079941.5111541748,-174608.5286140442,606930.3154945374,6403536.796569824,7387657.165527344,9235462.188720703,-9545763.969421387,1381069.0641403198,-4320858.478546143,-1221320.7483291626,129112.54167556763,-709031.9395065308,6943106.174468994,-704266.0117149353,1794185.2807998657,4290068.626403809,10386833.190917969,10515454.292297363,7425364.971160889,-745809.6742630005,702386.3196372986,3546573.6389160156,1964736.7000579834,1571565.2704238892,27060121.536254883,12329164.505004883,11521693.229675293,7299332.618713379,45210.67813038826,2937786.102294922,2762191.5340423584,2433979.5112609863,2136555.1948547363,-6830858.23059082,16800245.28503418,6428012.371063232,9225246.42944336,-1170399.3082046509,4468317.031860352,2179744.4820404053,2692707.7770233154,1612002.7303695679,9790023.803710938,9363166.809082031,18765827.178955078,-63661.254942417145,3675065.279006958,2632052.421569824,3264575.719833374,10267628.66973877,18993921.279907227,7259653.091430664,3517676.1150360107,3447875.9765625
0.175,-14659617.42401123,8625403.40423584,4956408.977508545,5466177.463531494,5940112.590789795,4523873.805999756,-1086870.4319000244,-1325739.3836975098,-928332.0307731628,253528.6247730255,1188242.9122924805,6362241.744995117,7621277.809143066,7847288.131713867,-8025564.193725586,3502170.8011627197,-2222305.7746887207,-172272.10104465485,1546682.0001602173,804201.9009590149,8494611.740112305,1107535.481452942,3489337.921142578,6570151.805877686,11673958.778381348,12895711.898803711,8844877.243041992,-764737.4272346497,1650071.7401504517,6474788.188934326,4928862.09487915,3216557.9795837402,31939847.946166992,13874971.389770508,13028932.571411133,7495033.264160156,66370.68837881088,4484643.459320068,5437501.907348633,4846111.297607422,3953167.9153442383,-4479868.412017822,17624286.651611328,7945870.876312256,12853801.727294922,-1025005.578994751,5966928.482055664,3781785.011291504,4181836.6050720215,3244177.81829834,10178927.421569824,9871411.323547363,19435857.77282715,99521.65186405182,5188581.943511963,4099821.5675354004,4900887.489318848,11359611.511230469,18549318.313598633,8534760.475158691,5125787.734985352,5258361.81640625
0.18,-15227317.810058594,6633666.9921875,3895231.7237854004,5653890.132904053,5189497.947692871,5164137.840270996,-1248837.4710083008,-1672230.9589385986,-1267362.7138137817,-525011.1222267151,455483.078956604,5379511.35635376,6869200.229644775,6122275.352478027,-8282796.859741211,3984159.7080230713,-2303862.0948791504,-958445.2509880066,1375325.7989883423,655514.8959159851,8461642.265319824,1461603.283882141,5370358.943939209,8401546.478271484,11776339.530944824,14395863.53302002,8296512.603759766,-587695.0025558472,1626249.1941452026,8564043.045043945,7228410.243988037,5113411.903381348,35896938.32397461,14263406.753540039,13605365.753173828,7290202.1408081055,318026.48305892944,6412659.645080566,7645725.250244141,7035463.333129883,5909351.825714111,-3868922.710418701,17576061.248779297,9072224.617004395,18750186.920166016,-495941.54953956604,7874634.265899658,5723327.63671875,6165117.263793945,5075731.7543029785,10190355.30090332,9814373.970031738,21362245.559692383,366693.55630874634,7067083.358764648,5990475.177764893,7019532.203674316,12610917.091369629,16707744.598388672,9591951.370239258,7131238.93737793,7420840.740203857
0.185,-16125827.78930664,5754515.171051025,3439160.3469848633,5592437.744140625,4485088.348388672,4760386.943817139,-2944288.492202759,-3688965.320587158,-3156774.7592926025,-2014792.2039031982,-1165027.8568267822,4524158.954620361,6051506.519317627,5584439.754486084,-10549216.270446777,1234884.50050354,-4963950.634002686,-3045169.5919036865,-92562.62332201004,-745546.1025238037,7429884.910583496,325315.1774406433,5335904.121398926,6291749.477386475,8889513.969421387,13016637.802124023,5962723.731994629,-452045.0234413147,1153465.5094146729,8006979.942321777,6837428.569793701,5152617.454528809,33115165.71044922,11355170.249938965,11518656.730651855,5811821.937561035,521319.56815719604,6680110.454559326,7383316.993713379,6904122.352600098,5897173.4046936035,-7188209.056854248,15829393.38684082,7689472.675323486,21913032.53173828,-118128.11344861984,8055242.538452148,5950091.83883667,6383161.0679626465,5174651.622772217,8731533.05053711,8274890.899658203,21494812.01171875,494233.3698272705,7167288.780212402,6262983.798980713,7264087.677001953,12060641.288757324,14020956.993103027,8993181.228637695,7296574.592590332,7686358.451843262
0.19,-17300148.010253906,5099489.212036133,2945689.4397735596,4984048.366546631,3385483.503341675,3223910.5701446533,-4812307.834625244,-5623142.242431641,-5175401.68762207,-3209833.6219787598,-2597750.425338745,3482692.7185058594,4908306.59866333,5146522.998809814,-13166280.746459961,-2789402.2464752197,-7820066.928863525,-4455976.963043213,-1364869.9522018433,-1890150.0701904297,6019456.86340332,-1712554.3355941772,2955461.7404937744,1236062.2882843018,4817808.151245117,10350131.98852539,3653095.006942749,-548831.2840461731,686251.6403198242,5575395.107269287,4415371.894836426,2800808.1912994385,26786653.518676758,7215970.039367676,8794806.480407715,3624764.6808624268,406508.08811187744,4778946.399688721,5165027.618408203,4730361.9384765625,3517941.2364959717,-11939607.620239258,13792019.844055176,4728046.417236328,20417552.947998047,-245338.11211585999,6047000.408172607,3853037.8341674805,4189482.2120666504,2999151.2298583984,6940354.824066162,6508457.660675049,19475261.688232422,369260.43033599854,5054440.975189209,4297324.180603027,4997848.033905029,9978815.078735352,12006006.240844727,7217289.924621582,5157830.238342285,5538483.619689941
0.195,-18029676.43737793,3936716.5565490723,1621943.2353973389,4160412.7883911133,2195082.187652588,1934103.9657592773,-4840636.253356934,-5383492.946624756,-5188005.447387695,-2980341.4344787598,-2592485.189437866,1716983.675956726,3036148.0712890625,2712491.989135742,-14156949.043273926,-4299137.115478516,-7856772.899627686,-3450065.6127929688,-894615.7097816467,-1393936.8724822998,4691045.28427124,-3947070.360183716,-399752.52747535706,-1614859.938621521,3435430.2883148193,10157927.513122559,3291226.1486053467,-653627.0380020142,356478.39307785034,3458553.7910461426,2246931.552886963,-558516.9196128845,25235033.03527832,5904513.835906982,8966749.19128418,2548128.843307495,134543.09105873108,2066102.9815673828,2949991.464614868,2472291.7079925537,160473.46591949463,-13984038.352966309,13112920.761108398,3349805.1166534424,17592317.581176758,-593766.6296958923,3340162.754058838,655885.2791786194,999126.8515586853,-253922.43266105652,6119572.162628174,5771280.765533447,17720394.134521484,175053.1792640686,2141581.5353393555,1222378.4923553467,1661161.3035202026,7698793.888092041,10891324.996948242,5303597.927093506,2099114.179611206,2420497.6558685303
0.2,-17626102.447509766,3066624.164581299,314622.58100509644,3801647.186279297,2010193.109512329,1596002.1018981934,-2634337.1868133545,-3002008.9149475098,-2689750.1945495605,-968707.799911499,-702998.0421066284,263274.6398448944,1523708.5819244385,-1070179.4624328613,-13531440.734863281,-2332544.0883636475,-4995823.383331299,-450226.0982990265,1466262.8173828125,798299.8490333557,4267066.00189209,-5438239.574432373,-3102477.550506592,322094.3510532379,5488089.561462402,13287867.546081543,5136086.463928223,-400740.53406715393,375337.71991729736,2876244.068145752,1693795.2041625977,-3165111.541748047,30293401.71813965,8254345.893859863,12334631.91986084,3761071.9203948975,148698.24051856995,160996.55628204346,1863587.2602462769,1467887.1631622314,-2503198.1468200684,-12836660.385131836,13479593.276977539,4869336.6050720215,17183513.641357422,-630518.7344551086,1517108.0827713013,-1945737.361907959,-1455607.8910827637,-2870185.8520507812,5723514.556884766,5438936.710357666,17698265.075683594,216327.08609104156,-76945.61034440994,-1377908.46824646,-955035.2096557617,5368477.821350098,9335111.618041992,3274814.6057128906,-345197.76701927185,-781.9358725100756
0.205,-16222209.930419922,3730442.762374878,866166.8300628662,4150120.258331299,3374464.750289917,1604166.1500930786,99235.19939184189,-574784.4576835632,493430.7634830475,1915783.166885376,2225484.3711853027,902158.3199501038,2132470.6077575684,-2781908.7505340576,-12702727.317810059,507103.6219596863,-1974048.6145019531,2447414.8750305176,4366258.144378662,3516472.578048706,5449395.179748535,-5226967.811584473,-4395905.017852783,4138045.310974121,7910152.912139893,16466432.571411133,7767817.02041626,124269.13529634476,1019956.7079544067,3476512.4320983887,2417661.9052886963,-4260565.280914307,35674541.47338867,11372661.590576172,15858470.916748047,6390597.343444824,575053.6322593689,-438259.2737674713,1723631.9780349731,1549148.5595703125,-3658274.8889923096,-11072166.442871094,13827032.089233398,7334574.6994018555,18748027.801513672,-272093.0576324463,862922.6088523865,-3111078.977584839,-2566453.218460083,-3952826.738357544,4922726.631164551,4642927.646636963,18489713.668823242,529696.2857246399,-1157412.052154541,-2633237.838745117,-2115198.850631714,2956882.953643799,6929107.666015625,1181921.2436676025,-1552633.285522461,-1119133.5916519165
0.21,-14394709.587097168,5902647.495269775,3796885.4904174805,4742271.423339844,5669267.654418945,1730308.7711334229,1722068.428993225,454587.8469944,2387671.709060669,4383201.122283936,4915649.890899658,3913644.313812256,5152775.287628174,-203911.33427619934,-12075873.374938965,1896781.086921692,-738722.6223945618,3868368.625640869,6432136.058807373,5641098.976135254,7826886.177062988,-3059292.0780181885,-4138835.906982422,6114696.025848389,8431635.856628418,16728803.634643555,9667470.932006836,396284.5504283905,2210616.111755371,4689372.0626831055,3756032.943725586,-3914307.8327178955,36632629.39453125,12776201.248168945,17384458.541870117,8281459.808349609,984798.1333732605,-80261.27517223358,2290813.684463501,2189622.640609741,-3232557.535171509,-9792721.74835205,14298033.714294434,8337472.915649414,19360336.303710938,45977.313071489334,948854.2675971985,-2841866.0163879395,-2453564.405441284,-3571608.781814575,4476474.285125732,4101515.293121338,18920915.603637695,786129.7726631165,-1148195.0283050537,-2416543.0068969727,-1875813.603401184,1976140.6183242798,5254039.287567139,370858.2818508148,-1433793.306350708,-1009104.1326522827
0.215,-12534671.783447266,8282805.442810059,7522141.456604004,4952894.21081543,7907454.967498779,2508667.469024658,2229279.2797088623,638254.1656494141,2799338.1023406982,5966147.899627686,6768541.33605957,7704890.727996826,9026296.615600586,5162520.408630371,-10887387.2756958,2072448.492050171,-725734.6510887146,4130029.2015075684,7409025.6690979,6878087.520599365,10139595.985412598,272800.2667427063,-2351451.635360718,6248078.8230896,7983034.610748291,14890701.293945312,10301444.053649902,133249.53615665436,3497474.9088287354,6584577.560424805,5698667.526245117,-2274583.101272583,35438858.03222656,12589951.515197754,17491750.717163086,8066142.0822143555,898710.0124359131,985476.4342308044,3811828.374862671,3502107.858657837,-1449687.4809265137,-7918846.607208252,15331957.817077637,7653157.711029053,18067382.8125,-25915.298610925674,1715352.177619934,-1346496.58203125,-1103437.6621246338,-2099854.7077178955,5226301.193237305,4666051.387786865,19068256.378173828,686119.8544502258,68653.6580324173,-926045.5965995789,-360487.52069473267,3504058.361053467,5433964.729309082,1841502.7856826782,-551.2228235602379,284341.7227268219
0.22,-11153066.635131836,9549033.164978027,9940848.350524902,4601594.924926758,9231381.4163208,3436437.8452301025,2040943.3841705322,654085.5169296265,2350050.449371338,6691688.060760498,7584011.554718018,10310460.090637207,11763079.643249512,9800663.948059082,-9278578.758239746,1914208.7697982788,-935979.7239303589,3756727.2186279297,7539234.161376953,7141381.740570068,11380518.913269043,3264852.285385132,344050.5564212799,6432628.631591797,7879820.346832275,13555132.865905762,9853087.425231934,-311060.19020080566,4423548.698425293,8941952.7053833,8007136.344909668,211710.3785276413,35880680.084228516,11774233.8180542,17095602.03552246,6306910.037994385,413472.7716445923,2578236.8183135986,5972428.798675537,5494558.811187744,982514.500617981,-5493181.228637695,16015718.460083008,6639606.475830078,16597755.432128906,-326773.4944820404,3202154.8748016357,896700.0246047974,1226408.4815979004,-59554.62157726288,6081855.773925781,5390028.476715088,19285091.400146484,363184.39245224,2189680.576324463,1221248.8651275635,1963485.836982727,5482961.177825928,6223694.324493408,4140719.8905944824,2192703.2470703125,2389737.606048584
0.225,-11208924.293518066,9112953.186035156,10035678.86352539,3976791.1434173584,8568972.58758545,2726543.664932251,592560.2316856384,-321255.98192214966,797892.2724723816,5973169.326782227,6691523.551940918,10488190.650939941,12040760.040283203,11107102.394104004,-8753480.911254883,1129828.5722732544,-1698748.230934143,2350913.7630462646,6546442.031860352,5956930.637359619,11120024.681091309,4358047.962188721,2369395.971298218,6750246.524810791,7402768.611907959,13513019.561767578,8656821.250915527,-418357.2828769684,4653513.431549072,10402436.256408691,9351590.156555176,2208472.967147827,37435123.443603516,10664634.704589844,15841791.152954102,4701646.80480957,101849.78693723679,3971059.799194336,7278413.29574585,7025323.867797852,2711548.328399658,-4243780.612945557,15299103.736877441,6320035.457611084,16444353.103637695,-464735.12053489685,4700207.710266113,2743036.0317230225,3255855.083465576,1547717.571258545,5617869.853973389,4979183.673858643,19525997.161865234,226126.65593624115,3923301.935195923,2858869.791030884,3809449.6726989746,5183278.560638428,6136942.8634643555,5055716.991424561,3859752.893447876,4136551.856994629
0.23,-12989736.557006836,7219620.704650879,8116435.0509643555,3468584.5375061035,5309793.949127197,40508.12125205994,-2400685.3103637695,-2945471.5251922607,-2110953.3309936523,3302807.8079223633,3760861.63520813,8169278.144836426,9751029.968261719,8699124.336242676,-9925144.19555664,-447769.4034576416,-3281706.5715789795,-185699.62680339813,4260480.880737305,3328514.814376831,9386862.754821777,2944649.6963500977,2477469.9211120605,6102305.889129639,5713770.866394043,13686304.092407227,7202749.252319336,-168319.0017938614,4032289.981842041,9724495.887756348,8555480.95703125,2436917.0665740967,37742618.560791016,9806534.767150879,13744200.706481934,4334039.211273193,278023.0641365051,4342230.796813965,6508207.321166992,6691791.534423828,2803567.1710968018,-4322495.937347412,14068959.23614502,6752995.491027832,17173307.418823242,-335417.6878929138,5280998.229980469,3153813.600540161,3672386.884689331,1845007.061958313,4699123.382568359,4196677.207946777,20089483.2611084,437927.57391929626,4185779.094696045,3164221.5251922607,4087937.831878662,4036562.442779541,6169766.902923584,5134140.968322754,4195831.298828125,4574961.185455322
0.235,-14822970.390319824,5060702.800750732,5477021.69418335,3317777.395248413,915215.790271759,-2084397.0775604248,-5142851.829528809,-5540198.802947998,-4811561.584472656,106820.06925344467,434936.91086769104,4884919.6434021,6460465.431213379,4355204.105377197,-11242585.182189941,-1562426.8054962158,-4422280.788421631,-2383286.714553833,1870220.3035354614,714901.1492729187,7028968.334197998,155163.9288663864,1440960.40725708,5024065.4945373535,4020116.8060302734,13422350.883483887,6100700.378417969,8932.705037295818,2898455.1429748535,7646607.875823975,6430194.854736328,1456460.1182937622,37275058.74633789,10113531.112670898,12215507.507324219,4713457.5843811035,603496.1342811584,3983633.9950561523,4491250.514984131,4813797.473907471,2044601.6788482666,-3554459.3334198,13968139.6484375,7444748.401641846,17631980.895996094,-188466.56382083893,5164814.472198486,2599581.718444824,2968371.3912963867,1346123.3377456665,5257077.217102051,4764708.042144775,21525781.631469727,734777.8677940369,3699386.3582611084,2775698.9002227783,3448831.31980896,6349924.087524414,8273461.34185791,7082542.419433594,4038024.90234375,4373540.878295898
0.24,-14323786.735534668,4301629.066467285,3839914.083480835,3565596.103668213,-1712264.7762298584,-1221915.602684021,-5298162.937164307,-5689962.863922119,-5075592.041015625,-1008763.313293457,-691599.6074676514,2983978.033065796,4565999.984741211,1062584.400177002,-10987037.658691406,-1176565.5279159546,-3926727.056503296,-2627773.2849121094,1123060.5840682983,-118984.66944694519,5521264.07623291,-1960288.7630462646,1288269.5198059082,5158737.1826171875,3833924.2935180664,13030899.047851562,5563240.051269531,-148788.09452056885,2066453.456878662,6285200.595855713,5117981.433868408,1252983.6893081665,37979732.513427734,11269464.492797852,12182039.260864258,4532866.00112915,577254.4741630554,4110218.048095703,3342451.572418213,3386572.1225738525,2177602.2911071777,-1094916.2244796753,14637262.344360352,7772361.755371094,17433309.55505371,-252759.4268321991,5490812.301635742,2672046.184539795,3000335.454940796,1590319.1566467285,7002211.570739746,6422051.429748535,23304903.030395508,802714.5862579346,4158539.295196533,3123785.972595215,3636739.2539978027,12432099.342346191,11808318.138122559,11253032.684326172,4802615.642547607,5039043.426513672
0.245,-11367792.129516602,5560068.130493164,4158162.5938415527,4047919.273376465,-1582978.2485961914,1566343.069076538,-3256472.34916687,-3699388.265609741,-3137461.9007110596,332750.8568763733,594843.6856269836,3244014.5015716553,4856014.728546143,714928.8058280945,-9530499.458312988,-187303.1109571457,-2691651.1058807373,-1407014.7275924683,2049437.9997253418,729232.4900627136,5411798.477172852,-2574717.2832489014,2509277.582168579,6590736.865997314,4502506.732940674,12684497.833251953,5242209.434509277,-425135.2846622467,2035063.5051727295,6490816.116333008,5434248.924255371,2484012.1269226074,39467647.552490234,11690834.045410156,12843218.803405762,3390292.167663574,234384.6559524536,5059839.725494385,3787456.512451172,3557836.5325927734,3501118.6599731445,886586.9045257568,14319598.197937012,7568199.157714844,16963701.248168945,-466877.3114681244,6471246.719360352,3823676.824569702,4282534.122467041,2919347.047805786,7717825.889587402,7191878.318786621,24023611.068725586,656612.9922866821,5654392.719268799,4362727.642059326,4971108.913421631,16735244.750976562,13838088.989257812,14228754.997253418,6275155.544281006,6563691.139221191
0.25,-8924042.701721191,7207738.399505615,5376145.362854004,4461406.707763672,-1147726.1781692505,2963395.595550537,-1967551.9466400146,-2450007.915496826,-1796732.6641082764,1341962.5759124756,1468162.4174118042,3885347.366333008,5534786.224365234,2122334.9571228027,-8614961.624145508,13608.877547085285,-2457706.928253174,-727469.9211120605,2783578.634262085,1431686.520576477,5556269.645690918,-2771963.8347625732,3261032.3429107666,7994904.518127441,4419996.738433838,12351341.247558594,4832055.09185791,-474465.936422348,2455369.9493408203,7044963.359832764,6110028.266906738,3383433.1035614014,39904659.271240234,11034478.187561035,13484414.100646973,2434884.0713500977,70613.19053173065,5616193.771362305,4381148.815155029,4217604.637145996,4274933.338165283,774306.1184883118,13042213.439941406,7588978.7673950195,16776733.3984375,-604295.7901954651,6874926.0902404785,4542762.279510498,5042536.25869751,3675439.8345947266,6735706.806182861,6440042.972564697,23470333.099365234,541260.9577178955,6300774.574279785,4937921.047210693,5694320.201873779,14890685.081481934,13018428.802490234,13194625.854492188,6654859.0660095215,7123214.244842529
0.255,-10115374.565124512,6559008.1214904785,5124717.235565186,4594366.073608398,-3086726.427078247,1393851.1610031128,-3053166.389465332,-3500882.863998413,-2741505.3844451904,-175806.00082874298,-136025.74169635773,3058229.446411133,4717882.6332092285,2336728.33442688,-8998876.571655273,-254068.13621520996,-3206546.3066101074,-1347566.2469863892,2143872.022628784,938148.2005119324,4841582.775115967,-3596569.061279297,2146357.0594787598,9067046.165466309,3720073.938369751,12549416.542053223,4505115.985870361,-273307.6214790344,2777978.4202575684,6873329.162597656,6032985.687255859,2429764.747619629,39507263.18359375,11111526.489257812,14814626.693725586,2919070.243835449,315781.8913459778,4849488.735198975,3809290.647506714,3865375.04196167,3245335.340499878,478050.97699165344,12903443.336486816,8743638.99230957,17190582.275390625,-545915.7824516296,5967439.1746521,3629577.875137329,3902370.2144622803,2612001.419067383,5894539.356231689,5725306.510925293,23106161.11755371,585757.6727867126,5069403.171539307,3883198.022842407,4597856.521606445,9802013.397216797,11249897.003173828,9873055.458068848,5247239.112854004,5781314.849853516
0.26,-14399142.265319824,3126850.8434295654,2613369.941711426,4550430.2978515625,-6435930.252075195,-1452551.7225265503,-4635317.802429199,-5013029.5753479,-4269816.875457764,-2608110.189437866,-2527758.836746216,1525171.160697937,3112738.3708953857,483506.9179534912,-9688973.426818848,401372.8201389313,-3323998.212814331,-1908862.7099990845,1126723.8855361938,136262.05921173096,3921138.048171997,-4350432.395935059,478400.97546577454,10702594.757080078,3901722.4311828613,13926324.844360352,4566399.097442627,-85411.81683540344,3049966.812133789,6656259.059906006,5853429.794311523,835945.9042549133,40169921.875,13147343.635559082,17125982.2845459,4466826.438903809,632396.0423469543,3702139.6160125732,2737621.545791626,2816848.7548828125,1653731.2269210815,2557442.6651000977,14715564.727783203,10654084.205627441,17934076.3092041,-367309.42130088806,4858670.711517334,2194349.0505218506,2187775.8502960205,1008700.1323699951,6564969.062805176,6268164.63470459,23786611.557006836,707588.9110565186,3547568.5596466064,2482561.1114501953,3016417.2649383545,7697329.998016357,10786147.117614746,8186122.894287109,3767138.4811401367,4142667.770385742
0.265,-17142488.479614258,485793.0839061737,713521.7189788818,4640355.110168457,-7550032.138824463,-2777188.301086426,-3997193.3364868164,-4402800.0831604,-3759661.912918091,-2867139.3394470215,-2681183.5765838623,1456325.650215149,2865401.50642395,-868552.3271560669,-9261581.420898438,2205797.9106903076,-2115768.4326171875,-1194256.30569458,1023720.6220626831,32773.58412742615,4016926.2886047363,-3844169.6166992188,328554.06403541565,12684374.809265137,5244720.935821533,16067564.010620117,5001216.888427734,-90160.34752130508,3500523.567199707,7291911.602020264,6469931.602478027,718801.5580177307,41994174.95727539,15524996.757507324,18711128.23486328,5485069.751739502,648029.6850204468,3577718.496322632,2401466.131210327,2300215.005874634,1423780.4412841797,5799275.3982543945,16426345.825195312,11746501.922607422,18123134.61303711,-224691.54000282288,4836197.376251221,1985186.219215393,1997382.1640014648,840013.9808654785,7627258.777618408,7203501.7013549805,24320907.592773438,782891.3331031799,3583510.398864746,2426686.2869262695,2840179.443359375,9819954.872131348,11242230.415344238,9108373.641967773,3887424.2305755615,4054760.9329223633
0.27,-12832952.499389648,4378247.261047363,4659336.566925049,5000512.12310791,-4087908.2679748535,-875000.4172325134,-898433.6853027344,-1452617.5260543823,-940622.8065490723,-497002.9294490814,-170090.09420871735,3518993.616104126,4719679.355621338,1378242.85030365,-7137160.301208496,4136935.7109069824,-577007.4129104614,122631.4902305603,1465986.728668213,257655.68017959595,4929745.197296143,-2351755.142211914,1329475.998878479,13365540.504455566,6449372.291564941,17664503.09753418,5567933.559417725,-214734.59899425507,3808965.2061462402,8113206.86340332,7278035.1638793945,1723600.6259918213,42794536.59057617,15819217.681884766,17981821.060180664,5196566.104888916,461844.41447257996,4051126.480102539,2467327.59475708,2210250.8544921875,2221949.815750122,6313425.064086914,15891395.568847656,11121964.454650879,17074546.813964844,-222966.22395515442,5243333.339691162,2583286.762237549,2928738.1172180176,1664445.7578659058,7266119.956970215,6985044.956207275,23235221.86279297,754978.2395362854,4386431.694030762,3158250.093460083,3557459.592819214,11507711.410522461,10489804.2678833,9966354.370117188,4641919.6128845215,4766260.623931885
0.275,1138954.1625976562,18344654.083251953,18120023.727416992,5385062.217712402,3731728.0769348145,4790943.622589111,3257493.734359741,2606538.2957458496,2915143.2514190674,2973733.425140381,3562953.233718872,7005379.199981689,8114689.826965332,7700829.029083252,-3552378.8928985596,5875267.98248291,575321.1975097656,999710.5002403259,1837230.5631637573,543880.5222511292,5943126.678466797,-846873.9986419678,1310548.9015579224,12392872.81036377,6885098.457336426,18018594.74182129,6139201.641082764,-303560.91260910034,3686132.4310302734,8151418.685913086,7368329.5249938965,1568912.5061035156,41296878.814697266,14164845.46661377,16078159.33227539,4437726.020812988,385992.5866127014,3446962.356567383,1795803.9045333862,1458507.6570510864,2020471.5728759766,2670526.2660980225,13554841.995239258,9595583.91571045,15134986.877441406,-363838.7620449066,4418309.211730957,2041646.2421417236,2696324.586868286,1276728.9876937866,5266995.429992676,5241724.014282227,20754302.978515625,600163.5789871216,3730108.4995269775,2659143.6862945557,3063749.7901916504,8874777.793884277,7437627.792358398,8324652.671813965,3818312.406539917,4048983.573913574
0.28,22416492.462158203,40220706.939697266,39565387.72583008,5401336.669921875,14776489.2578125,13818753.242492676,8254710.1974487305,7691580.295562744,7778535.842895508,7589015.483856201,8561620.712280273,11889822.959899902,13092021.942138672,16095157.623291016,912836.1940383911,8285484.313964844,2195615.291595459,2194111.3471984863,3330665.5883789062,2246445.417404175,7803361.892700195,949337.4228477478,-253922.9393005371,11823111.534118652,7480350.494384766,17703891.75415039,6769788.2652282715,-305083.57286453247,3804068.5653686523,8181857.109069824,7465460.777282715,-284962.6839160919,38718528.747558594,12840939.52178955,15320945.739746094,4272850.036621094,416987.68734931946,1513311.8629455566,698346.2572097778,231406.8228006363,299525.05230903625,-2338934.898376465,11078471.183776855,8407803.535461426,13241305.351257324,-569013.5359764099,2338141.441345215,45496.91453576088,732373.4164237976,-761744.8568344116,2594865.322113037,2580990.5529022217,17875631.33239746,323706.4480781555,1446543.81275177,593469.2025184631,1012304.6636581421,3232492.685317993,2976457.8342437744,4642438.888549805,1344463.2291793823,1634083.2710266113
0.285,43986362.45727539,62219436.64550781,61624668.12133789,4918007.373809814,27050580.978393555,24021793.365478516,14743220.329284668,14333365.440368652,14372619.62890625,14469785.690307617,15715897.560119629,18157728.19519043,19535570.14465332,23838459.014892578,5410792.827606201,11696455.955505371,5270937.919616699,5263173.580169678,7346300.12512207,6459702.968597412,11487578.392028809,3872234.106063843,-1505933.7615966797,13433299.06463623,8946646.690368652,17712974.548339844,7570925.235748291,-249844.67029571533,4993610.382080078,9657773.971557617,8903973.579406738,-1769619.7032928467,36953826.904296875,12991911.888122559,15817857.74230957,4676588.535308838,302300.24456977844,-48388.26507329941,700940.0725364685,76153.7030339241,-1198782.4440002441,-5266394.138336182,8672424.31640625,7688851.356506348,11809464.454650879,-747326.2548446655,772454.3809890747,-1514814.9728775024,-957523.6439704895,-2365860.4621887207,-144860.8934879303,-429135.7100009918,14671062.469482422,19955.020397901535,-310468.1670665741,-1132350.206375122,-621930.0031661987,-1743921.399116516,-1306051.49269104,874764.9788856506,-563824.6536254883,-390130.3708553314
0.29,57299304.9621582,75200302.12402344,74882232.66601562,4184140.205383301,36296516.41845703,31284545.8984375,21305427.55126953,20900684.356689453,21097778.3203125,21773408.889770508,22952142.7154541,23467432.022094727,24924468.994140625,28422351.837158203,8726257.32421875,14847520.82824707,9024187.088012695,9680579.18548584,12316433.906555176,11339653.015136719,15403112.411499023,7011569.499969482,-1153006.7920684814,16156829.833984375,10450990.676879883,18487426.7578125,8586640.357971191,-177708.65559577942,6632177.352905273,12046123.504638672,11144637.107849121,-1425251.2454986572,36640544.89135742,13534860.610961914,15870477.676391602,5049639.2250061035,12537.122704088688,-30495.09786069393,2074606.18019104,1454855.0844192505,-1180734.8728179932,-5394350.051879883,5528150.55847168,6867881.298065186,10590492.248535156,-865522.0866203308,740089.9529457092,-1407095.9091186523,-885022.4614143372,-2084954.5001983643,-2706109.2853546143,-3257084.608078003,11028259.27734375,-183610.40949821472,-301777.6310443878,-1183716.5355682373,-512356.698513031,-4573656.08215332,-4514259.815216064,-1849149.465560913,-631527.1258354187,-672950.4466056824
0.295,57408065.79589844,74606239.31884766,74323837.28027344,3574125.051498413,37905208.587646484,31851636.88659668,24278871.536254883,23704690.93322754,24054620.74279785,24787202.835083008,25659498.21472168,24477502.822875977,25843139.6484375,28260263.442993164,9521580.696105957,16058391.571044922,11355741.500854492,12620177.268981934,14601049.423217773,13472158.432006836,16448301.315307617,8147413.25378418,-196832.0608139038,17446966.17126465,10791142.463684082,19769189.834594727,9577807.426452637,-165672.25754261017,7065186.977386475,13179192.543029785,12169621.467590332,-385785.9671115875,37442405.700683594,13400364.875793457,15380274.772644043,5257428.6460876465,-212999.79090690613,749535.0241661072,3254479.40826416,2838580.60836792,-478512.64476776123,-3922844.409942627,2236961.3647460938,6036464.214324951,9576592.445373535,-952997.6844787598,1319599.0324020386,-644159.7938537598,-33786.47193312645,-1022063.7321472168,-4355002.403259277,-5000686.6455078125,8445233.345031738,-278177.26135253906,314534.7535610199,-443051.0401725769,358861.89341545105,-6074188.709259033,-6602450.847625732,-3365663.0516052246,-13875.734992325306,-188931.79297447205
0.3,46485622.40600586,63348121.643066406,63062240.60058594,3283679.246902466,31761909.48486328,25490398.406982422,21633323.669433594,20842615.127563477,21280433.654785156,21594293.59436035,22279527.66418457,21176069.259643555,22375720.977783203,24001785.278320312,7107997.417449951,14842946.05255127,11018666.26739502,12148612.976074219,13024376.86920166,12037773.132324219,14274137.496948242,6786605.8349609375,47043.74074935913,16364149.09362793,9980568.885803223,20829196.92993164,9914697.647094727,-326519.10185813904,5896007.061004639,12389559.745788574,11417797.088623047,-192368.0603504181,38734157.56225586,13089363.098144531,16192148.208618164,5425338.7451171875,-286654.17432785034,1012870.0733184814,3172708.749771118,2929283.618927002,-288396.8651294708,-1726443.7675476074,745605.0515174866,5930986.8812561035,9298566.818237305,-1043093.0852890015,1415287.1370315552,-491315.45424461365,146226.9127368927,-723611.2952232361,-4283471.584320068,-4945482.25402832,9078192.710876465,-382611.39392852783,277343.09434890747,-167949.78082180023,667745.5306053162,-6694829.46395874,-7740525.722503662,-3579622.268676758,-34404.46779131889,-169736.99629306793
0.305,31887578.9642334,48756473.541259766,49068290.71044922,3278909.683227539,23036136.627197266,16193134.307861328,15598865.509033203,14607891.082763672,15300024.032592773,15901048.66027832,16697872.161865234,17268032.07397461,18382335.662841797,18428630.828857422,2370166.301727295,12103671.073913574,8694251.06048584,9337131.50024414,10359325.408935547,9675388.33618164,11986226.081848145,4888048.6488342285,-36253.64601612091,14245991.706848145,8936173.439025879,20824340.8203125,9041007.995605469,-652056.3364028931,4617958.545684814,11455159.187316895,10573608.3984375,-418319.10610198975,39815273.28491211,13390579.223632812,18556844.71130371,5281933.307647705,-389215.76738357544,895211.935043335,2740697.6222991943,2445333.71925354,-286551.65433883667,851488.2326126099,1659194.9462890625,6739892.482757568,9957949.6383667,-1126621.0079193115,1354111.5522384644,-535209.4769477844,148.33097520750016,-875790.4171943665,-2716607.3322296143,-3403059.720993042,12824722.290039062,-554373.4431266785,171858.08718204498,-52424.40849542618,732409.656047821,-5697127.819061279,-7778585.910797119,-2474027.8720855713,-154077.60441303253,-159787.96780109406
0.31,20062290.19165039,36481811.5234375,37992366.790771484,3422148.2276916504,16633455.276489258,9036689.758300781,10140013.694763184,8981428.146362305,10106936.45477295,12285144.805908203,13282036.781311035,15285705.56640625,16460582.733154297,14011119.842529297,-2350521.3260650635,9146296.501159668,5881660.938262939,6411249.160766602,9378298.75946045,8733594.89440918,11757678.985595703,4034417.152404785,530236.6018295288,12756794.929504395,8112452.507019043,19385555.267333984,7175468.921661377,-913222.4917411804,4457982.540130615,11913459.777832031,11014576.91192627,145059.19814109802,40347785.94970703,13832188.606262207,19794137.954711914,4524308.204650879,-593305.4089546204,1297037.0054244995,3241002.7980804443,2770754.57572937,384139.35899734497,3024832.7255249023,3052854.299545288,7686454.772949219,10818668.365478516,-1164258.360862732,1936819.076538086,158151.5371799469,614916.741847992,-379024.3864059448,-865826.0703086853,-1537172.1982955933,16816930.770874023,-671755.7907104492,1025302.4101257324,765742.301940918,1460375.7858276367,-2706811.4280700684,-6467262.744903564,-548504.889011383,727987.9450798035,793307.7812194824
0.315,12364522.933959961,27416727.06604004,29888893.127441406,3585266.11328125,12513129.234313965,5757908.821105957,6686075.210571289,5521396.160125732,6772467.136383057,10703140.258789062,11684675.216674805,13678326.606750488,14984620.094299316,10926504.135131836,-5114304.542541504,6765003.204345703,3308564.6629333496,3965994.119644165,9333965.301513672,8485053.062438965,12000394.821166992,3480522.871017456,1408324.122428894,12304741.859436035,7196108.818054199,17075042.724609375,5324314.117431641,-873259.7231864929,4693764.686584473,12960007.667541504,11936167.71697998,1191941.8573379517,40800975.79956055,13422350.883483887,18016487.12158203,3583555.6983947754,-692477.0474433899,2192212.5816345215,4305571.07925415,3775960.683822632,1342312.4551773071,3949738.2640838623,2815833.568572998,7931882.858276367,10952523.231506348,-1118106.0075759888,2898309.9460601807,1172871.1128234863,1680989.146232605,535789.8473739624,336898.5950946808,-277773.08225631714,18485334.396362305,-582290.768623352,2323006.6299438477,1875755.9061050415,2507043.6000823975,1280847.191810608,-4174815.6547546387,1532400.8464813232,2182135.581970215,2228605.270385742
0.32,6488168.239593506,19810668.9453125,22491134.643554688,3684357.8815460205,7924324.512481689,3493212.4614715576,3701465.368270874,2796793.9376831055,3558365.1065826416,7987030.982971191,8711190.223693848,10105965.614318848,11474764.823913574,8069662.094116211,-6457934.379577637,4920954.704284668,822670.5193519592,1277461.7671966553,7810980.319976807,7011229.991912842,10220524.787902832,1815680.2654266357,1471669.5547103882,12115615.844726562,5896958.827972412,14963776.588439941,4404173.374176025,-586296.3795661926,3943593.740463257,12810008.04901123,11712543.487548828,1374320.62625885,41299381.256103516,12134193.420410156,15226181.983947754,3240161.657333374,-542985.200881958,2682033.7772369385,4475991.725921631,4054211.139678955,1476767.659187317,3730800.3902435303,1182167.2916412354,7392387.866973877,10375359.535217285,-958219.8262214661,3299319.02885437,1346132.2784423828,1922204.4944763184,738393.7239646912,962584.3167304993,338411.45038604736,18124284.744262695,-307549.3276119232,2751558.780670166,2101378.2024383545,2760476.82762146,4590418.338775635,-2021408.3194732666,3480027.437210083,2808466.1960601807,2853370.9049224854
0.325,467632.80034065247,12563465.118408203,15177236.557006836,3724798.4409332275,2214473.4859466553,-1597700.595855713,-185813.62068653107,-791670.6204414368,-582298.5768318176,3091359.853744507,3515914.6785736084,5196912.76550293,6478500.3662109375,4884992.599487305,-9066617.965698242,3037128.448486328,-1625891.2086486816,-1542559.266090393,4549838.542938232,4257430.076599121,6661878.1089782715,-979252.5768280029,492942.6312446594,11176133.155822754,4376774.311065674,13642766.952514648,4403646.469116211,-342626.7206668854,2196884.1552734375,10979854.583740234,9960869.789123535,350017.87543296814,40604320.52612305,10786101.341247559,14609050.750732422,3565666.675567627,-310268.43190193176,2341912.031173706,3175526.1421203613,2858914.1368865967,589809.4177246094,3089945.077896118,-5928.892642259598,6639508.247375488,10048649.787902832,-682700.6340026855,2869888.7825012207,498947.70979881287,1035204.1721343994,-6722.985301166773,1554785.4900360107,828617.8112030029,17893835.067749023,-11557.000689208508,2094573.736190796,1230212.5692367554,1965337.872505188,6097005.367279053,-875425.9347915649,5164598.9418029785,2221336.841583252,2354340.3148651123
0.33,-5579009.056091309,5921346.664428711,8772076.606750488,3813656.5685272217,-2679024.2195129395,-9562103.271484375,-4168691.1582946777,-4866562.366485596,-4453441.143035889,-1678985.1188659668,-1484032.6309204102,1305661.7975234985,2405368.0896759033,1537401.1993408203,-14784577.369689941,822941.00522995,-3582939.863204956,-3349049.5681762695,1693163.3949279785,1928956.5086364746,3569425.344467163,-3891871.690750122,-827299.952507019,9223440.170288086,2960249.423980713,12852119.445800781,4553570.27053833,-313984.57288742065,635087.8477096558,8517878.532409668,7651648.998260498,-1017859.8165512085,37800136.56616211,9897606.84967041,15984824.180603027,3889342.3080444336,-204764.2469406128,1577635.645866394,1304059.386253357,961814.9399757385,-586249.8879432678,2196549.415588379,-45709.98623967171,6269719.60067749,10692895.889282227,-385098.75535964966,2082651.8535614014,-608794.629573822,-125987.36584186554,-1004010.796546936,2155621.05178833,1373879.9095153809,18968582.153320312,191941.2612915039,1158784.7471237183,64577.10266113281,773266.613483429,5742091.178894043,-641591.4297103882,6115068.435668945,1227461.338043213,1461916.5658950806
0.335,-10417943.954467773,610408.365726471,3743623.2566833496,4045184.1354370117,-5223531.723022461,-16283523.559570312,-6443528.652191162,-7665821.552276611,-6419605.731964111,-3903882.2650909424,-3913919.9256896973,-598282.7544212341,384305.26852607727,-1515142.321586609,-22214187.622070312,-1098940.6108856201,-4654719.352722168,-3737823.486328125,986227.7507781982,1305028.0809402466,2316743.3738708496,-5997677.803039551,-2019224.1668701172,7326751.708984375,1972601.294517517,12161602.973937988,4322772.026062012,-400418.1921482086,3634.456545114517,6820078.372955322,6035357.475280762,-2113618.6122894287,34939884.185791016,9515802.383422852,16529933.92944336,3807285.3088378906,-192145.28799057007,786991.9538497925,104499.4443655014,-298613.3098602295,-1614473.819732666,793390.2740478516,-127477.09453105927,6420984.268188477,11868734.359741211,-262834.01250839233,1242694.37789917,-1568299.5319366455,-1004465.3415679932,-1931840.181350708,2137512.445449829,1468785.4051589966,20513486.862182617,296914.9649143219,330918.49088668823,-910723.2689857483,-386116.3556575775,4293954.849243164,-963195.0259208679,5810756.206512451,369831.8600654602,620341.0029411316
0.34,-12773272.514343262,-2300130.3672790527,625519.3948745728,4343858.71887207,-5457330.703735352,-18046413.42163086,-6185743.808746338,-7816953.182220459,-6153584.4802856445,-3220342.8745269775,-3387312.173843384,-893747.6277351379,167031.37755393982,-3135287.046432495,-27742835.998535156,-1621781.7068099976,-4849599.838256836,-3477558.6128234863,2273794.651031494,2324300.527572632,2787388.324737549,-6474441.051483154,-2944097.7573394775,7155995.845794678,1904932.6181411743,11757494.926452637,4116386.890411377,-444224.2383956909,67499.27997589111,6774203.300476074,5957670.211791992,-2916121.9596862793,35646953.58276367,9850573.539733887,15596901.893615723,3613609.3139648438,-145908.22160243988,37912.63699531555,62021.95957303047,-267302.39391326904,-2497918.8442230225,-538647.711277008,-1255515.0985717773,6705000.877380371,12424782.752990723,-448185.62269210815,389391.0348415375,-2414507.6274871826,-1720199.9425888062,-2888679.7428131104,1151107.907295227,726707.4584960938,21206861.49597168,302159.8756313324,-537728.0116081238,-1771794.6767807007,-1417707.085609436,2881737.232208252,-1982797.8610992432,4554687.023162842,-460566.55049324036,-232262.08984851837
0.345,-11885319.709777832,-1734471.082687378,633204.8773765564,4493169.30770874,-3888830.4233551025,-15478967.666625977,-4030996.799468994,-5443122.386932373,-4353305.339813232,-616014.7786140442,-729218.1849479675,237831.04121685028,1536921.1435317993,-1985565.3047561646,-28886447.90649414,-403614.96806144714,-4259412.2886657715,-3029172.18208313,4385663.032531738,4185062.4084472656,4380426.406860352,-4825145.244598389,-3034957.4089050293,9091782.569885254,3145896.9116210938,12179543.495178223,4738474.369049072,-421277.6720523834,335896.5814113617,8266063.690185547,7399092.674255371,-3025233.9839935303,40287330.627441406,11082409.858703613,15788405.418395996,3613756.6566467285,-93204.27477359772,-339855.04508018494,852674.126625061,706292.8080558777,-2753764.3909454346,-363854.3486595154,-2594499.111175537,6604160.785675049,11726598.739624023,-811890.5425071716,80.0546258687973,-2659096.7178344727,-1993551.3734817505,-3298775.9113311768,62315.40068984032,-118342.7944779396,20859523.77319336,181036.01038455963,-999337.8520011902,-2143471.7178344727,-1747949.719429016,2568080.425262451,-3549114.942550659,3637708.6639404297,-946992.8741455078,-650676.2504577637
0.35,-8653018.951416016,1530861.735343933,3507800.340652466,4396903.991699219,-1354054.4509887695,-12475610.733032227,-1480850.100517273,-2228955.5072784424,-2037378.0727386475,2439260.959625244,2623540.6398773193,2314531.5647125244,3811446.9051361084,1423899.0545272827,-26452201.84326172,1470677.8526306152,-3042035.5796813965,-2029047.4891662598,6193523.406982422,5836065.769195557,6179860.591888428,-1895475.3875732422,-1537116.8851852417,11341475.486755371,5238903.045654297,13317810.05859375,6105552.673339844,-357270.210981369,544034.3022346497,10124663.352966309,9310950.27923584,-1606932.520866394,44684291.83959961,12522537.231445312,18393117.904663086,3552393.1980133057,-95775.02310276031,385052.50215530396,1997276.4253616333,1929008.3646774292,-1461782.0978164673,1800613.7609481812,-2743629.6939849854,6006944.179534912,10162430.763244629,-1034002.9001235962,917140.543460846,-1390194.296836853,-892030.7159423828,-2045757.77053833,252263.81421089172,178450.8377313614,20178844.451904297,-14892.958104610443,-12121.421284973621,-1089580.6550979614,-487033.03933143616,3735999.822616577,-4501995.56350708,4214152.812957764,-82728.46788167953,377295.73249816895
0.355,-6277889.251708984,3908322.334289551,5754493.236541748,4244186.878204346,280472.2189903259,-12225832.93914795,-246581.42030239105,-532532.5727462769,-598987.4005317688,4121104.7172546387,4576393.127441406,3594653.367996216,5049054.145812988,4183163.642883301,-23727096.557617188,2294018.7454223633,-1978881.3591003418,-687260.9257698059,6879506.587982178,6310759.544372559,6963394.641876221,385147.6013660431,1232638.2398605347,11659384.727478027,6829147.815704346,14135171.890258789,6891998.767852783,-239834.9791765213,508238.5540008545,11130624.771118164,10489235.877990723,1199338.674545288,45130756.37817383,12893670.082092285,20547800.064086914,3043868.7801361084,-68002.01535224915,2370954.990386963,3293416.738510132,3106925.7259368896,1312810.778617859,4336659.908294678,-1948922.6341247559,5281919.002532959,8562056.541442871,-943510.0555419922,3159181.1180114746,1294316.7686462402,1734763.8607025146,842693.8652992249,1722855.2103042603,1524719.8343276978,19531549.45373535,-146896.98815345764,2478784.5611572266,1465854.0487289429,2213432.0735931396,5466440.677642822,-4125232.696533203,5963936.328887939,2357449.531555176,2930265.426635742
0.36,-7997650.623321533,1822832.8227996826,3654092.55027771,4294442.176818848,-806799.4117736816,-15028155.326843262,-1393094.3012237549,-1722232.3417663574,-1399665.8325195312,3178797.2450256348,3577751.398086548,2536422.9679107666,3711790.084838867,3742164.6118164062,-23693836.212158203,1263689.637184143,-2298827.4097442627,-378436.4461898804,6187576.770782471,5399875.164031982,6263921.737670898,929916.8586730957,3532084.2266082764,9862886.428833008,6858589.172363281,13710361.48071289,5951729.297637939,-130928.94852161407,63890.546560287476,11165075.302124023,10697476.387023926,3590435.50491333,42958919.525146484,11840973.854064941,19076095.581054688,2237227.9167175293,51565.28204679489,4410762.310028076,4467621.326446533,4161267.2805786133,3815590.1432037354,5001254.558563232,-1777154.2072296143,4830366.611480713,7441766.738891602,-718517.3034667969,5268463.134765625,3660085.439682007,4243190.288543701,3429850.8167266846,2755963.3255004883,2264634.370803833,18715757.369995117,-153848.5437631607,4746767.044067383,3877616.4054870605,4596217.632293701,5969885.349273682,-3684962.511062622,7243903.636932373,4755621.910095215,5275713.4437561035
0.365,-13392145.156860352,-4287840.843200684,-2158354.2823791504,4500276.0887146,-4312570.571899414,-19020353.317260742,-4381096.839904785,-4944401.264190674,-4371652.603149414,231316.61117076874,301326.6921043396,-289202.89874076843,598350.6441116333,477185.6367588043,-26663919.44885254,-804825.9019851685,-4252453.327178955,-1906888.0081176758,4640363.2164001465,3827219.4862365723,4878239.154815674,210375.41329860687,3561629.7721862793,7952987.6708984375,5744607.448577881,12393284.797668457,3941668.5104370117,-190113.0974292755,-799545.7649230957,10750090.599060059,10328848.838806152,3551707.983016968,42253501.892089844,10558772.087097168,15428195.95336914,1746298.3131408691,101939.14920091629,4754051.685333252,4670656.681060791,4448059.08203125,4000984.1918945312,3550362.5869750977,-2650745.391845703,4845102.310180664,6984590.530395508,-648776.8888473511,5449555.397033691,3746845.7221984863,4469364.166259766,3507256.269454956,2228422.6417541504,1546625.4949569702,17970035.552978516,-135288.65575790405,4786527.633666992,4089517.116546631,4702976.703643799,4452708.721160889,-4773394.584655762,6895690.441131592,4959760.665893555,5300848.007202148
0.37,-18253763.19885254,-10235027.313232422,-7299984.455108643,4482420.444488525,-7900355.339050293,-21979221.34399414,-7295686.721801758,-7881682.872772217,-7615758.419036865,-2678815.6032562256,-2856283.187866211,-2895814.895629883,-2067268.6100006104,-3225021.8391418457,-30445495.60546875,-2437319.9939727783,-6457100.868225098,-4088860.9886169434,3127911.329269409,2444841.8617248535,3764024.9729156494,-1001489.7584915161,1333285.4509353638,7458697.79586792,4797078.609466553,11339248.657226562,2751660.108566284,-434986.1741065979,-1839102.029800415,9964395.523071289,9465629.577636719,1120126.2474060059,44051639.556884766,10267263.412475586,13882718.086242676,1936633.3484649658,-66516.6974067688,3053158.99848938,3238850.8319854736,3187713.623046875,1788463.5925292969,2109498.5008239746,-3124300.718307495,5400763.988494873,7224622.2496032715,-762910.1872444153,3565933.2275390625,1511201.6201019287,2203487.3962402344,1055995.4643249512,1372868.537902832,826754.8084259033,18205009.46044922,-189270.2430486679,2603721.857070923,1943544.9838638306,2496290.683746338,2277575.969696045,-6548289.2990112305,5548563.480377197,2784644.603729248,2933444.4999694824
0.375,-19366085.052490234,-12869143.48602295,-8975925.44555664,4009118.5569763184,-9563669.204711914,-23023656.845092773,-8684263.229370117,-9087807.655334473,-9280353.546142578,-4052075.8628845215,-4169846.0578918457,-3881386.9953155518,-2871423.2444763184,-5338287.830352783,-33054664.611816406,-3138070.3449249268,-7529382.228851318,-5179134.845733643,2280498.98147583,1618856.7876815796,3275553.4648895264,-2119762.420654297,-808035.0160598755,7484781.265258789,4489568.23348999,10921010.01739502,3115029.811859131,-621778.0113220215,-2478929.5196533203,9097801.208496094,8516837.120056152,-1063466.6681289673,45589447.021484375,10600431.442260742,15426320.07598877,2436789.7510528564,-269796.6396808624,1266382.5750350952,1431136.2504959106,1347380.1612854004,-318555.623292923,2767893.5527801514,-2140456.9149017334,6353256.2255859375,7781956.195831299,-827776.6704559326,1770029.902458191,-597394.4067955017,8636.12350076437,-1212050.9147644043,2070640.3255462646,1831666.4695739746,19717267.990112305,-239720.3892469406,667605.3404808044,-121071.01082801819,413540.89975357056,1496942.5201416016,-6740552.90222168,4740971.088409424,724998.7721443176,740244.6269989014
0.38,-18445344.924926758,-13337404.251098633,-8707905.769348145,3431116.5809631348,-9302390.098571777,-23461574.55444336,-9111454.010009766,-9387669.563293457,-9651785.850524902,-4106205.463409424,-3985774.517059326,-3180965.9004211426,-1952414.631843567,-5082692.623138428,-35033054.35180664,-3850803.1368255615,-8035403.251647949,-5285860.538482666,2177077.531814575,1365317.940711975,3620141.02935791,-2070755.0048828125,-17514.489591121674,6101812.839508057,3942975.2826690674,10275334.358215332,3588037.4908447266,-543104.5889854431,-2130752.3250579834,9662955.284118652,9063662.5289917,-30399.134382605553,45230182.64770508,10331520.080566406,16470058.44116211,2452894.687652588,-185478.67238521576,1971399.9032974243,2126713.752746582,1784592.2708511353,586879.551410675,5397552.013397217,-752490.222454071,7160968.30368042,7794025.897979736,-688944.3397521973,2612057.2090148926,306030.9886932373,929973.1850624084,-251726.77636146545,4103936.195373535,3954365.7302856445,21478794.09790039,-121104.4043302536,1682626.1281967163,802303.1949996948,1290199.0413665771,2616659.40284729,-5333889.007568359,5182187.080383301,1636398.196220398,1607716.2027359009
0.385,-19672414.779663086,-14862097.74017334,-9506987.571716309,3420772.5524902344,-8869701.385498047,-25131635.665893555,-10331250.190734863,-10636093.139648438,-10609508.514404297,-4426996.70791626,-4155905.7235717773,-2198088.6459350586,-893517.4942016602,-3384696.7220306396,-37915885.92529297,-5422501.087188721,-9610993.385314941,-6193999.290466309,2068099.7371673584,1184327.1255493164,4474967.956542969,-469688.74335289,3880199.193954468,3490473.747253418,2580346.8227386475,8821204.18548584,2535554.4090270996,-321305.9604167938,-1210170.1498031616,12398899.07836914,11792862.892150879,4125843.5249328613,45353866.57714844,9510553.359985352,14387570.38116455,1729107.7375411987,177004.1137933731,5352313.041687012,6191981.315612793,5662634.372711182,4527701.377868652,8341905.59387207,-413566.4105415344,7397454.738616943,6814222.33581543,-445474.14779663086,6142961.9789123535,4309825.420379639,4990966.320037842,3909251.928329468,5762645.244598389,5371228.218078613,22496915.817260742,195076.28679275513,5592896.461486816,4823239.326477051,5187887.191772461,4898190.021514893,-4639136.791229248,6598526.477813721,5517700.672149658,5551723.957061768
0.39,-23414957.04650879,-18206699.37133789,-12199527.740478516,4148769.8554992676,-10365538.597106934,-26643508.911132812,-12623917.579650879,-12993917.465209961,-12748024.940490723,-6701114.654541016,-6469947.814941406,-3712284.0881347656,-2465854.4063568115,-3500591.75491333,-40018730.16357422,-6649159.908294678,-11987010.955810547,-8636122.703552246,500877.38037109375,-202248.91602993011,3875350.7137298584,168400.1088142395,7329276.084899902,2764250.2784729004,1780295.729637146,7626708.507537842,527328.3123970032,-222446.88868522644,-1497166.5143966675,14410532.95135498,13753417.015075684,7564615.726470947,48884571.07543945,9840434.074401855,11686394.691467285,1162504.79221344,465557.9626560211,8395777.702331543,9948151.588439941,9469233.512878418,7951009.750366211,10857771.873474121,-359514.65368270874,7591344.356536865,5617016.315460205,-264096.7071056366,9311613.082885742,7886004.447937012,8520860.67199707,7539390.087127686,6797503.471374512,6149642.467498779,23161945.343017578,535186.2907409668,9101169.58618164,8495921.13494873,8662609.100341797,8281518.936157227,-5080424.785614014,8838204.383850098,9060007.095336914,9221697.807312012
0.395,-24418046.951293945,-20451675.415039062,-15158188.819885254,4882768.154144287,-14212274.551391602,-22548213.958740234,-13537837.028503418,-13922662.734985352,-13774509.42993164,-10927016.258239746,-10831767.082214355,-9479992.866516113,-8333733.558654785,-8748837.4710083,-35702087.40234375,-4695394.039154053,-12302449.226379395,-10759622.573852539,-3132694.2443847656,-3542117.8340911865,-228354.87127304077,-3638393.6405181885,6403195.381164551,7012681.96105957,3881136.655807495,8383194.923400879,-243181.58626556396,-286975.83079338074,-4266427.040100098,11348390.579223633,10649438.858032227,6460991.382598877,54629962.92114258,12451047.897338867,12732092.85736084,2014246.940612793,453086.61460876465,7899890.899658203,8532150.268554688,8156531.33392334,7222893.238067627,13816466.331481934,1636357.5458526611,8792101.860046387,5325851.4404296875,-176089.5848274231,8936684.608459473,7310555.458068848,7841459.274291992,6875591.278076172,8612243.65234375,8004179.000854492,24063558.57849121,676478.385925293,8819709.777832031,8140512.466430664,8118622.779846191,13022587.776184082,-3852446.7945098877,11816627.502441406,8936515.808105469,9176659.58404541
0.4,-17536565.78063965,-18138235.092163086,-16116033.554077148,4688367.84362793,-17687681.198120117,-8806619.644165039,-10097871.780395508,-10494558.334350586,-10606451.988220215,-14313064.575195312,-14316862.106323242,-16655630.111694336,-15653757.095336914,-17540321.350097656,-21167852.4017334,1887250.6618499756,-8290837.287902832,-9963009.83428955,-6868558.883666992,-7078570.365905762,-6223035.81237793,-10789992.332458496,1409942.9845809937,15645998.001098633,9353156.089782715,11242786.407470703,1321376.6813278198,-354850.5902290344,-7958765.506744385,3554305.7918548584,2904169.5594787598,1420550.82321167,58048709.869384766,16047056.198120117,17900861.740112305,4269896.984100342,271928.0421733856,4065291.8815612793,1962817.0728683472,1557286.262512207,2715207.099914551,17731607.43713379,5904498.57711792,10899962.425231934,5709855.079650879,-146380.12647628784,5139604.568481445,2894869.804382324,3403695.1065063477,2344941.6160583496,11217349.0524292,10871085.166931152,24075227.737426758,521768.9871788025,4870429.515838623,3878968.2388305664,3833079.0996551514,17384218.215942383,535380.0654411316,14293480.87310791,5299410.820007324,5497273.4451293945
0.405,-4534221.649169922,-11156610.488891602,-13771967.887878418,3549809.694290161,-16777030.944824219,10633265.495300293,-2563213.586807251,-2997153.7590026855,-3277398.8246917725,-13290054.321289062,-13302182.1975708,-19065179.8248291,-18312513.35144043,-22933803.55834961,-842979.8483848572,10763368.606567383,-1366712.4509811401,-5926289.5584106445,-7502657.890319824,-7613379.47845459,-9038836.479187012,-14958209.037780762,-3189024.9252319336,24164970.39794922,15576226.234436035,14544718.742370605,4100941.1811828613,-366505.32484054565,-9163317.680358887,-2852382.8983306885,-3371578.6933898926,-3057317.4953460693,55948596.9543457,18004398.345947266,23293441.772460938,6279713.6306762695,147836.90869808197,185123.83103370667,-4364248.275756836,-4801198.0056762695,-1601307.988166809,20956928.253173828,9872248.649597168,12198127.746582031,5251429.557800293,-202090.2782678604,1099729.8955917358,-1316217.303276062,-774814.6057128906,-1906067.2521591187,12276087.760925293,12134649.276733398,21355607.986450195,159970.62623500824,664197.1468925476,-523689.6276473999,-366908.460855484,18325153.350830078,5015109.539031982,14357732.772827148,1370845.1986312866,1487690.806388855
0.41,6465378.284454346,-3384396.79145813,-8960069.65637207,2445618.3910369873,-10866298.67553711,25181947.708129883,4658945.560455322,4241815.567016602,3933685.302734375,-7753155.708312988,-7724097.728729248,-14162450.790405273,-13704263.687133789,-20001176.834106445,14428545.951843262,17089166.64123535,4442810.05859375,-1232710.599899292,-4517114.639282227,-4543547.1534729,-5940477.37121582,-11799108.505249023,-3886288.88130188,27712699.89013672,18809501.64794922,16570453.643798828,6357036.113739014,-380897.55177497864,-6518153.190612793,-2939293.384552002,-3308874.8455047607,-3688582.420349121,48765037.536621094,16953365.325927734,25596158.981323242,6449448.108673096,128100.24619102478,-1126521.5873718262,-5934278.964996338,-6205051.422119141,-2660495.7580566406,20879705.42907715,10974239.349365234,11178980.827331543,3175540.4472351074,-348329.3354511261,-484183.8777065277,-2196243.7629699707,-1719524.86038208,-2738173.9616394043,10294771.194458008,10194011.688232422,16301580.429077148,-178065.89603424072,-876500.66614151,-1889732.7184677124,-1478148.341178894,15622010.231018066,5826845.169067383,12001000.40435791,-187026.69441699982,-50235.04048585892
0.415,8855050.086975098,686031.5203666687,-4610400.676727295,2166763.3056640625,-4316852.569580078,27212362.28942871,6860036.373138428,6575242.042541504,6270947.9331970215,-1969249.0100860596,-1942124.0091323853,-6620207.3097229,-6326334.9533081055,-12048348.426818848,17108264.923095703,17523710.250854492,6354277.610778809,1178474.7838974,-1205562.2339248657,-1186254.0245056152,-186299.1899251938,-4479727.268218994,-1650961.5182876587,24853937.14904785,17234159.469604492,16688718.795776367,7396153.450012207,-349076.3306617737,-2365064.859390259,1297579.050064087,1072290.6589508057,-1527203.2022476196,38818096.16088867,13650325.775146484,24944677.352905273,4945479.393005371,135647.0137834549,-259719.99764442444,-3733747.0054626465,-3756520.7481384277,-1094676.13697052,16855369.567871094,9386536.598205566,8286133.766174316,543045.0439453125,-461588.71054649353,263400.8526802063,-497930.97376823425,-198595.92616558075,-934055.507183075,6885682.582855225,6763880.252838135,11709177.017211914,-268107.17582702637,85817.50839948654,-552565.9322738647,-82836.37464046478,12959347.72491455,3818352.460861206,9897926.330566406,490753.6208629608,745143.2347297668
0.42,4031402.587890625,207995.4892396927,-3178294.4202423096,2424127.3403167725,-1571872.4727630615,19486049.65209961,3960412.5022888184,3827469.3489074707,3535389.6617889404,246558.09998512268,188674.9267578125,-2594522.714614868,-2269434.4520568848,-6444187.641143799,10137482.643127441,13068512.916564941,4933375.358581543,885116.9347763062,-592823.6246109009,-612632.9302787781,3146863.6989593506,574236.0353469849,363122.49302864075,18363698.959350586,12186714.172363281,14951548.57635498,7374941.349029541,-159130.17094135284,238609.4480752945,4361442.565917969,4263843.059539795,447167.66476631165,28663270.950317383,9742980.95703125,23037879.943847656,3279158.115386963,112161.70340776443,918974.757194519,-1573160.5291366577,-1538656.3539505005,694902.8968811035,11193007.469177246,7104416.847229004,5215749.263763428,-1219814.3005371094,-429523.3488082886,1570952.5346755981,1206195.4736709595,1367048.978805542,892825.5438804626,4362752.437591553,4252840.042114258,9362374.305725098,-89926.27263069153,1580145.3590393066,1182288.2890701294,1508678.7939071655,13040604.591369629,2769678.831100464,10223693.84765625,1750527.5011062622,2060925.4837036133
0.425,-762414.6342277527,-1420797.7056503296,-3756611.8240356445,2447918.8919067383,-1838298.0823516846,11810694.694519043,788081.169128418,659821.629524231,492191.0762786865,69347.8137254715,-60616.93653464317,-2434498.5485076904,-2018090.4865264893,-5659416.198730469,3342261.31439209,8083456.993103027,2900786.6382598877,163793.11680793762,-1533166.0509109497,-1589694.9768066406,3249776.1249542236,1401786.9234085083,743259.4299316406,12824524.879455566,7015419.006347656,12002017.974853516,6649237.155914307,88208.19854736328,895979.2256355286,4257805.347442627,4209698.20022583,936657.8459739685,21216873.168945312,6599599.838256836,20838527.67944336,2635621.5476989746,21720.2790081501,1326043.725013733,-1142752.0513534546,-1242192.7452087402,1427691.3404464722,6940311.908721924,5404215.8126831055,3081658.8401794434,-2068831.9206237793,-357892.9305076599,2088694.8108673096,1657655.0006866455,1818132.1620941162,1435258.150100708,2592733.383178711,2514243.8411712646,7980250.358581543,113027.30441093445,2193843.126296997,1847929.9545288086,2060862.3027801514,13437458.038330078,3422967.1955108643,11438055.038452148,2366478.443145752,2578332.1857452393
0.43,-700486.6600036621,-938936.1143112183,-3580949.544906616,2152296.543121338,-1269002.079963684,10877864.837646484,1746485.8293533325,1467598.557472229,1525863.0514144897,1173998.475074768,1128416.2998199463,-2407500.982284546,-1970478.892326355,-6392315.864562988,3228207.588195801,6460181.713104248,2694199.800491333,1326455.3546905518,-815400.3024101257,-792390.2273178101,2843593.5974121094,663031.3992500305,-133927.76250839233,11290000.915527344,4826111.316680908,9698497.772216797,6013345.241546631,131575.86753368378,1070210.9336853027,3048889.398574829,2939045.4292297363,176422.80459403992,19086532.592773438,5288686.275482178,19084037.78076172,3225840.3301239014,-140388.51857185364,610555.9468269348,-1777415.6332015991,-1968514.5616531372,830383.0623626709,5365821.838378906,4411805.629730225,2128622.7703094482,-2750470.6382751465,-463547.37877845764,1165983.79611969,784531.8913459778,1035714.0302658081,593183.7558746338,207801.2228012085,118300.49753189087,5716655.731201172,56085.556745529175,1346817.6126480103,1058899.998664856,1300242.1855926514,10110190.391540527,2766186.237335205,10057656.288146973,1592647.671699524,1666615.0093078613
0.435,1797291.63646698,347551.8524646759,-2794741.39213562,2118367.910385132,433655.44080734253,14713656.425476074,5800399.7802734375,5428908.348083496,5572608.470916748,3689060.926437378,3878827.8102874756,-1867455.9593200684,-1428717.9708480835,-6708215.236663818,7585702.896118164,8337397.575378418,4733272.552490234,4070538.5208129883,1791268.7063217163,1950085.2823257446,2918321.371078491,-199545.68147659302,-2264470.5772399902,13431324.005126953,6381381.034851074,10103172.302246094,6551451.683044434,-68257.23499059677,1197998.1660842896,2114239.6926879883,1918917.0598983765,-1989183.1874847412,22311126.708984375,6398653.030395508,18943000.79345703,4730314.254760742,-286126.88183784485,-1596158.0276489258,-3172785.0437164307,-3364825.2487182617,-1558741.4503097534,5904571.533203125,4291865.825653076,2541338.2053375244,-3157852.8881073,-754933.9532852173,-1458127.0217895508,-1717468.26171875,-1368119.5974349976,-1922510.266304016,-2277900.457382202,-2467204.3323516846,3383376.5983581543,-287439.7933483124,-1293567.0614242554,-1471365.0941848755,-1214599.2517471313,3776443.4814453125,-745369.8515892029,5411483.287811279,-1115388.5126113892,-1046634.316444397
0.44,1056546.5688705444,-1840807.0802688599,-5165488.243103027,2522003.173828125,-745790.4815673828,17221717.834472656,7934043.407440186,7708505.630493164,7616758.346557617,3748116.4932250977,4147577.2857666016,-4086849.2126464844,-3569128.5133361816,-9052736.282348633,10138413.429260254,10495033.264160156,7075591.564178467,5717169.284820557,3126332.2830200195,3311624.050140381,1741399.884223938,-2689471.72164917,-5714880.94329834,16637409.210205078,9607320.785522461,12829293.251037598,8177903.175354004,-251073.39024543762,443832.51667022705,751991.9276237488,544939.935207367,-5558449.268341064,28239061.35559082,9337684.631347656,20475555.419921875,6400141.716003418,-292968.4519767761,-4795775.890350342,-5343008.518218994,-5643680.572509766,-5442873.001098633,7868187.427520752,5275841.236114502,4308647.632598877,-2451187.8490448,-968209.0282440186,-4859604.358673096,-5536303.0433654785,-5130567.0738220215,-5778531.551361084,-2905333.0421447754,-3261023.759841919,3594415.9030914307,-648627.1619796753,-5024612.903594971,-5256392.002105713,-5115658.760070801,-413542.9561138153,-4667268.2762146,821605.7419776917,-4964433.193206787,-4775875.568389893
0.445,-4429055.690765381,-8703387.260437012,-12580097.198486328,2797394.5140838623,-6702509.40322876,16335721.969604492,5351624.011993408,5373962.879180908,4926851.749420166,-682428.4195899963,-242455.42287826538,-10040293.69354248,-9436106.68182373,-14994415.283203125,8688504.219055176,10280547.142028809,7048220.157623291,4115795.135498047,1239298.8204956055,1299174.5471954346,-1181149.3635177612,-7218471.050262451,-8806821.823120117,19248962.40234375,11740017.890930176,14891449.928283691,9005743.980407715,-243191.80846214294,-1221374.51171875,-781404.6740531921,-987379.252910614,-8695803.64227295,34975055.69458008,12697608.947753906,21744129.180908203,7066035.747528076,-163593.590259552,-6860319.6144104,-6642607.21206665,-7204524.517059326,-8528062.82043457,11356967.92602539,6811031.341552734,6650651.454925537,-596073.2698440552,-879191.1602020264,-6701795.1011657715,-8433141.708374023,-8032770.156860352,-8742176.055908203,-1234324.6936798096,-1703997.3735809326,7366792.20199585,-719959.2590332031,-7499199.390411377,-8104450.225830078,-8045656.204223633,714630.1865577698,-6200031.757354736,-325994.5213794708,-7364806.175231934,-7093168.73550415
0.45,-10477210.998535156,-16074420.928955078,-21194238.662719727,2574550.3902435303,-13608540.534973145,15716498.374938965,621538.8178825378,672324.8958587646,127703.86040210724,-6581191.539764404,-6231299.877166748,-15971831.321716309,-15408324.241638184,-21383653.64074707,6905767.440795898,8807681.0836792,4192055.2253723145,44373.15836548805,-2089267.2538757324,-2188183.307647705,-3720155.954360962,-11402829.17022705,-9287313.461303711,22371198.654174805,12364871.02508545,14559610.366821289,7413418.769836426,-177430.85324764252,-2686180.1147460938,-672788.2027626038,-1007154.9415588379,-9143950.462341309,43502433.77685547,15896242.141723633,21276708.602905273,6221544.7425842285,-19169.768318533897,-6017435.073852539,-4969509.124755859,-5684453.010559082,-8538067.817687988,16599510.192871094,8154007.911682129,8809097.290039062,1409477.4723052979,-569378.3760070801,-5480434.417724609,-8213376.045227051,-7825818.5386657715,-8618282.318115234,1449393.391609192,1027842.64087677,13072080.612182617,-416884.2136859894,-6824892.044067383,-7969365.59677124,-7761501.789093018,5275568.48526001,-5519445.419311523,1865996.8376159668,-6408974.170684814,-6175898.551940918
0.455,-12940366.744995117,-19403861.99951172,-25621961.59362793,2295896.291732788,-16782667.16003418,18623273.849487305,-1937373.7573623657,-2129071.9509124756,-2470088.7203216553,-9841217.041015625,-9597949.981689453,-18622211.456298828,-18173147.201538086,-24339937.210083008,8445404.052734375,9263256.072998047,1267869.472503662,-3539975.40473938,-4217134.952545166,-4401498.794555664,-4548548.698425293,-13530759.811401367,-7526146.88873291,27574525.833129883,13505931.854248047,13920624.732971191,4385337.352752686,-213647.7530002594,-3537914.514541626,1116694.5695877075,536043.3459281921,-7364205.837249756,54513004.302978516,19555145.263671875,20492765.426635742,5062571.5255737305,78455.34384250641,-3385634.660720825,-1238798.8567352295,-1809558.8684082031,-6338365.077972412,22799463.272094727,9714296.340942383,11124134.063720703,2865550.994873047,-311710.1192474365,-2710608.48236084,-5838784.694671631,-5349568.843841553,-6326573.848724365,4612803.936004639,4345335.960388184,18435035.705566406,78361.04184389114,-4163406.8489074707,-5703513.145446777,-5261210.918426514,10004636.764526367,-4112173.557281494,4954841.613769531,-3483610.8684539795,-3323580.265045166
0.46,-12629579.544067383,-19243244.171142578,-25631530.76171875,2476073.741912842,-16576539.993286133,22820831.298828125,-1422621.9654083252,-1783068.7761306763,-1968980.9083938599,-10154363.632202148,-10009464.263916016,-19260726.928710938,-18810359.954833984,-24268011.09313965,11795231.819152832,12189028.7399292,1187958.1212997437,-4503358.840942383,-4913793.087005615,-5109585.285186768,-5047020.91217041,-14704123.497009277,-6343686.580657959,33275405.883789062,16209398.26965332,15636034.965515137,2478137.493133545,-267746.1504936218,-4550945.281982422,2027135.6105804443,1261011.242866516,-6161957.263946533,64582031.25,23550317.764282227,21604463.577270508,5252784.729003906,173355.72838783264,-1882457.8523635864,991378.0689239502,678746.0446357727,-5057415.48538208,27755945.205688477,12256837.844848633,13971839.904785156,3806507.8258514404,-265937.80517578125,-1371080.994606018,-4469898.223876953,-3760217.1897888184,-4990891.456604004,8590199.47052002,8409647.941589355,22149072.647094727,465474.2479324341,-2601925.1346588135,-4222456.455230713,-3810391.1876678467,13842714.309692383,-2376146.3165283203,7329797.267913818,-1808658.480644226,-1649630.4273605347
0.465,-13259826.66015625,-19800065.994262695,-25849662.78076172,2878201.961517334,-16828248.977661133,23686128.616333008,-427768.5284614563,-632443.7856674194,-939884.0069770813,-10088657.37915039,-10068063.735961914,-20534233.09326172,-19938436.50817871,-24296110.153198242,12588735.580444336,14240473.747253418,3217828.5121917725,-3454721.689224243,-5397312.164306641,-5577604.293823242,-6434710.502624512,-16217975.616455078,-7218633.651733398,35467666.62597656,18354999.542236328,18399505.615234375,2495387.315750122,-199528.57494354248,-5957648.277282715,774839.1628265381,-19818.861037492752,-6921500.682830811,68696800.2319336,25817583.084106445,23682849.884033203,6556438.446044922,275376.43909454346,-2606309.8907470703,146128.7885904312,-94524.16747808456,-6024580.478668213,28932279.586791992,14671719.551086426,15962619.78149414,3971609.115600586,-362922.2810268402,-2298602.342605591,-5370948.791503906,-4524166.107177734,-5891305.446624756,11997414.588928223,11781039.237976074,23659233.09326172,537660.6583595276,-3376808.6433410645,-4843213.081359863,-4774778.842926025,16579936.981201172,-809504.1513442993,8785703.659057617,-2552513.837814331,-2323258.638381958
0.47,-16036302.56652832,-22987098.693847656,-29038686.752319336,2986652.8511047363,-19016223.907470703,20869916.915893555,-869348.406791687,-873352.7660369873,-1358811.9745254517,-10891105.651855469,-10982749.938964844,-22160242.080688477,-21455369.94934082,-25536275.86364746,9743614.196777344,12621237.754821777,3950567.9607391357,-2545009.3746185303,-5713115.215301514,-5896716.594696045,-7382312.774658203,-17276596.069335938,-8691157.341003418,32735744.47631836,17329055.786132812,18503465.65246582,2700155.735015869,-84676.27316713333,-6731135.845184326,-539436.8171691895,-1300055.6230545044,-8205534.934997559,66418014.52636719,24543622.970581055,23398574.829101562,7068466.1865234375,310166.6569709778,-3934750.556945801,-1430624.7234344482,-1815780.6396484375,-7541005.611419678,25646186.82861328,14459359.169006348,15064255.714416504,2642993.688583374,-449844.5987701416,-3662074.8043060303,-6830877.304077148,-6071303.367614746,-7332110.88180542,11884516.716003418,11616213.79852295,22883237.838745117,329213.29140663147,-4843131.542205811,-6163592.338562012,-6381321.907043457,16864702.224731445,-1344542.5033569336,8963158.60748291,-4042989.730834961,-3712301.9695281982
0.475,-18402463.912963867,-26207267.76123047,-32387718.200683594,2880563.735961914,-20718833.923339844,18662107.467651367,-1757837.2955322266,-1963412.0464324951,-2362177.1335601807,-11348216.05682373,-11440576.553344727,-22146562.576293945,-21463085.174560547,-26287540.435791016,6781586.647033691,9110196.113586426,2258864.641189575,-2759701.2519836426,-4911955.833435059,-5168290.138244629,-6242715.358734131,-16788124.084472656,-9133143.424987793,28616460.8001709,13985814.094543457,15670867.919921875,1768117.1894073486,-104533.15824270248,-6254294.872283936,175096.0350036621,-578574.1209983826,-8534783.363342285,62476367.95043945,21062070.846557617,20082208.63342285,6160206.317901611,240706.75671100616,-4392958.641052246,-1264291.4056777954,-1801471.7102050781,-7962828.159332275,20494241.71447754,11273671.15020752,11819061.279296875,149037.1972322464,-474609.70282554626,-4037493.2289123535,-7347259.998321533,-6736035.8238220215,-7789059.162139893,7725371.837615967,7438874.244689941,20632181.16760254,65651.2975692749,-5399055.480957031,-6771703.720092773,-6902603.1494140625,13995387.077331543,-4869957.447052002,7232706.069946289,-4788051.605224609,-4334716.320037842
0.48,-17804542.541503906,-26138616.56188965,-31502548.217773438,2948114.8719787598,-19490547.18017578,19793691.635131836,-1241420.5074310303,-1941448.3308792114,-2052613.2583618164,-10191639.90020752,-10152533.531188965,-20358074.188232422,-19705503.463745117,-25038499.83215332,7012970.447540283,7908815.383911133,1236131.9065093994,-2966549.1580963135,-3124670.5055236816,-3535269.4988250732,-3950931.5490722656,-15473692.893981934,-9067748.069763184,27520503.997802734,12025116.920471191,14152964.59197998,999510.8246803284,-269427.3889064789,-5517128.944396973,1710593.2235717773,994121.5515136719,-8515408.515930176,60684413.90991211,19009281.158447266,17520242.69104004,5668407.440185547,128433.88319015503,-4613546.371459961,-278473.52623939514,-834403.2168388367,-7928912.162780762,17741540.908813477,8295235.633850098,9568059.921264648,-1589456.7966461182,-509210.7057571411,-4210127.830505371,-7634532.451629639,-7009301.662445068,-7998760.223388672,2994444.1318511963,2639529.7050476074,18397127.151489258,-66331.6398859024,-5595239.162445068,-7158514.022827148,-6968875.408172607,10135811.805725098,-8730409.622192383,4269781.589508057,-5326726.43661499,-4786633.014678955
0.485,-14725079.536437988,-22799541.473388672,-26326551.43737793,3022937.774658203,-15965290.069580078,22357408.52355957,852729.320526123,-17016.882076859474,-11192.561127245426,-7787620.067596436,-7593176.364898682,-18473278.045654297,-17769611.358642578,-22412544.25048828,9776754.379272461,10363828.659057617,3870845.317840576,-1796078.5627365112,-1724346.1608886719,-2280178.0700683594,-2735712.0513916016,-14646218.299865723,-9561245.918273926,29833477.020263672,13465817.45147705,16918230.056762695,2329329.9674987793,-429337.0842933655,-5756258.010864258,1793322.205543518,1206109.1661453247,-9146930.694580078,60579990.38696289,20470987.31994629,19170791.625976562,7161555.767059326,54965.369403362274,-5592176.914215088,-682141.7212486267,-1151887.8936767578,-8553189.277648926,19504411.697387695,8634650.230407715,10564724.922180176,-1134379.0292739868,-612335.0262641907,-5209935.665130615,-8579995.155334473,-7878338.813781738,-8960790.634155273,1094248.2948303223,606660.4256629944,17304546.356201172,-72666.14586114883,-6453755.3787231445,-8089742.660522461,-7719558.7158203125,8386256.217956543,-9427409.172058105,2193090.9156799316,-6406468.868255615,-5938957.691192627
0.49,-11616593.360900879,-19239496.2310791,-21638822.555541992,2654744.3866729736,-12873585.70098877,24165319.442749023,3289105.176925659,2836792.469024658,2594997.8828430176,-5465728.759765625,-5230798.721313477,-17626012.802124023,-16896986.00769043,-20677410.125732422,12575650.215148926,13981534.957885742,8488256.454467773,198212.31067180634,-1472795.2480316162,-2043186.902999878,-3031584.9781036377,-14530865.669250488,-10186368.942260742,33024017.333984375,16683200.83618164,21521104.81262207,5120166.301727295,-489880.2042007446,-6783678.5316467285,863005.6977272034,412607.1035861969,-9896908.7600708,61568687.438964844,24256084.442138672,23503538.131713867,9387804.985046387,75204.86414432526,-6655598.6404418945,-2056482.0766448975,-2409103.1551361084,-9345093.727111816,23949571.60949707,11560564.041137695,13421097.755432129,414693.7429904938,-709066.0929679871,-6287029.266357422,-9369431.495666504,-8793133.735656738,-9918194.770812988,1514138.6985778809,973153.0547142029,17768495.559692383,-42187.21017241478,-7401653.76663208,-8896762.84790039,-8599352.836608887,9356081.008911133,-7234277.725219727,2402550.220489502,-7236678.123474121,-7000300.407409668
0.495,-10097015.380859375,-18186422.34802246,-21834590.911865234,2177077.7702331543,-12265584.945678711,26749294.28100586,5170161.724090576,5215328.693389893,4556989.669799805,-4239752.292633057,-4128296.8521118164,-17897928.23791504,-17263517.379760742,-22063737.869262695,14903427.124023438,16411302.56652832,10793039.321899414,1152178.168296814,-1698255.3005218506,-2158480.8826446533,-3461121.082305908,-15078679.084777832,-10179210.662841797,36182365.41748047,19349864.959716797,23786750.79345703,6708940.9828186035,-460435.6288909912,-7529613.494873047,1121752.7389526367,698167.622089386,-9957544.326782227,66272445.67871094,28029890.060424805,26186697.006225586,9987308.502197266,223136.0226869583,-6604772.567749023,-2069876.9092559814,-2321314.811706543,-9418500.900268555,27712654.11376953,13914226.531982422,15460897.445678711,518404.18577194214,-647556.0665130615,-6208620.071411133,-9136189.460754395,-8820817.947387695,-9862141.609191895,1804069.0422058105,1350547.0752716064,19850303.649902344,28841.935098171234,-7359487.056732178,-8774934.768676758,-8575372.695922852,11346057.891845703,-5538409.233093262,4094665.050506592,-6913665.771484375,-6826158.52355957
0.5,-9973298.072814941,-19790384.29260254,-26316263.19885254,2562573.9097595215,-14023681.640625,32150070.190429688,6436054.706573486,6495980.262756348,5571534.633636475,-4232185.363769531,-4330693.72177124,-19230537.41455078,-18685956.954956055,-26705638.885498047,17926044.464111328,17967952.728271484,9687095.642089844,524560.272693634,-1514833.4503173828,-1885775.5661010742,-3375612.97416687,-16934047.69897461,-10258990.287780762,40456012.72583008,21285501.48010254,23474653.244018555,6032633.7814331055,-351534.81364250183,-7680443.76373291,2635983.943939209,2146976.7093658447,-10051745.414733887,75885948.18115234,30628463.745117188,25745803.833007812,8887318.61114502,445615.9174442291,-5870970.726013184,-494420.1409816742,-693647.6230621338,-9397971.153259277,29345932.006835938,14376155.853271484,16103870.391845703,-1833463.7880325317,-398429.3043613434,-5458045.959472656,-8858998.29864502,-8574249.267578125,-9574914.932250977,1618531.2271118164,1228492.6176071167,22931543.350219727,190956.84587955475,-6805540.561676025,-8506227.493286133,-8245523.452758789,13161625.862121582,-5794631.004333496,5587484.359741211,-6274017.810821533,-6032107.353210449
0.505,-10283696.174621582,-22180932.998657227,-30594961.166381836,3965975.046157837,-16346599.578857422,38089748.38256836,7135213.375091553,6890994.548797607,5963683.128356934,-4728163.719177246,-4974308.013916016,-21182731.62841797,-20573251.724243164,-31714075.088500977,21368207.931518555,19543739.318847656,8321258.544921875,-108999.46838617325,-969731.0328483582,-1386476.0398864746,-3665586.233139038,-20076108.932495117,-11418302.536010742,45295562.744140625,23222770.69091797,23548450.469970703,4937414.169311523,-172668.75505447388,-7863601.207733154,3057953.119277954,2501632.9288482666,-11197278.022766113,85163825.98876953,31830940.24658203,24570528.030395508,8193620.681762695,567069.5304870605,-5865119.457244873,184015.30385017395,-3457.799321040511,-10321444.511413574,29610418.31970215,14347383.499145508,16440637.588500977,-5165780.067443848,-129248.27635288239,-5476160.049438477,-9782053.94744873,-9203697.204589844,-10326116.561889648,2373040.199279785,1887056.7083358765,25257553.100585938,379829.13851737976,-7034886.837005615,-9229086.875915527,-8870157.241821289,14900609.016418457,-5927055.358886719,6476002.6931762695,-6655159.950256348,-6088448.524475098
