time,Fp1,Fpz,Fp2,AF3,AF4,F7,F5,F3,F1,Fz,F2,F4,F6,F8,FT7,FC5,FC3,FC1,FCz,FC2,FC4,FC6,FT8,T7,C5,C3,C1,Cz,C2,C4,C6,T8,TP7,CP5,CP3,CP1,CPz,CP2,CP4,CP6,TP8,P7,P5,P3,P1,Pz,P2,P4,P6,P8,PO7,PO5,PO3,POz,PO4,PO6,PO8,CB1,O1,Oz,O2,CB2
0.0,775471.8661308289,259840.0115966797,-777967.2741889954,-12250.687927007675,-380040.4965877533,2788360.834121704,534840.5838012695,567287.9815101624,529925.9424209595,23032.9018086195,-10432.015173137188,-940609.3955039978,-973308.3248138428,-1231217.7419662476,1010486.0067367554,327204.25724983215,565048.0389595032,386372.3576068878,-65109.43919420242,-71063.03423643112,-622476.2201309204,-1162460.207939148,-522592.1869277954,-337296.66471481323,444564.25309181213,257510.4534626007,347211.95697784424,-752.1559600718319,-236856.8331003189,-675486.7434501648,-697669.0888404846,-500573.7543106079,712445.6167221069,740666.6278839111,-87432.95818567276,-103033.66929292679,-8519.948460161686,-311546.9217300415,-373629.48060035706,-360472.6195335388,-444012.6121044159,-103604.95746135712,677794.2776679993,479888.29016685486,-65050.85527896881,-7963.0352556705475,-351871.66929244995,-406285.5839729309,-381345.62969207764,-405583.05382728577,1098214.5071029663,1060074.4485855103,298376.9178390503,-4529.767669737339,-370011.71708106995,-416702.3301124573,-385876.71518325806,-400048.6433506012,524082.6606750488,95571.97988033295,-367298.51365089417,-352323.62151145935
0.005,6483491.42074585,4217504.978179932,5712594.985961914,2517965.316772461,5172757.625579834,6147346.973419189,3773212.9096984863,4759493.827819824,4047907.829284668,4917218.6851501465,5264119.625091553,4270964.622497559,3068245.4109191895,819386.9590759277,4168793.6782836914,1914989.5906448364,3303146.3623046875,4591009.140014648,5294771.194458008,4566659.450531006,1020432.1146011353,-1063560.8434677124,-3010202.8846740723,-8480799.674987793,2700165.033340454,3276793.7183380127,3158607.006072998,-438974.9467372894,1313539.743423462,-195132.38966464996,-1328903.317451477,-2049440.860748291,-6567645.072937012,-4108654.9758911133,-430029.63066101074,-1067430.853843689,-699169.2781448364,-2796449.899673462,-3044749.975204468,-2212255.0010681152,-2922979.8316955566,-3617125.988006592,-2768601.894378662,-2091931.3430786133,-3810750.722885132,-873637.9146575928,-3372351.884841919,-3148369.789123535,-3052471.160888672,-2968859.1957092285,-4696487.4267578125,-5130052.089691162,-5019613.265991211,-801477.4918556213,-4519592.761993408,-3545139.3127441406,-2430822.3724365234,-5850430.011749268,-8412176.132202148,-5562020.301818848,-4190332.4127197266,-3864768.2666778564
0.01,9536916.732788086,5931943.416595459,7996238.231658936,3813196.6590881348,8176655.7693481445,8264420.509338379,7337008.953094482,8677951.81274414,7747400.760650635,8534089.088439941,9080509.185791016,6281141.757965088,4738255.977630615,2952.4227138608694,6664182.186126709,4294868.946075439,5667577.743530273,7430307.388305664,8061385.154724121,7142033.100128174,1778529.0479660034,-2201711.1778259277,-4900889.3966674805,-10432196.617126465,5627534.866333008,5465885.162353516,4617129.325866699,-551749.8254776001,1981178.9989471436,-784890.6517028809,-2301541.328430176,-3505208.2538604736,-7292993.545532227,-4532358.646392822,-178104.6837568283,-1158898.949623108,-920783.9369773865,-4178477.7641296387,-4895158.290863037,-3778673.6488342285,-4634692.192077637,-3452006.5784454346,-2511806.9648742676,-1639602.4227142334,-4317615.509033203,-1134921.3123321533,-5024856.090545654,-4793386.459350586,-4763750.5531311035,-4582983.493804932,-5392278.671264648,-5999142.646789551,-5613555.431365967,-1106290.2212142944,-6445403.099060059,-5312902.450561523,-3763092.9946899414,-6009353.160858154,-10123244.285583496,-6603961.944580078,-6045398.235321045,-5578981.399536133
0.015,11101979.25567627,7914493.560791016,9745170.593261719,3777523.5176086426,11063451.766967773,7476415.157318115,10747591.972351074,11960035.32409668,11195417.404174805,11999016.761779785,12632449.15008545,7546940.803527832,6317099.571228027,-523982.1672439575,8004400.253295898,6686899.662017822,7346634.387969971,9325259.2086792,9137146.949768066,8539999.961853027,2948399.543762207,-2034370.6607818604,-5320120.811462402,-7869630.336761475,7821228.981018066,7082320.690155029,5187337.875366211,-418433.4874153137,2432107.68699646,-1069928.2884597778,-2351666.212081909,-4025354.8622131348,-4170939.4454956055,-2097829.580307007,491024.6133804321,-555360.5556488037,-723992.109298706,-4184234.619140625,-5199225.425720215,-4270081.996917725,-4962165.832519531,-1049701.21383667,-343985.4681491852,315314.50152397156,-2655869.245529175,-912350.6546020508,-5019454.479217529,-4880826.950073242,-5030716.896057129,-4694823.265075684,-3575686.454772949,-4116423.6068725586,-3522152.4238586426,-1023451.0898590088,-6071352.958679199,-5355982.303619385,-3898086.0710144043,-4006760.1203918457,-7519032.955169678,-5122817.039489746,-5793786.525726318,-5460648.536682129
0.02,13357111.930847168,12563823.699951172,15501380.920410156,3384300.470352173,16470083.236694336,3901518.1064605713,12889480.590820312,14009578.704833984,13383160.591125488,16319517.135620117,17069101.333618164,11490438.461303711,10450651.168823242,3208925.485610962,8058884.620666504,7714451.789855957,8120065.689086914,11202452.659606934,10785189.628601074,10588592.529296875,5704859.733581543,1667576.551437378,-3998937.3683929443,-6725758.5525512695,7877462.863922119,8813221.93145752,6130204.677581787,-307152.4500846863,3572986.841201782,627783.1792831421,-449205.8455944061,-2971326.3511657715,-3980447.53074646,-1176079.511642456,1081329.8225402832,40632.471442222595,-537449.4791030884,-3382050.5142211914,-4022872.4479675293,-3297451.0192871094,-3899110.794067383,-6212.358828634024,-132006.74951076508,417663.2761955261,-2002646.6846466064,-760951.042175293,-4086857.318878174,-3809147.1195220947,-4056643.486022949,-3528068.780899048,-4546117.782592773,-4954060.5545043945,-3638601.064682007,-990411.0431671143,-4962255.001068115,-4320739.269256592,-2921597.719192505,-5594079.971313477,-7889901.638031006,-5754860.401153564,-4727629.1847229,-4689507.007598877
0.025,15008992.195129395,16119489.669799805,20982446.670532227,3528969.5262908936,20960161.209106445,530841.5293693542,13022032.737731934,14245887.756347656,13527859.687805176,19360942.840576172,20196866.989135742,15654005.05065918,14407401.084899902,8312081.336975098,6983496.66595459,7387334.823608398,7984299.659729004,12460071.563720703,12622060.775756836,12593145.370483398,8237121.58203125,5750164.985656738,-2112996.3397979736,-8250424.385070801,7156265.2587890625,10493033.409118652,7392762.660980225,-237802.8780221939,4660628.795623779,3073617.935180664,1892160.0580215454,-1207193.8514709473,-6740325.450897217,-2136808.6338043213,1626514.6732330322,572379.469871521,-578635.4541778564,-2574228.525161743,-2603881.1206817627,-1887038.7077331543,-2342645.8835601807,-166261.1961364746,-1320100.0690460205,-1027717.2327041626,-2733448.5054016113,-863856.4944267273,-3149954.319000244,-2539068.9373016357,-2627640.0089263916,-2077801.4659881592,-7204785.8238220215,-7569610.118865967,-5770492.5537109375,-1105286.1213684082,-4277138.233184814,-3164377.9277801514,-1601041.4361953735,-8931848.526000977,-11120581.62689209,-7762648.582458496,-3890718.698501587,-3988289.3562316895
0.03,13193159.103393555,13428647.0413208,18897443.771362305,4085022.449493408,19298387.52746582,-155903.1754732132,11565437.316894531,12840611.457824707,11953416.82434082,18397472.381591797,19154476.165771484,15191789.627075195,13752336.502075195,8707196.235656738,4850637.435913086,6977691.650390625,7330682.277679443,11866632.461547852,12441820.14465332,12385133.743286133,7922150.611877441,5460409.164428711,-1290285.9449386597,-8458485.60333252,8014272.689819336,11249505.996704102,7804622.650146484,-46423.06640744209,4316298.961639404,3581049.919128418,2276303.291320801,-360294.1334247589,-6647877.216339111,-1789912.9390716553,2470551.013946533,1529524.326324463,-625004.1127204895,-2226903.4385681152,-2299891.471862793,-1568780.541419983,-1454264.8792266846,1562036.8719100952,-123900.97230672836,-649989.664554596,-2499680.995941162,-889620.7809448242,-2701091.0511016846,-1896765.947341919,-1639828.4435272217,-1357392.3110961914,-6055188.6558532715,-6453374.38583374,-5433701.038360596,-1070087.5520706177,-3952537.0597839355,-2510852.575302124,-814604.640007019,-7293715.476989746,-10829474.449157715,-6448054.313659668,-3391183.853149414,-3263780.5938720703
0.035,8891256.332397461,6940219.402313232,11630262.37487793,4202698.230743408,13243580.81817627,592728.0187606812,9892934.799194336,11084911.346435547,10134541.511535645,14761672.019958496,15354523.658752441,11221133.2321167,9915086.74621582,4698456.287384033,1766155.6005477905,7134068.012237549,6901262.7601623535,10062093.734741211,10362051.963806152,10236783.027648926,5525939.464569092,1797862.4105453491,-1766150.712966919,-5641619.682312012,10046747.207641602,10851805.686950684,7134696.006774902,215802.4162054062,2912707.0903778076,2097862.720489502,891087.6512527466,-798496.1867332458,-2431852.5791168213,571167.9458618164,3479146.957397461,2814703.7029266357,-421117.5739765167,-2283846.855163574,-3108178.6155700684,-2468905.9257507324,-1532409.66796875,5441825.389862061,3826312.780380249,2462813.377380371,-540437.4599456787,-596679.6278953552,-2702059.030532837,-1957954.5259475708,-1454626.5602111816,-1488127.1123886108,-719915.0919914246,-1127399.6829986572,-1507044.4345474243,-751233.1008911133,-3572610.378265381,-2401691.9136047363,-740019.0830230713,-437034.63673591614,-5649932.384490967,-1316866.0402297974,-3007997.0359802246,-2505813.3602142334
0.04,6378798.961639404,4319994.4496154785,8833740.234375,3449131.727218628,9937545.776367188,-68845.9649682045,9217996.597290039,10421542.167663574,9520263.671875,12712375.64086914,13273164.749145508,9629028.3203125,8562146.186828613,2410617.1131134033,-1571585.774421692,7206834.316253662,7257029.5333862305,9326096.534729004,9251482.963562012,9068679.809570312,4394139.766693115,182511.94059848785,-2417506.9332122803,-3469215.6314849854,10580513.954162598,10197300.910949707,6653748.035430908,262688.2195472717,2271409.273147583,1220654.9644470215,150788.1134748459,-1414491.057395935,90147.53252267838,1852812.5286102295,4107176.7807006836,3571931.3621520996,-125438.30275535583,-2437821.626663208,-3854084.9685668945,-3256141.9010162354,-1936287.8799438477,7882030.963897705,6416116.237640381,5164559.841156006,984523.355960846,-217381.90948963165,-2868512.8688812256,-2232362.5087738037,-1788722.038269043,-1845310.2111816406,2754096.9848632812,2385788.679122925,1711857.795715332,-444552.1831512451,-3259859.085083008,-2539771.556854248,-923716.0682678223,3826217.6513671875,-2047183.0368041992,2337950.9449005127,-2822539.5679473877,-2205788.3739471436
0.045,6961909.770965576,7046872.615814209,12519284.24835205,2401041.9845581055,11484620.094299316,-2201370.2392578125,9530140.87677002,10912317.276000977,10133740.425109863,13600694.65637207,14273575.782775879,11766559.600830078,10725863.456726074,3782823.5626220703,-3879458.18901062,6632338.047027588,8156486.511230469,10537846.565246582,10479310.035705566,10250258.445739746,5444826.602935791,2025451.66015625,-2687038.6600494385,-5154885.768890381,8888884.544372559,10233180.046081543,7323771.953582764,-25572.95933365822,2946422.815322876,1964832.9019546509,841339.2305374146,-1574614.7632598877,-2813486.337661743,351100.26597976685,4172961.2350463867,3385689.7354125977,-148483.35087299347,-2619579.553604126,-3952864.8853302,-3174174.5471954346,-2260561.70463562,6795568.466186523,5207588.195800781,4910393.238067627,442277.193069458,-135858.74438285828,-3105206.01272583,-2486685.5144500732,-2322781.562805176,-2140801.429748535,851883.6498260498,519963.800907135,896351.5758514404,-481704.35428619385,-3525462.3889923096,-2832931.0417175293,-1188482.165336609,561428.4873008728,-4559318.542480469,875458.8961601257,-3160475.492477417,-2780987.7395629883
0.05,7129724.979400635,8248642.921447754,14119379.043579102,1975319.743156433,12348780.632019043,-3287211.4181518555,9621886.253356934,11070637.702941895,10493547.439575195,14255573.272705078,14980092.04864502,12502273.559570312,11320165.634155273,3996106.8630218506,-4495908.737182617,5865376.949310303,8558767.318725586,11829413.414001465,11728337.287902832,11483798.98071289,5918765.544891357,2906111.717224121,-3141118.7648773193,-8516314.506530762,7332860.469818115,10810266.494750977,8379688.262939453,-412849.098443985,3469177.484512329,2326011.4192962646,1082626.5811920166,-1861189.7230148315,-7024909.019470215,-1576766.014099121,3932473.1826782227,2915428.400039673,-576202.8694152832,-2971467.0181274414,-3996473.0739593506,-2927365.0646209717,-2762295.722961426,4706224.9183654785,2843904.733657837,3173657.8941345215,-885699.0337371826,-399636.50703430176,-3482944.4885253906,-2858690.9770965576,-2932334.4230651855,-2632437.229156494,-2541992.9027557373,-2847766.399383545,-1813150.8827209473,-793611.7053031921,-4407849.311828613,-3373941.18309021,-1745590.6867980957,-5656434.535980225,-9232681.274414062,-2806515.2168273926,-4001025.1998901367,-3867149.829864502
0.055,4661159.992218018,4281283.855438232,9250554.084777832,2332783.4606170654,8987580.299377441,-2180047.5120544434,8409647.941589355,9646874.42779541,9265996.932983398,12114462.852478027,12768808.364868164,9072834.014892578,7835042.476654053,916667.640209198,-4419489.38369751,5370796.203613281,7490355.491638184,11038900.375366211,10358443.260192871,10116734.504699707,4003696.4416503906,433665.1861667633,-3539474.0104675293,-9587244.033813477,7613409.519195557,10864182.472229004,8295047.760009766,-604645.2522277832,2775796.1750030518,1122987.8664016724,-40802.34840512276,-2172909.2597961426,-7145619.869232178,-1545811.653137207,3408821.3443756104,2832379.3411254883,-993637.9194259644,-3119285.3450775146,-4142426.4907836914,-2938464.403152466,-3071031.8088531494,5079307.556152344,2719961.166381836,2678380.012512207,-977249.0859031677,-706857.1448326111,-3557703.733444214,-2853176.1169433594,-2947963.9530181885,-2873618.8411712646,-2310316.0858154297,-2562593.698501587,-2395404.33883667,-1027582.049369812,-4844339.370727539,-3576610.326766968,-2035159.1110229492,-7532725.3341674805,-9664042.472839355,-3613192.558288574,-4400101.661682129,-4208387.851715088
0.06,3078942.29888916,1970957.9944610596,6530066.967010498,2756915.807723999,6370739.936828613,-612262.3682022095,6289383.888244629,7324185.371398926,6951814.1746521,9301544.189453125,9967430.114746094,6301261.425018311,5186009.407043457,460239.55941200256,-5556805.610656738,4507791.042327881,5099711.4181518555,8591338.157653809,7374958.515167236,7108563.423156738,2086398.3631134033,-1104541.7785644531,-2076151.3710021973,-8683806.419372559,8164199.8291015625,9666069.984436035,6736444.473266602,-564461.1120223999,1976955.4138183594,664285.6001853943,-247444.64457035065,-811106.8606376648,-4627091.407775879,-979064.1069412231,2391682.1479797363,2758211.851119995,-988783.5383415222,-2065490.0074005127,-3175880.6705474854,-2072234.6305847168,-1691806.0779571533,7836891.651153564,4147135.2577209473,3270691.8716430664,-21232.545375823975,-774749.755859375,-2326288.7001037598,-1230944.5142745972,-1147738.5759353638,-1426820.158958435,810116.8274879456,601158.4997177124,-404157.96637535095,-979831.2187194824,-3390508.4133148193,-2152557.373046875,-589183.2709312439,-4192432.403564453,-5646451.473236084,-695166.4090156555,-3008142.7097320557,-2579583.4064483643
0.065,6891341.209411621,9180790.901184082,15328330.039978027,2616505.8612823486,10773737.907409668,-598886.9071006775,4903596.4012146,6088550.090789795,5525774.002075195,9669254.302978516,10550191.879272461,9477957.725524902,8558604.24041748,7738767.623901367,-8714623.45123291,2379491.8060302734,2810946.9413757324,6959491.729736328,6264293.193817139,5963335.990905762,3407132.863998413,2729187.7269744873,1732100.009918213,-9571866.035461426,6748874.664306641,7771661.758422852,4990456.104278564,-447507.47084617615,2679826.259613037,3273553.1330108643,2506362.6766204834,2763517.379760742,-5125539.779663086,-2714376.68800354,1183553.4572601318,1986462.2354507446,-661144.1373825073,317158.7288379669,-511986.6132736206,428065.7470226288,1686104.0592193604,10046831.130981445,4067741.870880127,2681284.9044799805,188538.01488876343,-613576.7102241516,210012.3167037964,1936576.247215271,2271507.0247650146,1851664.0663146973,2141801.118850708,1871186.4948272705,1265972.4950790405,-771180.4509162903,-275316.65563583374,897693.6340332031,2677902.2216796875,-643133.8787078857,-2534743.070602417,2393804.5501708984,-980.8982722461224,492073.98295402527
0.07,14209644.317626953,22179780.960083008,30560846.32873535,2101234.197616577,19669549.9420166,-2406797.6474761963,5125923.156738281,6680988.788604736,6005386.829376221,13167743.682861328,14240413.665771484,15813273.429870605,15037103.652954102,17364570.61767578,-12871727.94342041,-746560.3947639465,1945757.7466964722,7445257.663726807,8267327.308654785,7986431.121826172,6933143.615722656,8786767.959594727,4608595.848083496,-13755922.317504883,3792561.0542297363,6423697.471618652,4380997.180938721,-368847.72777557373,4367737.770080566,6746528.148651123,5887241.363525391,5455607.891082764,-10164407.730102539,-6736016.273498535,373457.9086303711,761105.7758331299,-446856.7371368408,2102047.6818084717,1683052.7782440186,2574886.7988586426,4174967.2889709473,9382968.90258789,1622212.529182434,254753.38101387024,-1157905.8170318604,-460747.1227645874,1895221.8294143677,3864091.157913208,4387920.85647583,4086751.4610290527,-435218.9004421234,-852350.4734039307,531260.073184967,-646592.7958488464,1708720.326423645,2852072.9541778564,4868798.25592041,-926393.6281204224,-4165370.464324951,2321041.3455963135,1913877.9640197754,2212180.8528900146
0.075,18091852.18811035,29088989.2578125,37857246.39892578,1790014.0285491943,24081842.42248535,-4975187.301635742,5747570.991516113,7435885.429382324,6956788.539886475,15509862.899780273,16446878.433227539,17581661.224365234,16827148.4375,19053976.05895996,-16397096.633911133,-3620967.6265716553,2208004.4746398926,8554508.209228516,10510158.53881836,10267714.500427246,8045512.1994018555,9592473.030090332,2620074.987411499,-18620889.66369629,1376468.0624008179,5984072.685241699,4701853.7521362305,-345792.0551300049,4710365.772247314,6295717.239379883,5266558.1703186035,3486147.64213562,-15728612.899780273,-10507086.753845215,-332966.148853302,-47309.41727757454,-534150.7792472839,1016677.2603988647,364951.58076286316,1306195.1398849487,2305645.227432251,5513234.615325928,-1349588.0365371704,-2239928.722381592,-3143572.8073120117,-508092.0457839966,377803.62367630005,1665566.4443969727,2231978.416442871,2079479.2175292969,-4661158.084869385,-5144281.86416626,-1860143.4230804443,-710746.8843460083,-164514.27340507507,763390.839099884,2836641.788482666,-4773156.16607666,-9242477.416992188,-914370.7156181335,-1782.988547347486,96269.22011375427
0.08,15388440.132141113,25048210.14404297,31915079.11682129,1801271.677017212,20067571.64001465,-6436406.61239624,5033351.421356201,6446540.832519531,6311333.179473877,13490930.557250977,14023524.284362793,12337408.065795898,11476518.630981445,11433769.226074219,-18275472.64099121,-5240266.3230896,2189585.2088928223,8122116.0888671875,9537494.659423828,9225132.942199707,4332810.878753662,3200270.175933838,-3321897.506713867,-21149362.564086914,258636.5044116974,5550323.009490967,4688431.739807129,-379870.8915710449,2468950.5100250244,962026.4768600464,-152994.51351165771,-2243165.0161743164,-18207281.1126709,-12347325.325012207,-1881454.348564148,-259866.08862876892,-697906.4345359802,-2470389.6045684814,-4249224.662780762,-3309158.8020324707,-3135268.9266204834,-260717.4813747406,-3208671.3314056396,-3225048.065185547,-4472671.5087890625,-701813.1613731384,-3594511.9857788086,-3539348.602294922,-3036861.4196777344,-3187529.3254852295,-7213406.085968018,-7588303.089141846,-3777830.123901367,-863972.3658561707,-4849083.90045166,-4369298.458099365,-2422421.455383301,-9370267.868041992,-13648854.25567627,-4526587.48626709,-4741685.390472412,-4651245.594024658
0.085,10917883.87298584,17964338.302612305,22406778.33557129,1769362.211227417,13467412.948608398,-4593619.346618652,3518469.81048584,4545210.361480713,4534445.762634277,9190065.383911133,9446566.581726074,6062672.138214111,5049567.222595215,4238407.611846924,-18051471.710205078,-5211956.977844238,1625252.0084381104,6507532.119750977,5974856.376647949,5493780.136108398,-994505.4650306702,-4036989.688873291,-7639286.518096924,-20983335.494995117,-113382.2649717331,4587263.107299805,3992876.5296936035,-483845.0253009796,-704532.80210495,-4463221.073150635,-5636494.159698486,-6347503.185272217,-17918622.970581055,-12469199.180603027,-3887719.6311950684,-410642.3258781433,-733050.4059791565,-5153753.757476807,-8198792.457580566,-7379512.310028076,-7140529.632568359,-5091545.581817627,-3761951.684951782,-2950036.7641448975,-4605053.901672363,-833078.145980835,-6421587.4671936035,-7099254.131317139,-6631789.684295654,-6871854.782104492,-6742871.284484863,-6944758.892059326,-3881605.386734009,-947272.3007202148,-8042189.598083496,-7891699.314117432,-6144654.273986816,-11847257.614135742,-14401154.518127441,-5506328.582763672,-7947303.771972656,-7789232.25402832
0.09,11318716.049194336,17919958.114624023,21202075.958251953,1543750.8821487427,12655860.900878906,551498.9495277405,3979016.3040161133,4839384.078979492,4652304.649353027,8128912.925720215,8530003.547668457,6134149.551391602,5043785.572052002,6229072.570800781,-15741719.245910645,-3478826.7612457275,2165276.527404785,6562737.464904785,4525723.934173584,3981023.5500335693,-2149814.1288757324,-4726512.908935547,-6539696.69342041,-19367050.170898438,415710.6578350067,4249856.472015381,3957515.7165527344,-624992.3706054688,-1672414.779663086,-4728885.173797607,-6046952.724456787,-5252195.358276367,-16727777.481079102,-11533431.053161621,-4224619.8654174805,-513652.4438858032,-759898.841381073,-4765839.099884033,-8099037.170410156,-7437154.769897461,-6241298.198699951,-5816823.482513428,-3280107.9750061035,-2423810.2436065674,-3871143.341064453,-813432.6934814453,-5812549.591064453,-6121703.624725342,-5598003.86428833,-5861659.049987793,-4498469.829559326,-4603755.474090576,-2668303.7281036377,-929591.8941497803,-7084618.091583252,-6820573.329925537,-5243424.892425537,-11021886.825561523,-12085737.228393555,-3396567.8215026855,-6892257.6904296875,-6800365.447998047
0.095,17032758.712768555,25549560.546875,29503984.451293945,1450096.845626831,19523086.547851562,4938460.350036621,7922673.70223999,8827004.432678223,8459171.295166016,13424837.112426758,14289757.72857666,13675532.341003418,12615042.686462402,15715288.162231445,-12481779.098510742,-636841.7739868164,5078303.337097168,10025838.851928711,8736780.166625977,8335739.1357421875,3253885.269165039,2063615.322113037,-2095065.3553009033,-17204414.36767578,2491849.660873413,5993646.621704102,5833279.132843018,-704155.8027267456,1105199.5754241943,318380.6240558624,-1167390.1081085205,-1045391.5596008301,-15431676.864624023,-10084865.57006836,-1791614.8900985718,138770.04384994507,-931730.3895950317,-2415415.2870178223,-4583947.18170166,-4018623.3520507812,-2300953.149795532,-2219486.951828003,-2149034.5001220703,-2076535.940170288,-3160614.490509033,-773241.2219047546,-3241841.5546417236,-2556977.2720336914,-1997748.9709854126,-2158933.639526367,-3271997.4517822266,-3341907.739639282,-1953171.0147857666,-937244.1172599792,-3842850.923538208,-3148436.0694885254,-1590797.6627349854,-8604511.260986328,-10420032.501220703,-1012223.0052947998,-3534346.580505371,-3606997.25151062
0.1,22616048.81286621,33481231.689453125,39500804.90112305,1738451.7192840576,28692808.151245117,4106115.8180236816,13139035.22491455,14088875.770568848,13790994.644165039,22135839.462280273,23455856.323242188,23180784.225463867,22189331.0546875,24532609.939575195,-10298397.064208984,1846055.6268692017,8976292.610168457,14908102.035522461,16357856.750488281,16090847.01538086,11574850.082397461,10882341.384887695,1217356.2049865723,-15063521.385192871,5277836.799621582,9195648.193359375,8782196.044921875,-626794.6362495422,5893037.31918335,6321891.784667969,4812094.688415527,2009237.52784729,-14370000.839233398,-8967836.380004883,1366136.908531189,1719650.6261825562,-1075933.6948394775,-603643.4769630432,-756614.8042678833,-243681.04338645935,595399.2605209351,1815713.882446289,-1241085.8869552612,-1830270.8864212036,-3225844.8600769043,-842956.4833641052,-1435860.3954315186,-69238.83408308029,383070.34969329834,376154.21414375305,-4864586.353302002,-4888894.557952881,-2889539.0033721924,-1074583.0535888672,-1752163.5293960571,-701523.2443809509,1059080.6007385254,-7927673.816680908,-12448399.543762207,-1466508.2693099976,-1492977.9767990112,-1582683.0863952637
0.105,23859722.137451172,36075267.79174805,44427951.81274414,2120348.9303588867,33750129.69970703,-950325.4890441895,15906459.80834961,16829711.9140625,16745788.57421875,27824445.724487305,29376026.153564453,28106967.92602539,27182756.423950195,27603574.752807617,-10210299.491882324,2762948.2746124268,11087725.639343262,17485963.821411133,21189357.75756836,20775379.180908203,16529468.536376953,15611848.831176758,1906645.7748413086,-13637415.885925293,6733010.768890381,11505238.53302002,10646963.119506836,-391209.4831466675,9158494.94934082,9275319.09942627,7898260.116577148,2613317.0127868652,-14213152.885437012,-8792363.166809082,2299328.327178955,3325917.4823760986,-912529.9453735352,-67427.21050977707,1417712.926864624,1869177.5798797607,1143275.499343872,2420288.0859375,-1203335.8812332153,-1620418.7870025635,-3841979.503631592,-939952.7311325073,-944940.2093887329,396987.52760887146,676168.1437492371,771430.0751686096,-7890924.453735352,-7920092.582702637,-4477762.699127197,-1243687.8681182861,-1563023.567199707,-427339.5240306854,1602889.1801834106,-10216323.852539062,-16853086.471557617,-4379937.648773193,-1540645.3609466553,-1385160.5653762817
0.11,21991119.384765625,34409797.66845703,44123928.07006836,2110613.3460998535,33009239.196777344,-4822768.211364746,14994468.688964844,15909440.994262695,15908231.735229492,26872304.916381836,28465585.708618164,26604076.385498047,25762037.27722168,26286827.087402344,-11177282.333374023,2296231.269836426,10369811.058044434,16337570.190429688,19750827.78930664,18993114.471435547,15333615.30303955,14658127.784729004,1672328.233718872,-13222311.019897461,6047079.086303711,11555234.909057617,10460445.404052734,-116787.94771432877,8936865.80657959,8724672.317504883,7470986.843109131,2416402.578353882,-14991136.55090332,-9314051.628112793,792610.764503479,4051040.6494140625,-535847.6638793945,213065.14739990234,2101266.1457061768,2542459.487915039,979222.5360870361,349885.5531215668,-1607460.618019104,-1554374.8140335083,-4085878.849029541,-901207.685470581,-547861.2780570984,427204.6685218811,656206.5482139587,759270.7276344299,-9336915.969848633,-9534746.170043945,-4823105.335235596,-1230185.627937317,-1565465.3310775757,-524758.9945793152,1554128.1700134277,-13070597.648620605,-19551019.6685791,-6423919.677734375,-1772093.5344696045,-1303963.7804031372
0.115,20516725.540161133,32728061.67602539,42667755.126953125,1656656.265258789,29927293.77746582,-5459044.933319092,12157999.038696289,13126940.727233887,13005168.914794922,21728544.235229492,23319280.62438965,22660804.748535156,21876167.29736328,24721309.661865234,-12075601.577758789,1104574.5611190796,7995725.631713867,13159518.241882324,14816392.89855957,13890627.86102295,11279006.958007812,11675122.261047363,1950349.8077392578,-13646907.806396484,4152576.9233703613,9946891.784667969,9079588.890075684,32027.83688902855,6656806.945800781,7005874.6337890625,5760086.536407471,2690493.34526062,-15971038.818359375,-10450612.06817627,-1045199.2750167847,3855082.9887390137,-363972.60427474976,875695.8246231079,2178203.821182251,2779014.825820923,1385176.181793213,-707763.6122703552,-1914330.244064331,-2039522.8862762451,-3788087.6064300537,-757501.8405914307,240818.87304782867,1026559.8297119141,1362998.127937317,1393558.6214065552,-8730075.83618164,-9189872.741699219,-3781940.221786499,-988636.9705200195,-769664.3471717834,136323.6904144287,2007752.6569366455,-13757264.137268066,-19135559.08203125,-5788947.105407715,-1038811.6836547852,-474952.42953300476
0.12,20286413.192749023,33095363.61694336,43371898.65112305,1189303.1597137451,28850845.336914062,-7283142.566680908,9217137.336730957,10230557.441711426,9964802.742004395,17620405.197143555,19236200.3326416,21670610.427856445,20818487.1673584,25638309.478759766,-13934966.087341309,-1166676.0444641113,5124730.587005615,10036216.735839844,11628490.447998047,10890306.47277832,9802379.608154297,11549609.184265137,2660824.0604400635,-15264768.600463867,1743324.637413025,7497340.202331543,7467082.500457764,-42452.264577150345,5347380.1612854,6581464.2906188965,5310769.557952881,3362960.10017395,-17186725.616455078,-13087149.620056152,-2277164.2208099365,3076606.9889068604,-583532.8102111816,1618587.0170593262,2386934.0419769287,3275509.1190338135,2162762.403488159,233602.89633274078,-2743999.95803833,-3634764.6713256836,-4002454.2808532715,-717127.0251274109,893493.7119483948,1814799.3087768555,2262820.4822540283,2181647.300720215,-8806768.417358398,-9388434.410095215,-3105222.225189209,-756945.788860321,222445.89030742645,1028736.2337112427,2741852.7603149414,-12681797.981262207,-18401601.791381836,-4244624.137878418,-12074.993923306465,388106.7931652069
0.125,19373744.96459961,34193367.00439453,45950328.8269043,1109627.2468566895,30515035.62927246,-14362597.465515137,6486286.640167236,7485173.225402832,7238979.816436768,16972711.56311035,18596576.690673828,24587192.53540039,23560407.638549805,28775093.07861328,-18431753.158569336,-5007443.904876709,2025062.3226165771,7672481.536865234,11977572.441101074,11540108.680725098,12371361.73248291,15103302.955627441,3560775.0415802,-18825527.19116211,-1357119.083404541,4369780.540466309,5808914.1845703125,-320969.01535987854,6244600.772857666,7981267.45223999,6763998.985290527,4351676.464080811,-19478384.017944336,-17275722.50366211,-3889886.3792419434,1952883.3627700806,-917737.2455596924,2270544.7673797607,3264064.311981201,4336117.744445801,3050410.032272339,409006.7446231842,-4734371.662139893,-6042011.260986328,-5342809.677124023,-875172.1978187561,1354877.7103424072,2552306.652069092,2996387.243270874,2852649.688720703,-11031792.640686035,-11496130.94329834,-3677745.3422546387,-802272.4986076355,911962.3899459839,1741210.8182907104,3559878.349304199,-12111794.471740723,-19563091.278076172,-4038694.381713867,672610.4617118835,870237.9465103149
0.13,16746864.318847656,33863498.68774414,47608882.904052734,1402509.331703186,32030117.03491211,-23904457.092285156,4225016.5939331055,5204294.204711914,5143286.70501709,18215906.143188477,19773542.404174805,27461755.752563477,26338827.13317871,31635042.190551758,-24365777.96936035,-8960777.282714844,-475755.6617259979,6475763.320922852,13581942.558288574,13208370.208740234,15529712.677001953,18466321.94519043,4602692.127227783,-23606130.599975586,-4448279.857635498,1546642.1842575073,4642389.297485352,-682246.0889816284,7907262.802124023,9721067.428588867,8606090.545654297,5618092.060089111,-22434303.283691406,-20587154.388427734,-5941889.762878418,1075878.8585662842,-1031526.8039703369,2946909.9044799805,4672511.577606201,5663537.502288818,4065734.86328125,-1802022.8147506714,-6725106.239318848,-7618803.977966309,-6646011.3525390625,-1072484.1356277466,2008396.863937378,3412269.353866577,3761780.5004119873,3720649.242401123,-12999245.643615723,-13283364.295959473,-4301089.286804199,-1091128.945350647,1466663.2413864136,2505345.582962036,4509723.18649292,-12798092.84210205,-20958408.35571289,-4800164.222717285,1207709.6700668335,1341760.6353759766
0.135,13906061.172485352,31829849.243164062,46810363.76953125,1738923.43044281,31260282.516479492,-30232713.69934082,3528647.6612091064,4531349.658966064,4663606.1668396,19269115.447998047,20722906.1126709,27206306.45751953,26192499.1607666,32219036.102294922,-27919841.766357422,-10427469.253540039,-842881.2623023987,7225278.377532959,14268486.022949219,13683141.708374023,15989239.692687988,18479187.01171875,5174861.431121826,-27014635.08605957,-5660946.846008301,1064825.5348205566,5130562.782287598,-929981.529712677,8621858.596801758,10215663.90991211,9161038.398742676,6314399.242401123,-24186410.903930664,-20572044.372558594,-6591505.527496338,1350845.9329605103,-926990.8666610718,3315092.5636291504,5631951.332092285,6392601.490020752,4632334.232330322,-4036701.202392578,-6949763.298034668,-7069196.2242126465,-6445679.187774658,-1088837.6235961914,2498034.4772338867,3961820.602416992,4183542.7284240723,4401611.328125,-12278249.740600586,-12557839.393615723,-3997073.173522949,-1309055.5667877197,1714589.5957946777,3034042.5968170166,5036185.741424561,-13733736.991882324,-20525421.142578125,-4927447.319030762,1520452.2609710693,1650987.0290756226
0.14,12341697.692871094,29673419.952392578,45100128.173828125,1849529.9816131592,29535795.211791992,-33023475.646972656,4447097.7783203125,5464246.2730407715,5635345.458984375,19847772.5982666,21253776.55029297,25567691.802978516,24754074.096679688,31346460.342407227,-27502971.649169922,-9207898.139953613,726021.945476532,9377411.842346191,14267918.586730957,13486887.93182373,14577373.504638672,16946237.564086914,4752616.882324219,-27466676.712036133,-4617002.010345459,3184555.768966675,7159906.86416626,-864486.038684845,8493747.71118164,9685053.825378418,8646409.034729004,5758782.863616943,-24236005.783081055,-18551204.681396484,-5182344.913482666,2721382.1411132812,-794402.2417068481,2981194.019317627,5549196.243286133,6167345.04699707,4172951.2214660645,-3718756.914138794,-5876076.221466064,-5535105.228424072,-5282676.219940186,-879070.6396102905,2192540.407180786,3603857.99407959,3699332.7140808105,4096431.255340576,-10499270.43914795,-10969895.362854004,-3775207.042694092,-1205056.4289093018,1282679.6770095825,2712106.227874756,4593938.35067749,-14249187.469482422,-19691175.46081543,-4331332.206726074,1187219.1429138184,1204794.8837280273
0.145,11158134.460449219,28488790.51208496,44370441.43676758,1765407.5622558594,28965185.165405273,-36746120.45288086,4841237.545013428,5811325.550079346,5850555.419921875,19978242.874145508,21407224.655151367,25654121.39892578,24930864.334106445,31331180.572509766,-26167308.807373047,-8197937.01171875,1612914.5622253418,10417899.131774902,14263654.708862305,13580993.65234375,13961971.282958984,17464044.57092285,4174444.6754455566,-26583755.493164062,-3558198.928833008,5042232.990264893,8614122.39074707,-458846.5392589569,8542136.192321777,9615128.517150879,8608734.130859375,4969891.07131958,-24536363.60168457,-18265102.38647461,-4018102.6458740234,3762463.331222534,-684482.5148582458,2480601.3107299805,5204450.607299805,5842710.971832275,3490531.2061309814,-2214105.6060791016,-5787349.224090576,-5496140.480041504,-5092239.856719971,-575855.9107780457,1613853.096961975,2957899.0936279297,3016448.0209350586,3255405.1876068115,-10736553.192138672,-11393872.261047363,-4734216.690063477,-845173.9549636841,752526.7601013184,2048915.6246185303,3952093.8396453857,-14629193.305969238,-20806669.235229492,-4074346.0655212402,625925.5409240723,457800.59695243835
0.15,8695845.603942871,27480228.424072266,43706638.33618164,1714665.5321121216,28832361.221313477,-42458023.07128906,2913244.2474365234,3839835.4053497314,3733513.355255127,18620969.772338867,20046730.041503906,26737895.965576172,25965520.85876465,32391078.94897461,-27321613.311767578,-9384866.714477539,103584.58757400513,8680396.08001709,13656932.830810547,13339430.809020996,14392816.543579102,19668304.443359375,4737030.982971191,-26847406.3873291,-4290580.272674561,4109304.904937744,7941549.777984619,17684.031277894974,8808711.051940918,10479336.738586426,9543008.804321289,5533512.115478516,-26247676.849365234,-20450616.83654785,-5164113.998413086,3454463.243484497,-535957.4556350708,2741323.232650757,5650326.251983643,6343562.602996826,3968877.7923583984,-2548434.257507324,-7183922.290802002,-7275425.434112549,-6293998.241424561,-332940.6678676605,1919206.8576812744,3288471.6987609863,3487927.198410034,3311595.916748047,-12373456.954956055,-13034743.309020996,-5710296.154022217,-490905.91073036194,1194162.368774414,2335876.703262329,4403785.228729248,-15008504.867553711,-22621356.964111328,-4261423.110961914,889675.7364273071,673353.1951904297
0.155,5716756.820678711,25646757.125854492,41160316.467285156,1807576.7755508423,27024372.100830078,-45080978.39355469,29579.179361462593,1017843.6040878296,918982.0885658264,15420536.994934082,16738786.697387695,25698450.088500977,24855339.05029297,32348278.045654297,-29513998.03161621,-10919132.232666016,-2056821.584701538,5758382.320404053,11947725.296020508,11967043.87664795,13999471.664428711,20003631.591796875,6236620.4261779785,-27733852.38647461,-5391200.065612793,1753497.2429275513,6337177.753448486,181244.1051006317,8550195.693969727,11144248.008728027,10311859.130859375,7246438.503265381,-27115509.033203125,-21536893.844604492,-7162613.391876221,2604521.0361480713,-403771.69847488403,3675757.40814209,6678328.514099121,7337597.370147705,5512397.289276123,-4296099.1859436035,-7651110.1722717285,-8234369.277954102,-7011421.203613281,-223971.79901599884,3094849.109649658,4635421.7529296875,5053780.078887939,4608939.647674561,-11804408.073425293,-12315673.828125,-4592816.352844238,-313087.73159980774,2524294.137954712,3735159.6355438232,5854198.455810547,-14940908.432006836,-21708080.291748047,-3883230.447769165,2084060.1921081543,2022885.0841522217
0.16,5099257.469177246,24119335.174560547,37985481.26220703,1902682.4235916138,24277105.3314209,-40765918.73168945,-821893.0959701538,291222.57232666016,326163.5899543762,12567558.288574219,13735859.870910645,22733314.514160156,21843791.961669922,30598871.2310791,-28388641.357421875,-10036670.684814453,-2270748.3768463135,4425534.725189209,10315464.01977539,10371338.844299316,12547866.821289062,17888341.903686523,7470456.123352051,-26527832.03125,-4497496.128082275,1095811.4862442017,5855925.0831604,-75776.98677778244,7885502.338409424,10984590.530395508,10301060.676574707,8629970.55053711,-24488357.543945312,-19081623.077392578,-7242103.576660156,2466897.964477539,-424983.1736087799,4472173.690795898,7477860.927581787,8033761.978149414,6871664.524078369,-3935404.5391082764,-5464312.0765686035,-6464902.877807617,-5820012.56942749,-241594.3294763565,4139011.3830566406,5979462.146759033,6446716.785430908,6135549.068450928,-7934136.390686035,-8330833.435058594,-1467612.2665405273,-293544.5308685303,3751873.731613159,5212554.454803467,7173521.995544434,-13822989.463806152,-17686946.868896484,-2290002.8228759766,3360958.8146209717,3475691.318511963
0.165,7859794.616699219,24970373.153686523,37824893.951416016,1864085.9127044678,23888500.213623047,-33358730.31616211,889787.495136261,2020474.6723175049,2143953.323364258,12835104.942321777,13949351.31072998,21714977.264404297,20743432.998657227,29738473.892211914,-23533342.361450195,-7565142.1546936035,-1059008.1214904785,4982418.537139893,10340415.000915527,10142747.87902832,12165374.755859375,17074972.15270996,8275597.57232666,-23110654.830932617,-2446908.473968506,2254820.5852508545,6352451.801300049,-459127.5751590729,7944056.510925293,11181585.311889648,10633008.003234863,9348286.628723145,-19988121.032714844,-15927131.652832031,-5725136.756896973,2697931.7665100098,-591550.8270263672,5050181.865692139,8180572.509765625,8678546.905517578,7724330.425262451,-481602.0131111145,-2646860.5995178223,-3872814.893722534,-3999259.7103118896,-344343.8410758972,4815942.287445068,7011310.577392578,7276763.439178467,7299481.8687438965,-4025821.6857910156,-4485181.80847168,1081943.6311721802,-362060.0998401642,4665092.945098877,6295715.33203125,8094372.749328613,-11333138.465881348,-13975937.843322754,93640.58822393417,4424308.776855469,4576134.68170166
0.17,11086249.351501465,27663017.27294922,41045017.24243164,1830778.2411575317,26623506.546020508,-29947494.506835938,2622310.8768463135,3588348.150253296,3697897.434234619,15927513.122558594,17115627.28881836,24151304.244995117,23083656.311035156,31386363.983154297,-19982620.239257812,-6871947.288513184,-1010738.0151748657,5567870.140075684,11841902.732849121,11357944.48852539,13843050.956726074,19572380.06591797,9250102.996826172,-21187160.49194336,-2518882.989883423,2525939.702987671,6211767.196655273,-598114.1328811646,9168660.163879395,12737962.72277832,12164216.995239258,10110725.402832031,-18265436.17248535,-16406156.539916992,-5519592.761993408,2138699.769973755,-728218.1978225708,5866071.2242126465,9327559.471130371,9897406.578063965,8619812.01171875,2258754.7302246094,-2566845.655441284,-3819260.597229004,-3843005.418777466,-479764.1336917877,5605228.424072266,8065568.923950195,8080904.960632324,8282014.846801758,-3383497.476577759,-4021088.6001586914,943745.0766563416,-497576.2367248535,5669350.147247314,7240501.403808594,9043087.95928955,-8240009.307861328,-13218887.329101562,2038087.6064300537,5502308.8455200195,5628560.543060303
0.175,11171239.852905273,28892637.252807617,43244224.548339844,2015783.5483551025,28834651.947021484,-31609474.182128906,2408862.590789795,3169555.187225342,3283303.0223846436,18440605.16357422,19703882.217407227,26404783.248901367,25370649.337768555,32851524.353027344,-21376382.82775879,-8698108.673095703,-2405404.3292999268,5458321.094512939,13152510.643005371,12554349.899291992,15511815.071105957,21963083.267211914,9779430.389404297,-23243644.71435547,-5409867.286682129,1087720.8709716797,5467021.942138672,-396914.63112831116,10480690.956115723,14310465.812683105,13546673.774719238,10484693.52722168,-20735132.217407227,-19950302.124023438,-7372480.392456055,1204644.4416046143,-690166.9502258301,6439733.982086182,10243034.362792969,10974063.873291016,9067267.417907715,723523.199558258,-5250251.770019531,-6367987.632751465,-5403186.798095703,-568036.3178253174,6063584.804534912,8503904.342651367,8413799.285888672,8601840.97290039,-5399315.83404541,-6134854.793548584,-1257923.3646392822,-650490.4627799988,6141027.450561523,7527149.200439453,9407829.284667969,-6853851.318359375,-14504931.449890137,2069391.7274475098,5927297.592163086,6099785.804748535
0.18,8181938.171386719,26889705.657958984,41212112.42675781,2283159.9712371826,27276487.350463867,-32572132.110595703,1183562.994003296,1896571.8746185303,2081087.8276824951,17774538.040161133,18999269.485473633,24907686.233520508,24084323.88305664,30889455.795288086,-24559818.267822266,-9944745.063781738,-2764034.7480773926,5728972.911834717,13184870.719909668,12578587.532043457,14924443.244934082,20502460.479736328,8645793.914794922,-26450632.095336914,-7650086.402893066,408181.96535110474,5861711.502075195,-15840.00140428543,10662500.381469727,13807554.244995117,12962202.072143555,9278032.302856445,-23339054.107666016,-21658737.182617188,-8451613.426208496,1661835.9088897705,-476701.20000839233,5767722.606658936,9687764.167785645,10507944.107055664,7939723.491668701,-3093362.808227539,-7138821.601867676,-8036055.564880371,-6400473.117828369,-503565.4306411743,5196359.634399414,7278711.318969727,7162343.978881836,7391047.00088501,-6947138.786315918,-7601387.500762939,-3040263.6528015137,-691141.3669586182,5016159.0576171875,6274682.998657227,8147307.395935059,-8755388.259887695,-15504685.401916504,-102458.13429355621,4741593.360900879,4977433.204650879
0.185,5219437.122344971,23801334.381103516,37498371.12426758,2226430.892944336,23505426.40686035,-29076795.57800293,543199.1219520569,1398379.0874481201,1569004.2972564697,14746119.499206543,15885227.20336914,21389318.466186523,20778621.673583984,27111356.735229492,-23955202.102661133,-8484027.862548828,-1213332.8914642334,6526659.965515137,12276301.383972168,11566622.734069824,12891238.21258545,17145082.473754883,6794119.834899902,-26155731.201171875,-6404784.202575684,2056692.123413086,7655612.945556641,343410.7303619385,9931768.417358398,11701930.046081543,11114194.869995117,7364876.747131348,-21963506.6986084,-19125583.64868164,-6574152.946472168,3795043.706893921,-186438.38167190552,4454017.162322998,8201825.141906738,8905482.292175293,6099717.617034912,-3794608.1161499023,-5705165.386199951,-6576155.662536621,-5414297.580718994,-251475.0063419342,3737984.6572875977,5398012.638092041,5181762.218475342,5605130.672454834,-6313312.05368042,-6819944.381713867,-2598778.247833252,-556446.0754394531,3293603.6586761475,4523504.734039307,6305859.565734863,-11487770.080566406,-15263216.018676758,-2174466.848373413,3048068.046569824,3220167.1600341797
0.19,3658133.7451934814,22115371.704101562,36301906.58569336,1758799.5529174805,21218393.325805664,-25342277.52685547,-154770.3593969345,897923.8867759705,883954.0481567383,11745468.139648438,12926278.114318848,20098114.013671875,19494890.213012695,25959093.09387207,-19727098.46496582,-6705940.723419189,-550716.6981697083,6040609.836578369,11185645.10345459,10249387.741088867,11943174.362182617,16820955.276489258,6997730.255126953,-22457475.662231445,-3846712.112426758,3848984.0030670166,8593447.6852417,530927.1216392517,9485474.586486816,10779065.132141113,10563956.260681152,7523046.493530273,-18115898.13232422,-15707715.98815918,-3587828.3977508545,5499108.791351318,40941.547602415085,4641757.965087891,8006407.737731934,8475019.454956055,6221821.308135986,504439.5327568054,-2580047.369003296,-4001877.784729004,-3766347.4082946777,47589.87948298454,4003166.1987304688,5583122.253417969,5226745.128631592,5815890.789031982,-4618066.310882568,-5076066.493988037,-348972.02253341675,-375133.8720321655,3686678.647994995,4875577.449798584,6576869.010925293,-10109717.36907959,-14251183.50982666,-863704.1449546814,3559242.010116577,3570607.6622009277
0.195,1516037.940979004,20790575.02746582,37084598.541259766,1328837.6331329346,20905626.29699707,-27538215.63720703,-2538956.4037323,-1358289.0033721924,-1533015.1319503784,9659528.732299805,11036804.19921875,21503366.470336914,20716705.322265625,27822738.647460938,-17518028.259277344,-8100973.129272461,-3221494.436264038,3292865.514755249,10138497.352600098,9048695.56427002,12592960.357666016,19974697.11303711,9903231.620788574,-20103824.615478516,-4332541.942596436,3088105.9169769287,7018486.976623535,467344.0456390381,9764809.608459473,12255224.227905273,12049185.752868652,10476394.653320312,-16759010.314941406,-15651482.582092285,-2802216.2914276123,5037225.246429443,81297.50192165375,7036208.152770996,9960313.79699707,10339086.532592773,9040474.891662598,5936642.169952393,-1049514.2936706543,-3551258.8024139404,-3493021.7266082764,169575.67632198334,6634137.153625488,8551509.857177734,8169766.426086426,8729434.0133667,-3729369.640350342,-4235310.5545043945,1799484.8489761353,-315136.52205467224,6856414.318084717,7904388.904571533,9544159.889221191,-3598622.7989196777,-13026327.133178711,4049187.183380127,6860330.581665039,6795437.812805176
0.2,-2264725.44670105,17796365.73791504,36191738.12866211,1340372.3239898682,20260540.008544922,-33747703.552246094,-5678960.800170898,-4468833.446502686,-4554286.479949951,8006024.360656738,9541324.615478516,22219427.10876465,21260725.021362305,28396274.56665039,-19834068.298339844,-11675870.895385742,-7103239.059448242,306263.59581947327,9057549.476623535,8043136.5966796875,12885005.950927734,21932088.85192871,12690401.077270508,-21547433.853149414,-8036170.959472656,792864.0246391296,4404842.376708984,233021.02088928223,9925473.2131958,14037691.116333008,13395915.031433105,13417813.301086426,-19206192.016601562,-18179664.611816406,-4433581.829071045,3370691.0610198975,-61020.3854739666,9548470.497131348,12160903.930664062,12727371.215820312,11898221.969604492,8149839.401245117,-1632398.9629745483,-5082516.670227051,-4483796.119689941,49505.54668903351,9295654.296875,11613243.103027344,11358127.59399414,11759796.142578125,-3689091.444015503,-4190693.8552856445,2556506.633758545,-351165.7416820526,10010135.650634766,10903386.116027832,12464785.5758667,2869965.3148651123,-11663179.397583008,8828956.604003906,10087272.644042969,10101619.720458984
0.205,-4299518.10836792,15215550.422668457,33994556.42700195,1600090.0268554688,19337850.57067871,-34967796.325683594,-6052330.97076416,-4916482.925415039,-4756260.395050049,7402316.093444824,8903828.620910645,20968627.9296875,20008712.768554688,25873073.57788086,-22038927.07824707,-12646254.539489746,-7735499.858856201,1111.3348882645369,8304700.85144043,7507244.110107422,11777834.89227295,20120494.842529297,12950302.124023438,-23487010.955810547,-10361587.524414062,292803.3173084259,3526384.8304748535,58697.00387120247,9223043.441772461,13853664.39819336,12804543.495178223,13830727.577209473,-21317319.869995117,-18897487.64038086,-5726466.655731201,2621546.0300445557,-234429.2402267456,9962124.824523926,12503492.35534668,13351974.487304688,12333073.616027832,7491168.49899292,-2002963.3045196533,-5635673.999786377,-4953190.326690674,-151441.20156764984,9708010.67352295,12179282.188415527,12101265.907287598,12375192.642211914,-3008394.718170166,-3382137.2985839844,2264466.7625427246,-336814.16511535645,10505577.087402344,11432631.492614746,12925152.778625488,4083185.6727600098,-10162687.301635742,10041797.637939453,10578176.498413086,10704405.784606934
0.21,-583461.9998931885,17513017.654418945,35211669.921875,1652923.1071472168,21212722.778320312,-27075441.360473633,-1978897.6907730103,-1037260.5323791504,-755482.6140403748,9548258.781433105,10933781.623840332,20703187.942504883,19907341.00341797,24182260.513305664,-19223230.361938477,-8878187.17956543,-4174269.199371338,2617520.0939178467,8625202.178955078,7972529.888153076,10905209.5413208,17750761.032104492,11702184.677124023,-22135723.114013672,-8298266.410827637,2441982.2692871094,5023692.607879639,61584.118753671646,8231018.06640625,12403294.563293457,11381134.986877441,12605650.901794434,-19512456.8939209,-16133476.257324219,-5162941.932678223,3168169.9752807617,-337819.1590309143,8605305.671691895,11283752.44140625,12242420.196533203,11120056.15234375,7188154.220581055,-976670.7420349121,-4072752.4757385254,-4304092.4072265625,-283674.4785308838,8379247.665405273,10836816.787719727,10905064.582824707,11140672.68371582,-1367128.7298202515,-1586696.2671279907,1704960.584640503,-299764.4543647766,9018761.63482666,10218051.91040039,11710247.039794922,917432.5466156006,-9006402.015686035,8194361.686706543,9035980.224609375,9175268.173217773
0.215,6846882.8201293945,24022605.895996094,40648494.720458984,1495346.0693359375,26152565.002441406,-17141778.94592285,3371933.2218170166,4055521.9650268555,4272079.944610596,13940326.690673828,15315342.903137207,23329584.1217041,22746370.315551758,26276517.868041992,-13657551.765441895,-4054061.4128112793,-283560.3058338165,5489844.799041748,10101117.134094238,9428235.054016113,11888558.387756348,18356512.06970215,10930702.209472656,-19052339.553833008,-4664448.7380981445,4646264.07623291,7044835.567474365,78390.74730873108,8076095.5810546875,11829756.736755371,11103948.593139648,11718689.918518066,-15862620.35369873,-13013270.378112793,-4316924.571990967,3650696.039199829,-454183.6082935333,7196396.350860596,10162229.537963867,11031924.2477417,10187084.197998047,8104224.20501709,-298870.83172798157,-2663193.2258605957,-3881420.612335205,-389298.6476421356,7091570.854187012,9521940.231323242,9696519.85168457,9948511.123657227,-694641.7689323425,-864452.7196884155,757472.8727340698,-438062.01219558716,7666929.244995117,9104918.479919434,10668650.62713623,-2327261.447906494,-9082419.395446777,5870920.658111572,7608817.577362061,7663885.116577148
0.22,10756583.213806152,27478820.80078125,43456699.37133789,1540559.2918395996,28812852.85949707,-14177490.234375,5153789.043426514,5681456.565856934,5813203.811645508,16619653.701782227,18012916.564941406,25562902.450561523,25098537.44506836,28054607.391357422,-11350723.266601562,-2858674.0493774414,309209.07855033875,6216871.738433838,11421851.15814209,10657266.616821289,13396059.9899292,19991931.915283203,10211554.527282715,-18461385.72692871,-3921719.551086426,4816796.779632568,7879981.517791748,-67828.99051904678,8778832.43560791,12252708.435058594,11671579.360961914,10886149.406433105,-14869975.090026855,-12541039.46685791,-4881372.451782227,3391962.5282287598,-648014.8434638977,6252758.026123047,9667527.198791504,10423221.588134766,9397847.175598145,8180679.3212890625,-1413678.526878357,-3255767.583847046,-4529428.482055664,-536819.1599845886,6177603.244781494,8416160.583496094,8662846.565246582,8920731.544494629,-2249720.811843872,-2507275.5813598633,-750721.5142250061,-747115.4928207397,6726483.345031738,8033548.355102539,9689709.663391113,-4295591.354370117,-10407043.45703125,4123390.6745910645,6576979.637145996,6535452.842712402
0.225,7429802.417755127,22944622.039794922,37976375.579833984,1896887.183189392,24831571.578979492,-17425655.364990234,2612400.531768799,3220204.5917510986,3307865.1428222656,14485012.05444336,15672951.698303223,23418264.389038086,22894262.313842773,23954555.51147461,-13159587.860107422,-4893519.401550293,-1483601.2125015259,5093571.662902832,11081872.940063477,10283673.286437988,12920927.047729492,18584371.56677246,8260294.9142456055,-20406059.26513672,-5779795.6466674805,4139657.497406006,7780431.747436523,-239665.28475284576,9264733.31451416,12029555.320739746,11347273.826599121,8974140.167236328,-16868228.912353516,-13282389.640808105,-5737667.083740234,3268024.9214172363,-739686.131477356,5262006.2828063965,9219315.528869629,9928064.346313477,7703392.98248291,6874599.933624268,-2506713.8671875,-4235952.377319336,-5073280.334472656,-605766.9520378113,5026566.028594971,6774384.498596191,7075597.763061523,7246499.538421631,-3901156.187057495,-4333445.5490112305,-1729780.5547714233,-886101.3054847717,5327054.023742676,6213139.057159424,7910837.173461914,-6303528.785705566,-11169700.622558594,2807540.17829895,5084257.60269165,5014637.9470825195
0.23,1601300.597190857,15158211.708068848,29256837.844848633,2124260.425567627,18117145.538330078,-19117650.985717773,-129203.72188091278,724740.207195282,706709.7425460815,9968805.313110352,10769577.026367188,18983835.220336914,18301698.684692383,16535982.131958008,-14064730.644226074,-5799951.076507568,-2236619.710922241,4216436.862945557,9526751.518249512,8770581.245422363,10828699.111938477,15108269.691467285,6207657.337188721,-20636741.638183594,-6154302.597045898,4876891.613006592,7990804.195404053,-182210.68382263184,9051027.297973633,10933917.045593262,10133613.586425781,7085579.395294189,-17909147.262573242,-12042065.620422363,-4640586.376190186,3971123.695373535,-521357.7151298523,4476289.749145508,8779086.112976074,9458823.204040527,6010206.699371338,6849905.967712402,-1021549.1056442261,-3207628.4885406494,-4365449.42855835,-451344.96688842773,4063953.399658203,5402094.841003418,5769132.137298584,5742732.048034668,-2774900.6748199463,-3387477.397918701,-1114159.5840454102,-621665.4181480408,4023225.784301758,4702129.364013672,6310678.482055664,-7555587.291717529,-9618980.407714844,2730640.411376953,3741859.9128723145,3752446.6514587402
0.235,346327.69227027893,12767210.006713867,27580793.380737305,1908954.5011520386,16729240.417480469,-16413095.474243164,550538.4802818298,1587137.8183364868,1419693.112373352,8524710.655212402,9172026.634216309,18146780.014038086,17434122.08557129,14083492.279052734,-11084510.803222656,-3619757.4138641357,-912795.6628799438,4796276.092529297,8913358.688354492,8186728.477478027,9994628.90625,14474864.959716797,6174876.689910889,-17281576.15661621,-3733743.906021118,6861610.889434814,8772356.033325195,2116.3206547498703,8790313.720703125,10471477.508544922,9654890.060424805,7142638.206481934,-15852411.270141602,-9079486.846923828,-1922191.9775009155,4718930.244445801,-165882.27450847626,4550566.19644165,8691606.521606445,9352806.091308594,6023163.318634033,9813073.15826416,2044588.8042449951,-1082859.1585159302,-3521492.0043945312,-227567.4045085907,4095301.1512756348,5615852.355957031,6024631.977081299,5832524.77645874,77211.70783042908,-619205.2364349365,-50105.70213198662,-250443.04132461548,4040269.374847412,5010090.8279418945,6385198.11630249,-5613941.669464111,-6995909.214019775,4603250.980377197,3832422.0180511475,3974878.7879943848
0.24,4034451.961517334,16654083.251953125,33874752.044677734,1602869.3914413452,21545064.92614746,-14011433.601379395,3237385.5113983154,4254282.474517822,4062502.384185791,11182977.676391602,12123525.619506836,21488510.131835938,20988994.598388672,18199367.52319336,-7321180.34362793,-1248804.6884536743,166093.8560962677,5798385.6201171875,9932059.288024902,9156533.241271973,10995174.407958984,17184169.76928711,7288789.749145508,-13807031.631469727,-1990190.1483535767,7706447.601318359,8962126.731872559,-84454.93876934052,8672490.119934082,10711194.038391113,9865971.565246582,8150052.070617676,-13287095.069885254,-7777190.685272217,-552525.5799293518,4425120.830535889,-119730.66627979279,4784436.7027282715,8259558.67767334,8980834.9609375,6880003.452301025,13119247.436523438,3141084.4326019287,-897817.075252533,-4403833.866119385,-275536.2093448639,4321218.490600586,6385804.176330566,6707165.718078613,6556630.611419678,832683.265209198,207839.08665180206,-658019.1254615784,-285007.9834461212,4569911.003112793,5936548.233032227,7086148.738861084,-1648493.5283660889,-6593418.121337891,6657266.616821289,4537197.589874268,4708024.501800537
0.245,6622198.104858398,19065719.604492188,37538619.99511719,1727234.2443466187,24368247.985839844,-15108823.776245117,3741618.3948516846,4635566.711425781,4542329.788208008,12869384.765625,14167813.301086426,22468952.178955078,22227993.01147461,20520486.83166504,-6586947.917938232,-1939575.6721496582,-1009552.7172088623,5347184.658050537,10290782.928466797,9457394.59991455,10578686.714172363,17378053.665161133,6450786.113739014,-13822887.420654297,-3740415.096282959,6108615.875244141,7534849.166870117,-521291.67318344116,7578215.1222229,9480187.41607666,8526476.860046387,7145403.861999512,-13209981.918334961,-9489547.729492188,-2256657.123565674,3366457.223892212,-508543.37215423584,3745213.031768799,6383700.370788574,7221035.957336426,5939866.542816162,13039177.894592285,1288550.615310669,-3179355.1445007324,-6607316.970825195,-639714.0026092529,3205361.1278533936,5315848.350524902,5410399.913787842,5475083.827972412,-1219719.648361206,-1704765.4390335083,-2680465.6982421875,-760231.4352989197,3524127.721786499,4796537.399291992,5949932.57522583,-506029.3674468994,-9301543.235778809,6198275.089263916,3679004.669189453,3696112.871170044
0.25,4147803.783416748,14802323.341369629,31396461.486816406,2160555.124282837,19546787.26196289,-16988756.17980957,847358.1671714783,1711713.6716842651,1603245.735168457,9789720.53527832,11016899.108886719,17082279.205322266,16837440.490722656,14937708.854675293,-7963467.121124268,-4868621.349334717,-3462479.591369629,3213306.9038391113,8042529.106140137,7304125.3089904785,6756742.000579834,11720663.070678711,3339635.3721618652,-16163299.560546875,-6987616.062164307,3547916.889190674,5230145.9312438965,-830038.0110740662,5017405.986785889,6071307.182312012,5029484.748840332,4037708.282470703,-14864805.221557617,-11783966.064453125,-5217776.298522949,2825544.1188812256,-910879.909992218,1801537.1561050415,3802664.279937744,4686645.5078125,3114408.9698791504,10017540.93170166,-784038.4244918823,-5330325.603485107,-7944890.975952148,-931020.975112915,1232598.900794983,2591307.4016571045,2486619.234085083,2724544.048309326,-2841409.921646118,-3289414.167404175,-3835761.308670044,-1154206.7527770996,1088237.2856140137,1799208.0450057983,3214436.0542297363,-4166790.9622192383,-12478882.789611816,3452047.824859619,1333201.289176941,1160761.3563537598
0.255,-533996.4032173157,8278688.430786133,22355760.57434082,2274401.1878967285,12554923.057556152,-17376222.610473633,-2229662.4183654785,-1251145.2436447144,-1573746.0851669312,5383660.316467285,6207348.823547363,10754651.069641113,10229930.877685547,7159684.181213379,-8283359.527587891,-6827970.9815979,-4893160.820007324,1330696.5827941895,5184600.353240967,4752858.638763428,2840986.490249634,5560614.585876465,1404480.5765151978,-17457639.694213867,-8283773.422241211,2293228.3878326416,4026206.9702148438,-585863.9478683472,2827862.501144409,3366372.1084594727,2332291.841506958,2284998.4169006348,-15933207.511901855,-12451431.274414062,-6584856.033325195,3335584.6405029297,-902006.983757019,1097642.7793502808,2813333.034515381,3650317.1920776367,1501431.8227767944,7897921.085357666,-1155067.6822662354,-5815896.511077881,-7750367.641448975,-826548.8743782043,644547.8796958923,1229887.7239227295,1109995.4843521118,1368137.8364562988,-2661438.9419555664,-3187880.277633667,-3684221.9829559326,-1080175.0421524048,-56406.95616602898,259728.49130630493,1957473.3972549438,-8757839.20288086,-14033398.628234863,1445311.7847442627,130939.90087509155,-64165.6294465065
0.26,-2250972.032546997,6757553.1005859375,21521480.560302734,1835601.0913848877,12392051.696777344,-18463422.775268555,-2195731.6398620605,-1091319.6802139282,-1580387.9499435425,5658805.370330811,6268441.677093506,11040624.618530273,10262584.686279297,6338200.569152832,-7143946.647644043,-6665109.157562256,-4596433.639526367,1538409.8291397095,5380124.568939209,5294477.939605713,3256927.490234375,5696783.065795898,2675326.5857696533,-17265031.814575195,-7773720.264434814,2710396.7666625977,4835335.254669189,-42687.94506788254,3170869.827270508,4039750.576019287,3052910.089492798,3678052.6638031006,-16548614.501953125,-12477834.701538086,-6024345.397949219,4094121.4561462402,-607394.7548866272,2361711.7404937744,4060999.3934631348,4868204.116821289,2720868.3490753174,8378551.483154297,-1301496.6249465942,-6130919.933319092,-7602989.673614502,-515064.5971298218,1991979.1221618652,2567734.718322754,2579471.3497161865,2782690.7634735107,-3454229.8316955566,-3976863.145828247,-4255117.893218994,-776187.7179145813,1187536.0012054443,1665707.5881958008,3432734.727859497,-9991848.945617676,-14899446.487426758,1793709.5165252686,1242777.4667739868,1158621.6688156128
0.265,-11466.849595308304,10255819.320678711,28026323.318481445,1293214.3211364746,18579444.885253906,-21127155.303955078,337841.8982028961,1448880.0764083862,1053741.8127059937,10455548.286437988,11186649.322509766,16314764.022827148,15515042.304992676,11051870.346069336,-6476912.498474121,-5961673.259735107,-3664632.3204040527,3308928.0128479004,8474294.662475586,8510380.744934082,6785018.9208984375,9972307.205200195,4457758.903503418,-17731594.08569336,-8131642.3416137695,3267593.3837890625,6326570.510864258,157499.4921684265,5259741.78314209,6294399.738311768,5342872.619628906,5344116.2109375,-18285795.211791992,-13496497.15423584,-5451313.495635986,4165646.0762023926,-480440.3483867645,3482062.816619873,5257993.698120117,6074674.606323242,4217352.390289307,9117431.640625,-2690484.2853546143,-7574540.615081787,-8389373.779296875,-423378.7953853607,2950634.002685547,3974220.037460327,4152188.777923584,4265902.519226074,-6438448.905944824,-6757168.292999268,-5899538.993835449,-714405.2982330322,2365250.587463379,3250508.5468292236,4878444.194793701,-8582799.911499023,-15907426.834106445,2906966.4478302,2385196.2089538574,2335200.786590576
0.27,2687386.989593506,12324891.090393066,30556251.525878906,1083060.0261688232,21865810.39428711,-21119295.120239258,2067954.3018341064,3073188.543319702,2896813.154220581,13447824.478149414,14206704.139709473,17713026.04675293,17006586.0748291,11247125.625610352,-6867939.9490356445,-6104369.163513184,-3207337.1410369873,4353241.920471191,10170698.165893555,10023959.159851074,7792951.1070251465,9993352.890014648,3291918.5161590576,-19488023.75793457,-9961003.303527832,2694623.7087249756,6566634.654998779,-189659.53588485718,6023118.019104004,6134704.113006592,5231025.695800781,3929345.8461761475,-20535547.256469727,-14639529.22821045,-5956795.215606689,3599381.446838379,-661637.3658180237,2418044.5671081543,4248775.482177734,4984414.100646973,2993263.7214660645,7842171.669006348,-3675547.8382110596,-8702337.265014648,-8778183.937072754,-602382.1234703064,1593421.459197998,2650286.4360809326,3030475.13961792,2938855.6480407715,-7790142.53616333,-7889208.793640137,-5795031.547546387,-918980.6580543518,1012760.8776092529,2065193.6531066895,3483588.218688965,-7968480.587005615,-15325757.026672363,2936183.214187622,1194099.9031066895,1062933.4449768066
0.275,2671862.6022338867,9322603.225708008,23918333.053588867,1086410.403251648,17330413.818359375,-15673257.827758789,1093589.7827148438,1967310.5478286743,1889354.8250198364,10700480.461120605,11086296.081542969,11755123.138427734,11091828.346252441,3299300.4322052,-7114467.144012451,-6708885.192871094,-3506176.710128784,3292217.016220093,7791861.057281494,7328854.560852051,4107066.1544799805,3398348.331451416,104302.66708135605,-20846115.112304688,-11276600.83770752,1295953.5121917725,5320000.648498535,-626490.5333518982,4125458.7173461914,3067362.5469207764,2212612.6289367676,607800.1260757446,-20993913.650512695,-14143371.58203125,-6668678.760528564,3054099.3213653564,-849837.3627662659,186225.48878192902,2028167.2477722168,2562454.4620513916,85087.81343698502,5670631.408691406,-2284704.2083740234,-7863605.499267578,-7666133.880615234,-677558.0048561096,-758788.7048721313,-209939.55433368683,436132.2224140167,54605.27539253235,-4538784.027099609,-4653468.608856201,-2590171.3371276855,-970001.3995170593,-1627527.4753570557,-677178.9789199829,521370.5897331238,-9011682.510375977,-12188695.907592773,2427703.1421661377,-1225665.56930542,-1353897.213935852
0.28,586371.6006278992,4765797.6150512695,16082431.79321289,1023808.9561462402,10687674.522399902,-9115776.062011719,-1228884.3393325806,-461839.6759033203,-560270.1902389526,5428269.386291504,5345450.878143311,4955027.103424072,4348755.836486816,-4632210.254669189,-6435821.056365967,-6825401.782989502,-4334112.644195557,1101955.8906555176,3781894.4454193115,3071542.739868164,-119193.50922107697,-2748127.4604797363,-1245603.322982788,-20704452.514648438,-11046196.937561035,198813.69173526764,3984982.2521209717,-672545.4330444336,1535413.7420654297,629381.6566467285,-244032.1296453476,-644844.4128036499,-19433416.36657715,-12544808.387756348,-6637735.843658447,2788674.3545532227,-792378.9024353027,-553934.3953132629,1239624.0234375,1650981.3070297241,-981823.4443664551,4896244.525909424,-96198.94623756409,-6317633.152008057,-6369541.168212891,-442229.15172576904,-1374864.935874939,-1149239.5401000977,-313508.4807872772,-830800.2352714539,-397759.94420051575,-706047.534942627,282932.19208717346,-646729.7077178955,-2344965.696334839,-1488735.556602478,-506078.48167419434,-9775940.895080566,-9458552.360534668,2916189.432144165,-1921644.8068618774,-1883353.590965271
0.285,-314849.3468761444,4057847.499847412,16656126.022338867,993414.1635894775,9791940.689086914,-7111061.096191406,-2197238.2068634033,-1499741.554260254,-1584182.1432113647,3144849.5388031006,2977988.4815216064,4441855.430603027,4022490.0245666504,-4210562.705993652,-4930534.362792969,-6181031.227111816,-5076965.33203125,-134244.11416053772,2234457.25440979,1383104.8011779785,-349678.30777168274,-1933627.1286010742,602290.8687591553,-19811618.80493164,-10480587.005615234,73025.47246217728,3635660.171508789,-405104.48813438416,687294.7812080383,1326409.935951233,369187.8914833069,1429965.1384353638,-18356414.794921875,-12008001.327514648,-6274329.662322998,2534894.4664001465,-620310.9622001648,930414.9150848389,2612308.0253601074,3135811.5673065186,895663.1422042847,5496271.133422852,-431115.12064933777,-6581930.160522461,-6882400.035858154,-197178.6618232727,267472.0883369446,805594.801902771,1551341.0568237305,1194173.812866211,-1172493.1001663208,-1562633.991241455,-1251868.3671951294,-268848.6576080322,-353444.57626342773,504367.7091598511,1379995.8229064941,-9288052.558898926,-10584980.010986328,4316089.153289795,-149212.70310878754,-11643.609032034874
0.29,1849863.886833191,7913152.21786499,24750036.239624023,1232984.0660095215,14741457.93914795,-9135985.374450684,-804863.691329956,-117639.2138004303,-136723.41406345367,5084845.066070557,5223234.176635742,9200177.192687988,8973816.871643066,2466331.720352173,-2811540.126800537,-5103847.503662109,-4944045.543670654,582040.8463478088,4006743.4310913086,3065587.5205993652,2849820.137023926,3817780.7331085205,3225610.7330322266,-19028375.62561035,-10605876.922607422,798540.6517982483,4096028.3279418945,-246215.90971946716,1759701.2519836426,3814898.96774292,2806671.380996704,4217993.73626709,-19453393.936157227,-13236597.061157227,-6255640.029907227,2216332.9124450684,-591206.8486213684,2865067.0051574707,4521782.398223877,5258657.932281494,3390997.886657715,5790011.882781982,-3622729.539871216,-8791524.887084961,-9062747.00164795,-312298.62570762634,2232435.703277588,3314659.833908081,3734097.719192505,3631695.9857940674,-6588195.80078125,-6859645.843505859,-6330554.485321045,-274848.5207557678,2027531.623840332,2871416.8071746826,3866720.9148406982,-8797089.576721191,-14637954.711914062,5003415.584564209,2043483.2572937012,2009359.1213226318
0.295,4955596.446990967,12131817.817687988,31930694.580078125,1589951.753616333,19362016.677856445,-11587600.708007812,1076633.4533691406,1823327.7797698975,1828770.637512207,8002120.018005371,8429252.624511719,13233395.57647705,12975610.733032227,7305427.074432373,-1092880.368232727,-4379032.611846924,-4125336.6470336914,2209342.7181243896,6666975.021362305,5701678.276062012,5759635.925292969,8241384.506225586,4166610.7177734375,-18370983.123779297,-10961894.035339355,1716192.126274109,4745366.57333374,-382214.4567966461,3314535.8562469482,5531966.686248779,4550988.19732666,5138530.254364014,-21582391.7388916,-15050684.928894043,-6249603.748321533,2188037.633895874,-730766.4155960083,3565885.066986084,5488027.572631836,6306427.955627441,4222383.975982666,5360564.708709717,-6754195.213317871,-10872244.834899902,-11070469.856262207,-676004.3501853943,2878839.4927978516,4147108.0780029297,4304366.111755371,4257693.290710449,-11300631.523132324,-11483160.972595215,-10595115.661621094,-660211.1458778381,2653986.4540100098,3465461.015701294,4740549.564361572,-9525866.508483887,-18086427.688598633,3886647.2244262695,2735234.498977661,2439897.5372314453
0.3,5032475.94833374,12514827.728271484,32880081.176757812,1685747.742652893,19362764.358520508,-14006838.79852295,723515.7489776611,1547426.8198013306,1529205.2030563354,8547955.513000488,8983043.670654297,13411602.020263672,12928410.530090332,6633137.226104736,-1458364.1290664673,-4812365.0550842285,-4076109.8861694336,2721113.443374634,7724322.319030762,6838446.140289307,6220267.772674561,8638936.042785645,3540783.8821411133,-17783720.016479492,-10996300.69732666,2036506.175994873,5230133.056640625,-616566.002368927,4064437.8662109375,5613822.460174561,4687918.663024902,4345289.707183838,-22593938.82751465,-16214683.532714844,-5628720.760345459,2629714.012145996,-881986.8564605713,3124377.0122528076,5428628.444671631,6183286.190032959,3530538.0821228027,5412061.2144470215,-7529489.040374756,-11501685.14251709,-11764952.659606934,-857923.3288764954,2390596.866607666,3449804.5444488525,3616819.6201324463,3421075.1056671143,-12352179.527282715,-12641769.409179688,-11698806.762695312,-1013121.3665008545,1764599.4424819946,2613800.525665283,4101322.1740722656,-11001192.092895508,-19681026.458740234,1687564.1345977783,2012119.2932128906,1728623.7478256226
0.305,1573873.8775253296,9035581.588745117,28991262.435913086,1503114.7003173828,15722111.701965332,-16452423.095703125,-1972116.231918335,-1129166.2454605103,-1181964.1590118408,6231002.330780029,6492603.778839111,10893596.649169922,10281233.787536621,2883386.8503570557,-3275039.4344329834,-5817051.410675049,-5409829.616546631,1289429.3069839478,6497591.972351074,5690772.533416748,4514087.200164795,6262909.412384033,2610218.5249328613,-17144409.1796875,-10739091.873168945,1562016.9639587402,5301686.763763428,-716817.2597885132,3306847.095489502,4402780.532836914,3532643.0797576904,3286878.5858154297,-21530687.33215332,-15899525.64239502,-4741665.363311768,3106726.64642334,-954297.8405952454,2457390.069961548,4676527.500152588,5371822.834014893,2591370.3441619873,6607923.984527588,-6119333.744049072,-10904814.720153809,-11312646.865844727,-724719.9416160583,1706967.2346115112,2510952.949523926,2845063.6863708496,2530665.874481201,-11043168.067932129,-11478167.533874512,-10550636.291503906,-1027241.4684295654,803167.462348938,1683884.1438293457,3179425.001144409,-11778955.459594727,-20156280.517578125,396205.27625083923,1012827.1579742432,1064894.676208496
0.31,-985183.1197738647,5533761.501312256,24277906.41784668,1368290.5435562134,11816946.983337402,-15266833.305358887,-3927983.7608337402,-3137677.6695251465,-3278050.8995056152,3181557.6553344727,3317652.2254943848,7794678.211212158,7305803.7757873535,-773477.6139259338,-2877564.1918182373,-5352191.925048828,-6447116.851806641,-637512.6838684082,4037589.0731811523,3114150.7625579834,1861090.064048767,2678399.5628356934,1867947.5784301758,-15822688.102722168,-9973554.611206055,1010730.1473617554,4795848.846435547,-680351.9129753113,1209010.7202529907,2448268.8903808594,1643692.6126480103,2626848.4592437744,-19016668.31970215,-13516582.489013672,-4643659.591674805,2944300.651550293,-946999.4902610779,2043391.466140747,3507079.1244506836,4178882.122039795,1995452.5232315063,8084395.408630371,-3802287.5785827637,-9520771.980285645,-10222262.382507324,-572053.4324645996,1302653.7895202637,1996340.9900665283,2400998.35395813,2131397.247314453,-8829566.00189209,-9231823.921203613,-8460015.296936035,-796058.1183433533,526786.744594574,1262708.306312561,2650334.119796753,-10871112.823486328,-18891435.623168945,1445782.6614379883,500706.61306381226,881608.4861755371
0.315,921006.7987442017,5271152.019500732,21561428.07006836,1376326.2033462524,10050047.874450684,-8804206.848144531,-2875841.6175842285,-2165565.252304077,-2447903.633117676,2080059.0515136719,2250651.8363952637,5819542.407989502,5536409.854888916,-3088127.1362304688,1057481.4081192017,-2932905.1971435547,-5659591.6748046875,-1044381.9761276245,2465899.2290496826,1210571.2890625,87994.43393945694,-560667.9916381836,1256641.8647766113,-14105896.949768066,-8769674.301147461,956067.144870758,3957685.708999634,-625894.6657180786,-493791.8484210968,1096319.079399109,291301.04184150696,2253293.991088867,-17149089.813232422,-10309060.096740723,-5912772.178649902,1845097.0649719238,-834776.2227058411,1962831.0203552246,2770320.6539154053,3366812.229156494,1677791.2378311157,8500970.840454102,-2108450.174331665,-8056258.201599121,-9213474.27368164,-622622.6687431335,1236223.1016159058,1863324.1653442383,2161987.781524658,2023960.5903625488,-6402477.264404297,-6673768.043518066,-6319157.123565674,-596700.6683349609,721109.4498634338,1184129.238128662,2511671.0662841797,-8682455.062866211,-15217432.975769043,3917659.044265747,574191.4510726929,984057.3072433472
0.32,4434291.839599609,7037795.543670654,21424850.463867188,1282802.2241592407,10602331.161499023,-3749548.4352111816,-917979.2404174805,-285511.5234851837,-592818.3794021606,3541523.9334106445,3851375.8182525635,6273039.3409729,6042675.971984863,-3539613.723754883,3750140.905380249,-1558794.7368621826,-4724815.368652344,-141864.98522758484,3280652.5230407715,1728725.6717681885,959806.7998886108,-1188524.3654251099,888582.2296142578,-14373622.89428711,-8775267.601013184,598310.2917671204,3190061.569213867,-595723.9270210266,326799.3628978729,1987939.715385437,999543.1900024414,2016595.8404541016,-18582201.00402832,-9811582.565307617,-8222543.716430664,79371.6236948967,-625043.4517860413,2227174.0436553955,3413332.939147949,3919022.560119629,1547065.019607544,7172563.552856445,-2763258.934020996,-8219079.01763916,-9383903.503417969,-712840.19947052,1446595.4303741455,1895886.3019943237,2052323.341369629,2022762.2985839844,-6126307.010650635,-6415328.502655029,-5800079.822540283,-542531.9671630859,883733.332157135,1191027.4028778076,2540401.6971588135,-7105772.018432617,-11963038.444519043,5015922.069549561,879043.9963340759,1071222.9013442993
0.325,4043308.734893799,7088190.55557251,22447658.53881836,1045037.2695922852,11894810.676574707,-7402005.195617676,-1844352.6029586792,-1270931.0054779053,-1366706.371307373,5383953.57131958,5792037.9638671875,8754746.437072754,8419027.328491211,-2004777.6699066162,272190.3324127197,-4097934.7229003906,-6594443.798065186,-232095.6438779831,5474100.589752197,3911110.1627349854,4022497.1771240234,1406848.7882614136,864823.9374160767,-18256740.57006836,-11594392.776489258,-1247235.894203186,2476884.126663208,-563133.7761878967,3371334.0759277344,4774100.303649902,3493412.494659424,1847285.6283187866,-23597064.971923828,-13896488.189697266,-10659726.1428833,-1660262.4654769897,-484168.5891151428,2640205.3833007812,5057488.918304443,5623230.934143066,1533366.084098816,4519229.412078857,-6029693.603515625,-11021682.739257812,-11027111.053466797,-624816.1792755127,1721647.6202011108,1884340.4054641724,2016929.8648834229,2045904.6363830566,-10303874.969482422,-10765652.656555176,-8069151.878356934,-540201.1871337891,770367.5627708435,1147302.269935608,2497035.7418060303,-8104185.104370117,-13125487.327575684,3162569.999694824,939618.8855171204,904838.3235931396
0.33,173377.72250175476,4980677.604675293,22876033.782958984,1031677.0076751709,12510107.040405273,-15185752.868652344,-5140123.36730957,-4549746.990203857,-4414467.334747314,5498878.955841064,5882205.009460449,10953401.565551758,10525197.982788086,479066.93816185,-5925477.504730225,-8211779.594421387,-10463963.508605957,-2145851.8505096436,6530287.742614746,5199455.738067627,6444006.91986084,4471138.000488281,1104323.2679367065,-22685392.379760742,-15369357.109069824,-3690269.947052002,1761031.7468643188,-525779.1876792908,5699279.308319092,6933660.03036499,5523775.577545166,1806619.7633743286,-28084472.65625,-18871627.807617188,-11906888.008117676,-2493242.2637939453,-572830.7366371155,2858077.28767395,6220959.663391113,7009698.867797852,1609134.554862976,2307277.4410247803,-9070511.817932129,-14334536.5524292,-12602286.338806152,-452924.10254478455,1863105.058670044,1841554.2840957642,2060993.9098358154,2100100.517272949,-16356626.510620117,-16881374.35913086,-11241040.229797363,-490930.6466579437,620088.517665863,1157108.4260940552,2408993.2441711426,-11293936.729431152,-17712961.196899414,221373.64745140076,734568.71509552,575614.1543388367
0.335,-719510.7936859131,4767462.730407715,22937301.635742188,1449008.1071853638,13044505.11932373,-15004488.945007324,-5773509.502410889,-5053650.379180908,-4992350.101470947,5039344.787597656,5389142.036437988,11528399.467468262,11121722.221374512,2556757.4501037598,-6012407.302856445,-8219624.5193481445,-11629601.47857666,-3297984.6000671387,5955842.4949646,4863328.93371582,6493296.6232299805,5112597.465515137,1499601.7217636108,-22169019.69909668,-15696928.024291992,-3890235.9008789062,1778391.2420272827,-496399.1045951843,5366165.637969971,6882417.20199585,5644181.251525879,2074611.6638183594,-27141218.185424805,-18840997.69592285,-10746723.175048828,-1863985.6576919556,-758802.592754364,2741649.1508483887,6135914.8025512695,7079639.911651611,1830111.2651824951,2690052.9861450195,-8407546.997070312,-14545200.34790039,-12315319.061279297,-409393.69797706604,1875495.9106445312,1990496.5162277222,2270398.3783721924,2275213.0031585693,-18396806.716918945,-18735286.712646484,-12014597.89276123,-425780.5049419403,795062.005519867,1424250.0066757202,2537832.260131836,-13606967.92602539,-20202892.303466797,-639235.4369163513,698243.2007789612,469088.67359161377
0.34,4106462.9554748535,8617674.827575684,23956592.559814453,1897248.387336731,14788209.915161133,-4642841.339111328,-1242664.4563674927,-383931.9050312042,-647217.5121307373,6692094.326019287,7185681.343078613,11593996.047973633,11261410.7131958,3594192.5048828125,1939581.9902420044,-2795021.7723846436,-7694802.761077881,-976344.8238372803,6062659.740447998,5113729.476928711,5606614.112854004,3794619.560241699,1560123.6820220947,-16215105.056762695,-11367576.599121094,-721888.00573349,3443946.599960327,-446180.46283721924,3753831.8634033203,5642397.880554199,4690138.816833496,2240939.3787384033,-21431667.32788086,-13360666.275024414,-7367488.384246826,-190701.52938365936,-728326.0226249695,2231291.5325164795,5195023.536682129,6048402.786254883,1805287.7187728882,5657444.477081299,-4446687.2215271,-11218536.376953125,-10525135.99395752,-455656.58807754517,1579714.6558761597,2006250.8583068848,2230075.3593444824,2189948.558807373,-15007215.49987793,-15113583.5647583,-10122241.020202637,-440466.7913913727,907021.701335907,1505019.0687179565,2552897.4533081055,-12551880.836486816,-18095296.85974121,983888.0896568298,704710.0067138672,438095.74842453003
0.345,8744189.262390137,12330237.38861084,25074079.513549805,1807450.294494629,16718061.447143555,4153225.898742676,4119332.3135375977,4962175.369262695,4520099.16305542,10041694.641113281,10809384.3460083,12087969.779968262,11766419.410705566,3176117.420196533,9247109.413146973,2464763.402938843,-2435913.324356079,3387493.848800659,8243045.806884766,7451928.13873291,5682773.590087891,2628851.890563965,397841.215133667,-11298519.134521484,-6878312.587738037,2980480.909347534,6163028.717041016,-339373.0819225311,3127612.1139526367,4660989.284515381,3848192.2149658203,1220412.7311706543,-17317600.25024414,-8573157.31048584,-3976325.9887695312,1248719.573020935,-450867.8913116455,1143647.313117981,3764562.8452301025,4410006.523132324,675617.5756454468,8097867.965698242,-1447382.2116851807,-8043858.528137207,-9265182.495117188,-397943.8543319702,526008.0695152283,924483.2396507263,1050503.8499832153,972527.3251533508,-11526427.268981934,-11624713.897705078,-8571640.014648438,-548261.7616653442,-42106.89663887024,385114.2227649689,1459859.848022461,-9322783.470153809,-15094035.148620605,2431966.781616211,-158810.21320819855,-351655.60245513916
0.35,6671660.900115967,10784237.8616333,23867658.615112305,1169132.8287124634,16305753.707885742,1677999.9732971191,4370490.550994873,5066335.678100586,4770979.404449463,11538725.852966309,12428627.967834473,12108718.872070312,11697460.174560547,1316316.843032837,7754854.202270508,1940262.0792388916,-1439592.8382873535,5391579.627990723,10497939.109802246,9939026.832580566,6358715.534210205,2275418.281555176,-1704446.9118118286,-13241967.20123291,-7279281.6162109375,3433773.7560272217,7774389.266967773,-198003.27718257904,3587916.135787964,4084087.371826172,3236412.525177002,-898054.1825294495,-19438068.389892578,-9636506.080627441,-3174089.193344116,1454231.6198349,-285405.9338569641,-149774.14906024933,2193279.74319458,2779161.9300842285,-1314033.2698822021,6932892.799377441,-2478122.2343444824,-8358544.34967041,-9576166.152954102,-241693.1539773941,-937188.0888938904,-1126082.3011398315,-988130.1522254944,-1140937.089920044,-12984373.092651367,-13278817.176818848,-9209973.335266113,-632651.6270637512,-1890692.2340393066,-1716119.408607483,-605213.8209342957,-7497374.534606934,-15348124.504089355,1741452.5747299194,-1876087.0695114136,-1862213.8500213623
0.355,-16116.157174110413,5844661.712646484,20936748.504638672,544786.2148284912,13835164.070129395,-7394105.911254883,-468285.2625846863,193227.67853736877,101066.52230024338,9738388.061523438,10475431.442260742,11490427.97088623,10952216.148376465,-102643.98902654648,113864.86887931824,-3170553.9226531982,-5430958.7478637695,3060449.3618011475,10332062.721252441,9950455.665588379,6656675.338745117,2650072.8130340576,-2468389.2726898193,-19939260.482788086,-12079031.944274902,503711.1043930054,6780856.609344482,-88599.53284263611,4004067.4209594727,4162376.880645752,3250057.6972961426,-1792137.622833252,-25473915.100097656,-14733570.098876953,-5376614.570617676,624579.4296264648,-477601.557970047,-324169.3377494812,1870327.9495239258,2595759.391784668,-2037121.5343475342,2819250.3452301025,-6210445.404052734,-11397209.167480469,-10659236.907958984,-176665.91703891754,-1214159.0118408203,-2005074.7394561768,-1709559.3214035034,-1999467.6113128662,-18062896.728515625,-18512414.932250977,-10618453.025817871,-565027.9521942139,-2633548.7365722656,-2582633.9721679688,-1475183.606147766,-8935830.116271973,-18020326.614379883,-154590.60668945312,-2575280.6663513184,-2391113.519668579
0.36,-3825797.5578308105,4149927.1392822266,20030693.05419922,422095.4179763794,12801874.160766602,-11935832.977294922,-5045204.639434814,-4189750.1945495605,-4289262.294769287,7493771.553039551,8028944.969177246,12066842.079162598,11455588.340759277,1227097.3920822144,-4851274.490356445,-7240690.231323242,-10112537.384033203,-957616.9848442078,8316935.5392456055,7951692.1043396,7137586.59362793,4243760.585784912,-369010.68687438965,-24435243.606567383,-16318767.547607422,-2375467.7772521973,4053186.4166259766,-63074.79739189148,4340909.481048584,5864286.422729492,4938993.453979492,248455.76286315918,-29812005.9967041,-18215246.200561523,-8286410.331726074,-289114.47525024414,-778111.6366386414,1313282.9666137695,4024106.979370117,4868524.551391602,-99205.25550842285,-845252.4542808533,-9235190.391540527,-13886641.502380371,-11524680.137634277,-259671.83709144592,532485.4850769043,-219455.46567440033,252717.91219711304,-165268.9278125763,-21974044.799804688,-22416028.97644043,-10997560.501098633,-374635.9348297119,-1003438.2343292236,-788981.2588691711,322856.45604133606,-12255466.46118164,-19684923.17199707,-1561997.413635254,-986323.4162330627,-882736.2656593323
0.365,-2039371.9673156738,7627558.708190918,22031993.865966797,748867.392539978,14628620.147705078,-8667242.050170898,-5751860.14175415,-4741826.057434082,-4884647.846221924,7462915.897369385,7967434.883117676,14049677.848815918,13446699.142456055,3937475.2044677734,-3716527.223587036,-7404901.504516602,-11651551.246643066,-2972832.202911377,6740012.645721436,6345094.203948975,8147282.600402832,6138761.520385742,2226025.5813598633,-23592868.80493164,-16650756.8359375,-2597064.971923828,1860250.71144104,-159608.8409423828,4978694.915771484,8399631.50024414,7501343.250274658,2941854.953765869,-30259550.094604492,-17466901.779174805,-9160169.60144043,-724365.4131889343,-811512.7086639404,3045227.289199829,6959490.2992248535,7719118.118286133,2279128.7899017334,-2287652.2541046143,-9824240.684509277,-13932738.304138184,-12036481.857299805,-379466.56346321106,2359523.5347747803,2069532.6328277588,2599348.545074463,2150307.4169158936,-22656454.08630371,-23044845.581054688,-10755205.154418945,-272653.9969444275,938256.561756134,1421238.899230957,2576784.610748291,-15300863.265991211,-19521127.700805664,-2605224.609375,871291.2797927856,669877.290725708
0.37,992900.2523422241,11072300.910949707,22838964.462280273,1070857.4056625366,16073341.369628906,-3562968.2540893555,-4124779.70123291,-3360057.3539733887,-3214904.308319092,8188741.683959961,8718952.178955078,14173726.081848145,13605121.612548828,3537666.5592193604,-879204.5712471008,-5651797.294616699,-10274412.155151367,-2331878.185272217,6094784.736633301,5780790.328979492,7922203.063964844,5327458.85848999,1380107.045173645,-20609083.17565918,-14324019.432067871,-1061860.5613708496,1617961.1682891846,-398082.10730552673,4983742.713928223,8647159.576416016,7812493.324279785,2262446.165084839,-29049894.332885742,-14637187.957763672,-7475442.886352539,-862134.8142623901,-652400.4340171814,2310008.0490112305,7015458.583831787,7587906.360626221,1479081.5114974976,-2793732.4047088623,-8724448.204040527,-12309310.913085938,-12214394.569396973,-503387.0339393616,1458876.9674301147,1233215.2128219604,1673023.9391326904,1290815.830230713,-21977144.241333008,-22374996.185302734,-11240694.046020508,-435177.5050163269,-25740.347802639008,489318.69864463806,1671044.7072982788,-17485715.866088867,-19558019.638061523,-4364562.511444092,-205997.13921546936,-635349.1544723511
0.375,973114.7885322571,9928846.35925293,19510545.73059082,974538.6838912964,13909886.360168457,-2381663.5608673096,-3362506.628036499,-3184765.577316284,-2439728.260040283,6790990.352630615,7192553.520202637,10329991.340637207,9763628.005981445,-1199250.340461731,-874577.5818824768,-4799249.172210693,-8731119.155883789,-1157112.0023727417,5091532.7072143555,4892331.600189209,5043747.425079346,922907.3524475098,-2697800.1594543457,-19405469.89440918,-12520025.253295898,-324553.9367198944,2836040.97366333,-709477.7226448059,3304423.0937957764,5285668.37310791,4545417.785644531,-1731514.811515808,-28599220.275878906,-12857799.530029297,-5308912.754058838,-1041659.2359542847,-697324.9316215515,-656369.6265220642,3477312.3264312744,4009613.037109375,-2270670.175552368,-3680581.0928344727,-7605465.412139893,-10851010.3225708,-11837483.406066895,-690807.1041107178,-1792019.4864273071,-2518777.1320343018,-2276450.1571655273,-2524658.441543579,-22304094.314575195,-22684432.983398438,-12565694.808959961,-767467.6775932312,-3558984.9948883057,-3246778.964996338,-2093133.9263916016,-19016946.79260254,-20950223.922729492,-6480794.906616211,-3834217.071533203,-4175459.384918213
0.38,-1676894.187927246,5775826.930999756,14584549.903869629,444104.52246665955,9378108.024597168,-5020501.136779785,-4513689.994812012,-4787087.440490723,-3625677.5856018066,3311780.4527282715,3506373.167037964,5347097.873687744,4762691.020965576,-5836612.224578857,-2994629.383087158,-5333823.204040527,-9112408.638000488,-1441111.2070083618,3237968.4448242188,2982322.6928710938,1238792.061805725,-3313002.347946167,-5240679.740905762,-19792951.583862305,-12692261.695861816,-1511441.5884017944,3853019.7143554688,-903823.0776786804,938003.3016204834,1404544.472694397,724080.0261497498,-4353397.846221924,-28781663.89465332,-12937977.79083252,-5138890.266418457,-1297317.5048828125,-1006343.9607620239,-2561995.9831237793,187179.44622039795,871273.5772132874,-4589292.526245117,-3983709.3353271484,-7542790.88973999,-10612452.507019043,-11140332.221984863,-844489.7532463074,-3764386.8923187256,-4792171.478271484,-4801813.60244751,-4840308.18939209,-23807424.545288086,-24013574.600219727,-13653637.886047363,-962919.3544387817,-5640513.4201049805,-5406290.054321289,-4262205.600738525,-18973726.272583008,-22217025.756835938,-7047792.911529541,-5903100.01373291,-5956347.942352295
0.385,-4657822.132110596,2375671.625137329,11559452.056884766,-106954.86515760422,5669846.057891846,-8035355.567932129,-6758344.650268555,-7011130.809783936,-6045194.625854492,17652.036622166634,167906.12041950226,3014235.019683838,2432790.994644165,-6475932.598114014,-3949264.5263671875,-6167798.99597168,-11343985.557556152,-3355624.198913574,1347165.2269363403,872253.4775733948,-837987.6613616943,-3732766.628265381,-3329000.949859619,-19039014.81628418,-13780068.397521973,-3548076.868057251,3439741.611480713,-814498.245716095,-216375.08273124695,523533.1058502197,-181814.11921977997,-2640003.6811828613,-28089824.676513672,-13499951.362609863,-7163771.629333496,-1408147.2158432007,-1143703.3414840698,-1299740.6721115112,503519.11783218384,1279601.6931533813,-2823450.5653381348,-2154372.6921081543,-8178038.597106934,-11143957.138061523,-10831094.741821289,-744125.7238388062,-2327880.1441192627,-2930255.41305542,-3138193.130493164,-2941341.6385650635,-24797134.399414062,-24757238.388061523,-13445685.386657715,-831087.8276824951,-3892293.4532165527,-3449430.9425354004,-2245112.657546997,-15972737.312316895,-21289154.052734375,-4910373.687744141,-4022462.3680114746,-3912994.146347046
0.39,-7261588.573455811,318937.2718334198,9835016.250610352,-208422.27339744568,3508986.473083496,-9134049.415588379,-9054804.801940918,-8977947.235107422,-8678930.282592773,-1953304.7676086426,-1678479.790687561,2806114.673614502,2237277.7462005615,-4940699.577331543,-2505753.993988037,-6286392.2119140625,-13579792.022705078,-5542346.954345703,51230.10277748108,-564778.5663604736,-1258477.0917892456,-1795178.771018982,144194.26023960114,-15964352.60772705,-13844988.822937012,-4471890.926361084,2075698.6141204834,-495572.65639305115,-102987.98233270645,1829815.38772583,1055465.579032898,663533.7471961975,-25660707.473754883,-12947416.305541992,-8905645.370483398,-1018841.2666320801,-798276.6628265381,1239128.7088394165,2749148.6072540283,3351161.241531372,376541.9125556946,1500092.3871994019,-8034204.483032227,-11040767.669677734,-11072455.406188965,-401468.3961868286,295801.19252204895,354088.3958339691,145467.02802181244,425575.70338249207,-23988164.9017334,-23862234.115600586,-11720391.273498535,-506283.81967544556,-762497.7231025696,-128438.04061412811,1109087.1095657349,-10704817.771911621,-18266088.485717773,-1243701.8156051636,-760662.317276001,-745734.3339920044
0.395,-9230202.674865723,-1508839.9648666382,7646955.490112305,170398.87607097626,2062397.0031738281,-8665129.661560059,-10238250.732421875,-9888377.18963623,-10156065.940856934,-2759645.700454712,-2414529.0851593018,2131710.5293273926,1552932.0240020752,-4759721.755981445,172468.09601783752,-5128107.070922852,-13819046.974182129,-6211787.700653076,-384116.5602207184,-932042.0026779175,-1603805.0651550293,-905892.1337127686,946850.1210212708,-11897672.653198242,-12003500.938415527,-3128299.7131347656,1615907.5498580933,-202759.83214378357,-52362.725138664246,2225282.1922302246,1386711.0013961792,1467128.2768249512,-21972698.211669922,-11052803.039550781,-7900214.195251465,175969.12384033203,-264805.1977157593,1965983.271598816,3102968.454360962,3431296.1101531982,1135146.3794708252,5186835.765838623,-6364837.646484375,-9565111.16027832,-11296738.624572754,-128170.34125328064,841224.9684333801,1095375.0610351562,1087336.8978500366,1194293.8566207886,-22434032.440185547,-22450492.85888672,-9613919.258117676,-281246.6323375702,119493.82722377777,631793.1413650513,1780087.5902175903,-6369684.219360352,-15672112.464904785,1415072.6795196533,126594.60306167603,-23453.4814953804
0.4,-9121840.476989746,-2267551.6605377197,6417366.981506348,573342.9193496704,1855383.3961486816,-7891488.075256348,-9276024.81842041,-8827667.236328125,-9185238.8381958,-2180239.200592041,-1919181.1084747314,1349342.5846099854,777511.1198425293,-5489058.017730713,2836939.811706543,-2890036.3445281982,-11979418.754577637,-4748479.843139648,451382.72643089294,49081.74276351929,-1610730.2904129028,-840681.9105148315,-578155.5771827698,-8693631.172180176,-9232642.17376709,-390441.6561126709,3040894.031524658,-136169.6720123291,-203823.22371006012,1437105.0596237183,527479.6485900879,106544.68834400177,-18494850.158691406,-9026171.684265137,-4757099.628448486,1874694.7050094604,-59884.52583551407,800822.377204895,1331117.1531677246,1636028.4090042114,-282003.9689540863,7468330.860137939,-4442492.0082092285,-7780535.697937012,-11221047.401428223,-111734.82984304428,-509215.5933380127,-432534.18803215027,-246200.96385478973,-388846.0695743561,-22458866.119384766,-22669073.1048584,-8986391.067504883,-275602.251291275,-1151380.0621032715,-901475.3699302673,146912.6045703888,-5531438.35067749,-15578029.63256836,1682789.0872955322,-1248793.8404083252,-1413699.8653411865
0.405,-6173154.354095459,-476394.7129249573,8043083.190917969,577755.1531791687,3500172.6150512695,-6694222.450256348,-6870469.570159912,-6377772.331237793,-6559521.198272705,-431014.92524147034,-291184.03792381287,2378485.2027893066,1901886.3439559937,-4821093.559265137,5081558.2275390625,-977087.8553390503,-10369608.879089355,-2881222.96333313,2015431.1656951904,1704362.6308441162,-115848.77967834473,639957.60679245,-827056.1099052429,-7232645.511627197,-7470592.498779297,1156839.4899368286,4681229.591369629,-258105.06939888,330132.4248313904,1715798.020362854,739123.4040260315,11663.024313747883,-16760215.759277344,-8082324.981689453,-2705021.1429595947,2891186.9525909424,-256108.93964767456,251475.90041160583,598505.6757926941,1183551.9075393677,-607499.9570846558,7944354.53414917,-3983201.503753662,-7419707.298278809,-11198146.82006836,-159840.6583070755,-912611.9613647461,-827046.8711853027,-659534.752368927,-811454.4749259949,-24158824.920654297,-24451803.20739746,-10073386.192321777,-338835.7162475586,-1584794.1637039185,-1363787.293434143,-231235.69786548615,-7158651.351928711,-16750619.888305664,837646.6631889343,-1758068.561553955,-1796284.4371795654
0.41,-2529994.010925293,2470476.6273498535,10456913.948059082,265189.5880699158,5039461.612701416,-4203240.871429443,-5729374.885559082,-5194626.331329346,-5418154.716491699,238491.10305309296,318833.8577747345,4021846.7712402344,3683582.544326782,-3586713.7908935547,6532577.037811279,-1059728.0263900757,-11323102.951049805,-3391463.9949798584,2052272.7966308594,1838972.2108840942,1636283.7553024292,2650704.1454315186,1371771.5740203857,-7496716.499328613,-7735582.35168457,-278650.1944065094,3810683.488845825,-396013.7069225311,1028283.5960388184,3293923.1395721436,2332178.5926818848,2199417.1142578125,-17183326.721191406,-8126623.153686523,-3722486.2575531006,2159721.851348877,-485160.08257865906,1560504.1980743408,2248484.3730926514,3098295.6886291504,1336018.3238983154,7049736.976623535,-4718027.114868164,-8708166.122436523,-11392489.433288574,-34170.06880044937,796332.3593139648,1184240.1027679443,1140821.933746338,1311945.915222168,-24624208.450317383,-24931564.331054688,-10443131.446838379,-269702.285528183,104521.60984277725,560662.9848480225,1930337.0714187622,-7969870.567321777,-16023551.940917969,1441557.0497512817,-11139.423586428165,64860.0310087204
0.415,-1822427.51121521,3010769.844055176,9869060.516357422,49607.74630308151,3655249.59564209,-1923261.1656188965,-7899991.512298584,-7402781.4865112305,-7980694.29397583,-2605752.2296905518,-2553271.532058716,2980336.4276885986,2655334.47265625,-4569047.451019287,6444536.6859436035,-3201858.7589263916,-14479619.979858398,-6934250.354766846,-1062483.787536621,-1129513.2637023926,878823.7571716309,2067545.4139709473,3405701.3988494873,-9047966.003417969,-9248309.135437012,-3402499.9141693115,219359.51709747314,-469758.003950119,73556.5572977066,3589357.614517212,2730516.4337158203,4099894.0467834473,-18741840.362548828,-8236406.326293945,-6125470.161437988,199375.64432621002,-512421.96559906006,3203981.399536133,3835681.915283203,4688874.244689941,3317818.1648254395,5971582.889556885,-4931279.65927124,-10162059.783935547,-11419406.89086914,163799.07727241516,2684662.342071533,3302801.1322021484,3023129.940032959,3621101.6178131104,-22085025.787353516,-22432338.71459961,-7998226.165771484,-61224.99704360962,2011995.553970337,2648562.9081726074,4152180.1948547363,-6608048.915863037,-12845542.907714844,4188332.0808410645,2063884.0198516846,2170708.179473877
0.42,-5619035.720825195,-581260.621547699,5802884.101867676,155344.56074237823,-535006.7019462585,-3637776.1363983154,-12279646.873474121,-11893206.596374512,-12707049.369812012,-8099264.144897461,-8078475.9521484375,-1049149.751663208,-1558729.1717529297,-8050154.685974121,4467564.582824707,-5748348.712921143,-17257047.653198242,-10894452.095031738,-5596327.304840088,-5649941.444396973,-2592286.5867614746,-1466103.3153533936,2774425.0297546387,-11254127.502441406,-10595552.444458008,-5185562.610626221,-3086505.41305542,-528525.3524780273,-2758234.739303589,1127814.0544891357,328468.2631492615,3385052.9193878174,-20125247.955322266,-8122323.989868164,-6992490.291595459,-1107064.8431777954,-483275.74133872986,3203164.577484131,2798509.120941162,3512075.185775757,3009852.170944214,5777649.879455566,-4202176.570892334,-10611101.150512695,-11072546.95892334,179607.19764232635,2541211.1282348633,3107682.466506958,2659698.724746704,3480759.620666504,-19091478.34777832,-19454813.00354004,-4440677.165985107,104954.36191558838,1910775.1846313477,2451282.739639282,3840050.69732666,-5273750.782012939,-10591755.867004395,6680684.566497803,2128351.926803589,2227951.2882232666
0.425,-11579416.275024414,-6087955.474853516,1088542.3421859741,422332.19742774963,-4371510.5056762695,-9902025.22277832,-15520355.224609375,-15177589.416503906,-15754420.280456543,-12132814.407348633,-12138785.362243652,-4737867.35534668,-5456363.201141357,-11803977.966308594,1403533.1010818481,-7292668.81942749,-17830383.30078125,-12097481.727600098,-7872651.100158691,-8198509.216308594,-5795867.443084717,-5218460.559844971,-95099.7844338417,-13623068.809509277,-11343878.746032715,-4665807.247161865,-3437360.5251312256,-577579.0214538574,-5272726.535797119,-2375489.7117614746,-3239062.547683716,556532.8598022461,-21006198.88305664,-8322632.789611816,-6180670.261383057,-614093.4824943542,-546732.5448989868,1451445.8179473877,-170274.0341424942,468316.13779067993,517300.18854141235,5887599.945068359,-3942836.284637451,-10472486.49597168,-10752110.481262207,37924.21892285347,451371.10352516174,760604.0835380554,218292.31083393097,913493.6928749084,-19153474.807739258,-19417772.29309082,-3561893.2247161865,87463.22989463806,-197832.49497413635,64933.471381664276,1211967.2298431396,-6682974.815368652,-12067771.911621094,6163318.157196045,62538.86967897415,151699.4833946228
0.43,-14792995.45288086,-8678009.033203125,-1036131.1435699463,581112.0271682739,-4480753.421783447,-15280738.830566406,-15060078.620910645,-14631015.77758789,-14734108.924865723,-10975439.071655273,-11018857.955932617,-5066297.0542907715,-5768753.528594971,-13686606.407165527,-1148197.4124908447,-7936930.6564331055,-16689979.553222656,-9958369.255065918,-6133388.042449951,-6787012.577056885,-5990423.679351807,-7035832.405090332,-2892911.672592163,-15971310.61553955,-12045481.68182373,-3906512.975692749,-1554445.1475143433,-501056.4923286438,-5430461.406707764,-4207406.997680664,-5157229.423522949,-2173806.667327881,-21958286.28540039,-9104950.904846191,-6196307.65914917,763955.9507369995,-553515.6726837158,-504125.59509277344,-2240386.0092163086,-1638779.5209884644,-2257323.0266571045,4567280.292510986,-5052968.502044678,-10790596.008300781,-10943242.073059082,7782.408501952887,-1691914.677619934,-1772445.0826644897,-2296605.348587036,-1985248.9233016968,-21696876.525878906,-21819818.4967041,-6229803.085327148,-48199.51206445694,-2520129.2037963867,-2495102.882385254,-1524431.1094284058,-10362677.574157715,-15677549.362182617,3025947.093963623,-2405996.561050415,-2356847.5246429443
0.435,-11584130.28717041,-4378740.310668945,2114965.4388427734,553660.6907844543,780760.5266571045,-14542534.828186035,-10970439.910888672,-10440218.925476074,-10345267.295837402,-4250466.823577881,-4341355.800628662,-1331044.6739196777,-1764257.9078674316,-11653653.144836426,-1893736.0048294067,-8225980.758666992,-15268570.899963379,-6349491.119384766,-1655558.3477020264,-2274940.013885498,-2789793.4913635254,-5991471.767425537,-3441275.8350372314,-17742521.286010742,-12839801.788330078,-4533699.989318848,-14337.739907205105,-244579.30028438568,-3283666.6107177734,-2991109.848022461,-3939167.261123657,-2737404.8233032227,-23309764.862060547,-9917073.249816895,-8105969.429016113,1379348.5164642334,-332455.8436870575,-984418.8094139099,-1464803.4572601318,-964437.1271133423,-3162105.5603027344,1873024.2252349854,-6528081.41708374,-11807091.71295166,-11705924.987792969,161584.0345621109,-2079598.9036560059,-2523258.686065674,-2886290.5502319336,-2945379.4956207275,-23249128.341674805,-23352865.21911621,-9396225.929260254,-125458.15110206604,-3148653.030395508,-3172869.6823120117,-2249367.4755096436,-12990565.299987793,-18012147.903442383,431705.20663261414,-3329552.65045166,-3361781.8355560303
0.44,-3383205.6522369385,5698081.970214844,10928434.371948242,466122.7762699127,9886506.080627441,-9463669.776916504,-5670866.966247559,-5143884.658813477,-5236606.121063232,4569025.039672852,4524185.657501221,5283561.706542969,5146572.589874268,-4249138.832092285,-313821.55418395996,-7742290.019989014,-14223867.416381836,-3400897.264480591,3100162.0292663574,2912690.8779144287,2391259.6702575684,-1153968.095779419,-754097.1040725708,-17356477.737426758,-12695525.169372559,-5135315.895080566,181957.08096027374,6953.654810786247,-204552.82926559448,1014652.2521972656,105780.68345785141,-124430.47761917114,-24209541.32080078,-9882706.642150879,-9584527.969360352,989749.6700286865,-54710.30995249748,689697.5636482239,1863599.3003845215,2306204.5574188232,-910140.4547691345,841186.1658096313,-6819920.539855957,-12774252.891540527,-12670914.649963379,245323.58348369598,-155426.62143707275,-486465.12627601624,-646226.8829345703,-792963.6836051941,-22505569.458007812,-22727491.37878418,-10228804.588317871,-82286.41003370285,-1193747.0436096191,-1028742.3133850098,-50626.87397003174,-11920273.780822754,-18292692.184448242,689910.1138114929,-1655414.4620895386,-1764244.6756362915
0.445,3511031.6276550293,14247840.881347656,19837068.557739258,481463.07468414307,17028125.762939453,-5441918.849945068,-2455381.8702697754,-1997601.866722107,-2316201.4484405518,9727498.054504395,9888517.379760742,11103309.631347656,11064031.600952148,5418028.831481934,3499438.762664795,-5805653.5720825195,-13632968.90258789,-2464968.204498291,5695223.331451416,5879527.568817139,6722977.638244629,6065991.401672363,4081428.5278320312,-13491847.99194336,-10584105.491638184,-3759713.1729125977,-129197.91042804718,-13559.515587985516,2233188.6291503906,5812719.821929932,4915529.727935791,4673342.227935791,-23052583.694458008,-8417557.716369629,-8203104.019165039,682733.6549758911,-42311.94779276848,3680878.162384033,5637775.421142578,6224246.025085449,3693802.833557129,3999733.6864471436,-5492656.707763672,-12689244.270324707,-13103986.740112305,84056.08683824539,3080863.9526367188,3609705.4481506348,3553714.7521972656,3602456.80809021,-20925718.307495117,-21247800.827026367,-8878720.2835083,-8972.853422164917,2543227.9109954834,3065809.488296509,4150795.4597473145,-7462034.225463867,-17585180.282592773,3287971.019744873,2008847.4750518799,1884119.8682785034
0.45,3805484.5333099365,14069872.856140137,20333452.224731445,671080.2912712097,15938049.31640625,-3958774.0898132324,-3417881.2503814697,-2957568.1686401367,-3311416.8643951416,7325021.266937256,7712426.18560791,11142217.636108398,10984436.03515625,9873585.70098877,8129205.703735352,-3454054.117202759,-13996240.615844727,-4188702.5833129883,4281473.636627197,4391429.901123047,6940082.07321167,10234252.9296875,8018633.842468262,-7979434.490203857,-7566181.182861328,-1749206.1853408813,-764449.5964050293,-306300.0738620758,2617165.3270721436,8169444.0841674805,7340319.1566467285,8642266.273498535,-19747167.587280273,-6065885.543823242,-5334025.3829956055,877842.128276825,-275791.2576198578,6085018.157958984,7393091.678619385,8200572.967529297,7674339.294433594,9231521.606445312,-3518457.1743011475,-11349049.56817627,-12353706.359863281,-97435.75751781464,5646480.083465576,7255486.965179443,7222227.096557617,7447291.851043701,-19368194.580078125,-19655202.865600586,-6894085.884094238,48486.288636922836,5791474.342346191,6628515.243530273,7779557.704925537,-2258502.244949341,-15745340.347290039,6275537.490844727,5440138.339996338,5356050.01449585
0.455,-1068312.8833770752,6898345.947265625,12176603.317260742,994844.8538780212,7958998.680114746,-3565250.3967285156,-7654809.474945068,-7039651.393890381,-7389526.3671875,-24249.87219274044,446837.8722667694,5035091.876983643,4693689.823150635,6401451.110839844,9847937.58392334,-3546215.534210205,-15905640.602111816,-7854366.302490234,-371876.59740448,-627711.1172676086,2925126.075744629,7679787.158966064,8699864.387512207,-6228604.793548584,-7003427.028656006,-2635942.9359436035,-2788782.1197509766,-563404.7985076904,817112.6246452332,6621373.653411865,5984421.730041504,9374555.587768555,-17586166.381835938,-5215376.853942871,-4907196.521759033,532812.1781349182,-387444.8239803314,6602682.113647461,6464758.87298584,7294741.153717041,8527075.76751709,10973505.973815918,-2869302.0343780518,-10168113.708496094,-10902716.636657715,37841.0778939724,6205698.490142822,8222513.198852539,8264075.27923584,8393952.369689941,-17828674.31640625,-17972793.579101562,-5337691.783905029,170801.86307430267,6669221.878051758,7590063.571929932,8698117.25616455,410441.42842292786,-12701841.354370117,7963107.109069824,6582023.143768311,6527323.246002197
0.46,-4936697.483062744,2577717.3042297363,6883960.247039795,1363467.812538147,3020093.9178466797,-6129806.041717529,-11811500.549316406,-10934210.777282715,-11383193.016052246,-4430309.295654297,-3901479.959487915,105603.32238674164,-321156.17394447327,3025109.5294952393,4686070.919036865,-7926707.744598389,-18801717.75817871,-10977050.78125,-3960438.9667510986,-4423414.707183838,-399365.1270866394,3027040.0047302246,7234027.862548828,-12476843.83392334,-11402352.333068848,-7202226.161956787,-6244282.7224731445,-542765.3193473816,-930705.1301002502,4043415.069580078,3582782.983779907,7915479.1831970215,-21046089.17236328,-8543166.160583496,-8487064.361572266,-1196929.2163848877,-196141.45159721375,5909622.1923828125,4996696.949005127,5643948.078155518,7078649.044036865,6058495.044708252,-5394667.148590088,-11344002.723693848,-10492685.317993164,419275.0155925751,5403502.464294434,7031033.039093018,7223534.107208252,7086487.770080566,-17990074.157714844,-17971359.252929688,-5241452.693939209,364919.18563842773,5629704.95223999,6469561.1000061035,7525992.870330811,-1759653.8066864014,-11384159.088134766,7120011.329650879,5628567.695617676,5532268.047332764
0.465,-4398073.196411133,7326578.617095947,14094145.774841309,1706494.2121505737,8422266.960144043,-14737103.462219238,-13147697.448730469,-12055124.282836914,-12549623.489379883,-1106755.3758621216,-298618.01862716675,3777650.1178741455,3433610.677719116,9545384.407043457,-6395229.339599609,-14591564.178466797,-20853223.80065918,-11217470.169067383,-2588274.7173309326,-2926244.2588806152,1977956.2950134277,4545005.798339844,7041665.554046631,-24046295.166015625,-18697507.858276367,-11796415.328979492,-9109150.886535645,-354613.87038230896,70574.89454746246,4874914.646148682,4422097.682952881,7642789.840698242,-30010246.27685547,-15201013.565063477,-13218567.848205566,-3350607.395172119,20701.533183455467,5849823.951721191,5763754.367828369,6277125.835418701,6554625.511169434,-2521538.496017456,-10562136.65008545,-15115969.65789795,-12153343.200683594,581087.9468917847,5125144.004821777,6417733.192443848,6732995.03326416,6420197.486877441,-21673816.680908203,-21561094.284057617,-7474866.3902282715,432821.24400138855,4959927.082061768,5816041.469573975,6994300.842285156,-8029988.2888793945,-14842022.895812988,3641687.6316070557,4762172.222137451,4582086.086273193
0.47,-2172493.6962127686,15925128.936767578,27957754.135131836,1974030.2562713623,19005979.537963867,-25773010.25390625,-12084824.562072754,-11002132.415771484,-11335060.119628906,5740057.468414307,6970178.604125977,13570404.052734375,13406498.908996582,24027875.900268555,-16172948.837280273,-18963705.06286621,-20685861.587524414,-9052813.529968262,2162164.4496917725,2054395.4372406006,8414335.250854492,12837182.998657227,9672157.287597656,-32567504.8828125,-23271337.509155273,-12615118.026733398,-9666502.952575684,-275666.83292388916,3391896.7247009277,9424145.698547363,8909258.842468262,10101763.725280762,-37892711.6394043,-20042753.219604492,-15246685.028076172,-4132864.9520874023,-73539.43586349487,7274930.953979492,8776289.939880371,9299347.877502441,8661539.077758789,-8386615.753173828,-14741893.768310547,-18507761.001586914,-14467255.592346191,256076.3657093048,6357381.820678711,8061736.106872559,8435393.333435059,8089874.267578125,-26426868.438720703,-26370077.13317871,-10880792.617797852,226254.1949748993,6177240.84854126,7264684.677124023,8701209.06829834,-13815703.392028809,-20666648.864746094,-141572.05820083618,5652625.560760498,5441077.709197998
0.475,-2546321.153640747,18691835.403442383,34161964.416503906,2122591.972351074,23326183.319091797,-30842163.0859375,-11290805.81665039,-10464562.41607666,-10607081.413269043,8056414.604187012,9445510.864257812,19526277.542114258,19454275.131225586,34339076.99584961,-18061288.833618164,-18673053.741455078,-19032615.661621094,-7406125.545501709,4630952.35824585,4605698.108673096,12067718.505859375,19568670.27282715,12987982.749938965,-32502029.418945312,-21951879.501342773,-10188395.500183105,-8854846.954345703,-382163.1669998169,5506550.312042236,13190876.007080078,12712093.353271484,13237266.540527344,-38311317.443847656,-18984487.533569336,-13998635.292053223,-3243393.898010254,-399667.352437973,9198818.20678711,11146880.149841309,11655831.336975098,11711302.757263184,-7953747.272491455,-14572554.588317871,-18331371.307373047,-15013114.929199219,-224674.37386512756,8220441.818237305,10707881.927490234,11130548.477172852,10763482.093811035,-26903041.83959961,-27047348.022460938,-12477280.616760254,-50803.07647585869,8451496.124267578,9788763.046264648,11332822.799682617,-14132067.680358887,-22717231.75048828,-787337.4819755554,7738276.00479126,7581811.904907227
0.48,-6045055.866241455,13466556.549072266,28117111.206054688,2155975.103378296,18000930.786132812,-28146419.525146484,-12484014.511108398,-11916788.101196289,-12106822.967529297,3837666.2731170654,4951027.393341064,16634216.30859375,16429273.60534668,32925785.064697266,-13852313.995361328,-16192010.879516602,-18049165.725708008,-8222755.432128906,2041870.5940246582,1953936.5768432617,9414734.840393066,18480512.619018555,13847920.417785645,-27086511.611938477,-17841714.85900879,-8238056.182861328,-9043742.179870605,-519751.9063949585,4165074.348449707,12470465.660095215,12032056.80847168,14062851.905822754,-32865932.46459961,-14282895.0881958,-12135225.296020508,-2322664.0224456787,-591969.907283783,10024648.666381836,10602101.32598877,11005765.914916992,12838751.792907715,-3566603.183746338,-11009841.918945312,-15166746.139526367,-13394183.158874512,-313709.3186378479,9083731.651306152,11817683.219909668,12250232.696533203,11853920.936584473,-21931638.717651367,-22272094.7265625,-10934427.261352539,-46149.97282624245,9695691.108703613,11029442.78717041,12372628.211975098,-9216556.549072266,-19210557.93762207,2146456.241607666,9053861.618041992,8948991.775512695
0.485,-9959409.713745117,6712522.983551025,18741672.51586914,2158085.346221924,10608848.571777344,-25161087.036132812,-14788401.60369873,-14168766.975402832,-14594355.583190918,-1336231.7085266113,-574465.0363922119,10076395.034790039,9613608.360290527,24641935.348510742,-11284371.376037598,-15679577.827453613,-18871299.743652344,-10386391.639709473,-2321534.8720550537,-2484776.9737243652,4141404.628753662,12739594.459533691,11614040.37475586,-23792072.296142578,-16408086.776733398,-8884496.688842773,-10953774.452209473,-574332.7140808105,1148580.0743103027,8535316.467285156,7938410.28213501,12008580.207824707,-29034982.681274414,-11824963.569641113,-11954037.6663208,-2869676.351547241,-496339.49995040894,9097301.483154297,7979041.09954834,8375591.278076172,11140724.182128906,-468705.35612106323,-8201278.6865234375,-12643875.122070312,-11569393.157958984,46657.79322385788,8195748.329162598,10379786.491394043,10691212.65411377,10349955.558776855,-16596605.30090332,-16985050.201416016,-8407773.971557617,228842.24355220795,8770531.65435791,9836196.899414062,10891011.238098145,-5018964.767456055,-15108842.849731445,4827763.080596924,8302865.982055664,8151671.409606934
0.49,-12119810.104370117,4419633.388519287,15060067.176818848,2211355.209350586,8732409.477233887,-27438180.923461914,-16168836.59362793,-15164705.276489258,-15748577.117919922,-2158225.5363464355,-1391299.6053695679,7226827.144622803,6658018.589019775,19164894.104003906,-13944362.64038086,-17930774.688720703,-20401758.193969727,-11478907.585144043,-3764728.307723999,-3972627.639770508,1687702.6557922363,9341904.640197754,8564902.305603027,-25218168.258666992,-18668567.657470703,-10594424.2477417,-12924425.12512207,-592406.3920974731,-337026.0000228882,5324125.76675415,4480294.704437256,9206834.79309082,-30455583.572387695,-13632955.551147461,-13148859.977722168,-4406748.294830322,-312501.4007091522,7130710.124969482,5769428.730010986,6356575.489044189,8325034.141540527,-1065195.918083191,-8309447.288513184,-12755475.044250488,-11147186.279296875,350827.99196243286,6272383.213043213,7785681.72454834,7932807.445526123,7683020.114898682,-15516925.811767578,-15865437.507629395,-7561275.959014893,367392.6293849945,6553657.054901123,7331639.289855957,8329314.231872559,-6160320.75881958,-14953126.907348633,3814598.798751831,6084372.043609619,5846967.697143555
0.495,-12363989.83001709,6270020.961761475,16706573.486328125,2271457.6721191406,11657855.987548828,-31424568.17626953,-15835237.503051758,-14450148.582458496,-15030825.6149292,652461.2307548523,1725891.9477462769,9060740.47088623,8669326.782226562,20389404.296875,-17528877.25830078,-20099718.09387207,-20957649.23095703,-10719948.768615723,-1701950.5500793457,-1958051.8007278442,2981551.4087677,10442350.387573242,7399121.284484863,-27519523.62060547,-20789608.001708984,-10904851.913452148,-13170506.477355957,-621467.113494873,468901.0679721832,4804247.856140137,3973404.6459198,8132761.001586914,-33213447.57080078,-16214538.57421875,-14188970.565795898,-5229244.232177734,-267490.80419540405,5576436.996459961,5244654.178619385,5995521.545410156,6841528.415679932,-2957412.004470825,-9619923.59161377,-13893270.492553711,-11750060.081481934,211164.89171981812,4843324.661254883,6308356.761932373,6494541.168212891,6241951.942443848,-17410835.26611328,-17789398.193359375,-8259825.706481934,131917.35744476318,5063458.9195251465,5738550.662994385,6928324.6994018555,-9946479.797363281,-17142660.14099121,664643.6452865601,4348227.977752686,4130104.0649414062
0.5,-11643213.272094727,8296650.8865356445,18266124.725341797,2219662.1894836426,13840789.794921875,-31785697.93701172,-14890180.587768555,-13446216.583251953,-14002821.922302246,2981016.6358947754,4233727.931976318,11245605.46875,11133563.995361328,24524587.631225586,-17349876.403808594,-20099439.62097168,-20488008.499145508,-9405263.900756836,813063.6811256409,518664.3600463867,4987460.136413574,12710652.351379395,8536228.17993164,-27420135.498046875,-20174785.614013672,-9693180.084228516,-11775789.260864258,-604580.9388160706,1849332.6902389526,5783113.956451416,5271023.273468018,9173275.9475708,-32959632.873535156,-16437757.49206543,-14688860.893249512,-4592818.737030029,-356796.7712879181,5383506.774902344,5664272.785186768,6312500.953674316,7468784.332275391,-3062058.448791504,-10079638.481140137,-13951773.643493652,-12304684.63897705,-143902.0186662674,4820533.752441406,6786128.520965576,7247681.617736816,6975438.117980957,-18353687.286376953,-18815717.697143555,-8701133.728027344,-214840.47174453735,5349994.659423828,6079626.083374023,7470014.0953063965,-10220887.184143066,-17534887.313842773,-407954.1862010956,4417623.519897461,4344847.202301025
0.505,-11307200.43182373,7510233.402252197,16267103.19519043,2054977.4169921875,11909213.066101074,-29457435.607910156,-14850799.560546875,-13630627.632141113,-14224411.964416504,2426985.263824463,3492803.0967712402,10131682.395935059,10143810.272216797,25199106.216430664,-15008726.119995117,-19067056.65588379,-20249305.725097656,-8993028.64074707,1221690.4163360596,947958.8866233826,5010971.546173096,12345362.663269043,9698803.901672363,-26678310.39428711,-18746038.43688965,-8864262.580871582,-10210778.23638916,-511619.2698478699,2272127.866744995,6060022.830963135,5789841.651916504,10231577.87322998,-31185571.670532227,-15395066.261291504,-15463208.198547363,-3493861.9136810303,-464045.2563762665,5977493.2861328125,5626370.906829834,6006001.4724731445,8498312.950134277,-2224146.842956543,-10111614.227294922,-13238229.751586914,-12543516.159057617,-261569.64898109436,5455115.31829834,7698778.15246582,8380074.501037598,8260789.87121582,-17352052.688598633,-17781372.0703125,-8520694.732666016,-323018.342256546,6208089.351654053,7007863.521575928,8439605.712890625,-6252694.606781006,-15553171.157836914,1436760.1871490479,5413007.736206055,5465780.258178711
