time,Fp1,Fpz,Fp2,AF3,AF4,F7,F5,F3,F1,Fz,F2,F4,F6,F8,FT7,FC5,FC3,FC1,FCz,FC2,FC4,FC6,FT8,T7,C5,C3,C1,Cz,C2,C4,C6,T8,TP7,CP5,CP3,CP1,CPz,CP2,CP4,CP6,TP8,P7,P5,P3,P1,Pz,P2,P4,P6,P8,PO7,PO5,PO3,POz,PO4,PO6,PO8,CB1,O1,Oz,O2,CB2
0.0,-11835365.295410156,-11276992.797851562,-9151628.494262695,-5727176.189422607,-6730474.472045898,-3929424.524307251,-4634328.365325928,-3402156.352996826,-2921963.2148742676,-3111553.907394409,-2633909.9407196045,-3311605.215072632,-3263150.453567505,-2290814.161300659,-3899494.8863983154,-2815128.0879974365,-2536649.227142334,-1434428.334236145,-1506312.608718872,-1164800.1670837402,-1575453.9966583252,-1258556.842803955,-1157541.3942337036,-732249.0215301514,-1268431.305885315,-1201853.7521362305,-100983.06834697723,-325309.8428249359,-751220.6435203552,-640049.9939918518,-818721.1155891418,-461978.4653186798,-43576.6875743866,-179969.35546398163,-539913.6543273926,-190638.27395439148,-22138.29942047596,-93149.20008182526,409270.703792572,306415.2002334595,366162.62793540955,292659.9979400635,208137.95924186707,-123439.60255384445,56900.110095739365,-31165.80843925476,-93816.94346666336,770819.6640014648,846221.6854095459,834580.3022384644,327683.29977989197,320758.07452201843,558847.1293449402,-1354.9969298765063,718966.6032791138,1101130.485534668,1066363.2154464722,596623.5399246216,556364.2382621765,1493108.9878082275,866638.3624076843,1410136.103630066
0.005,39483364.10522461,36735839.84375,68388305.6640625,32825199.127197266,23368688.583374023,30062051.77307129,26195590.97290039,22299203.872680664,19825721.740722656,16942876.8157959,16397912.979125977,12872684.478759766,13248187.065124512,19805780.4107666,30418373.107910156,15100971.221923828,4761131.286621094,9087105.751037598,6562429.428100586,10152135.848999023,11458556.175231934,15144419.67010498,11933835.02960205,11104921.340942383,7589293.479919434,6753117.561340332,4475734.710693359,4896742.343902588,2595636.3677978516,8412138.938903809,10197035.789489746,-9756950.378417969,2699448.823928833,2813734.531402588,-1529719.9487686157,1271157.8607559204,353051.6028404236,4338373.66104126,8673550.605773926,4231958.389282227,-5415228.843688965,-1975467.4434661865,-3461227.1785736084,-2157115.4594421387,783047.2588539124,562589.4069671631,3448246.717453003,3060421.7052459717,3883856.0581207275,-1617859.125137329,-11239656.448364258,-7552990.913391113,-6889712.810516357,297813.3261203766,-212825.81984996796,306540.3997898102,-650116.9800758362,-6908002.853393555,-7100420.951843262,-3488725.423812866,-5575247.287750244,-10283163.070678711
0.01,67046783.447265625,68955909.7290039,111762268.06640625,51424106.59790039,40619262.6953125,47619789.123535156,42764564.514160156,35932060.24169922,32289424.896240234,28227586.74621582,27051282.88269043,22513551.712036133,23146488.189697266,36232925.41503906,48140037.536621094,25776245.1171875,11166811.9430542,16486471.176147461,12820575.714111328,17034429.5501709,19146532.05871582,24528970.71838379,19490789.41345215,17830070.49560547,13180914.878845215,12191223.14453125,8860992.431640625,8267771.7208862305,5083363.056182861,13782253.26538086,16021055.221557617,-13008642.196655273,3713320.016860962,5167922.496795654,-820794.8803901672,3070157.527923584,494697.30257987976,6423392.295837402,13063425.064086914,6563847.064971924,-8141717.910766602,-4023838.520050049,-5891434.192657471,-2645689.4874572754,4712.721332907677,766491.1150932312,4467864.036560059,3741340.160369873,4820974.826812744,-4827604.7706604,-18156995.77331543,-12788364.41040039,-12901650.428771973,277873.1882572174,-1732625.2460479736,-2507992.98286438,-4550282.4783325195,-12984949.111938477,-13252355.575561523,-9079230.308532715,-11483149.528503418,-18445161.819458008
0.015,60781574.24926758,73483177.1850586,111151336.66992188,46767837.52441406,39846950.53100586,44356014.251708984,40434814.453125,34798377.990722656,32338176.727294922,28963253.021240234,26973209.381103516,21779010.772705078,22492877.960205078,41359085.08300781,44904438.01879883,25735918.045043945,13950970.649719238,18978448.86779785,15803642.272949219,17893096.923828125,19042840.9576416,24035215.377807617,18370353.69873047,15829580.307006836,12457924.842834473,13145576.477050781,11435166.358947754,9426746.368408203,5573629.379272461,13422535.89630127,14211169.242858887,-12968630.79071045,985918.9987182617,4719271.183013916,-191854.00009155273,4660116.672515869,435188.4722709656,6091034.889221191,12463398.933410645,5782378.196716309,-9284928.321838379,-6574248.790740967,-7988748.550415039,-2823766.9467926025,-1205919.9810028076,661637.1870040894,3453915.83442688,2091698.6465454102,3097235.918045044,-8815522.193908691,-20979164.123535156,-15711853.02734375,-16742820.739746094,45966.245234012604,-4286692.142486572,-6793522.834777832,-9770229.33959961,-16823602.6763916,-17045137.405395508,-13947978.019714355,-16099430.084228516,-22213544.845581055
0.02,26961681.365966797,47570064.544677734,80140884.39941406,29054132.46154785,24362613.677978516,28835098.266601562,25449663.162231445,24647041.32080078,24434356.689453125,22581100.463867188,19183750.15258789,11542958.25958252,12087419.509887695,33776428.22265625,29377281.188964844,17408048.629760742,10546696.662902832,16265192.031860352,14188899.993896484,13846897.12524414,12767682.075500488,16666296.005249023,10683205.604553223,7487250.804901123,6234128.952026367,9722340.58380127,10326861.381530762,8579101.5625,3250271.3203430176,8575608.253479004,7375031.9480896,-15291360.855102539,-3882253.885269165,1367887.7353668213,-1948906.421661377,4814106.464385986,365892.79770851135,4718566.417694092,9243983.268737793,2665506.8397521973,-10872765.54107666,-8587841.033935547,-9698114.395141602,-3981736.421585083,-715056.4789772034,623972.9523658752,2886074.5429992676,-88533.26737880707,987253.9639472961,-11135295.867919922,-21576763.153076172,-16543334.9609375,-16863115.310668945,-925.1317824237049,-6304666.042327881,-8612249.374389648,-11736090.660095215,-16777633.666992188,-16893280.029296875,-14207502.365112305,-17111532.21130371,-21344457.626342773
0.025,-17241966.247558594,2935832.5004577637,38836368.560791016,8542283.058166504,2192437.8871917725,13526345.252990723,8477832.794189453,12395215.034484863,13376426.696777344,12414951.32446289,7917820.930480957,-2667266.1304473877,-2447615.8618927,19834966.6595459,14012870.788574219,7611774.921417236,2266124.725341797,9627379.417419434,7911721.706390381,7174285.888671875,4784083.366394043,8885337.829589844,3172730.2074432373,1152509.5701217651,426603.4662723541,4659010.887145996,5837412.8341674805,5584961.891174316,-1053952.3363113403,3508959.5317840576,1924096.2266921997,-18460620.880126953,-5024494.647979736,-717138.2308006287,-4638711.452484131,2943428.0395507812,366475.34370422363,3161239.6240234375,7137151.718139648,1007835.1497650146,-10379573.822021484,-6670965.671539307,-8067004.203796387,-4446060.657501221,1271292.9248809814,790714.3235206604,3949769.7353363037,848649.799823761,2175491.3330078125,-8029180.526733398,-18461488.723754883,-13162446.022033691,-11473430.633544922,316720.6645011902,-4445785.999298096,-4088258.743286133,-6323168.2777404785,-11085839.27154541,-11189715.385437012,-7124070.167541504,-11987505.912780762,-14809389.114379883
0.03,-52315574.645996094,-37768833.16040039,3094232.5592041016,-9179423.332214355,-17797462.463378906,5354310.035705566,-3068985.4621887207,2074029.6840667725,2519027.2331237793,1198787.5699996948,-3126919.984817505,-14197171.211242676,-14186741.828918457,8846243.858337402,5697402.9541015625,2239611.3872528076,-5894048.21395874,2201064.109802246,27243.152260780334,615908.9803695679,-718922.0190048218,5158700.942993164,805384.7551345825,2019733.190536499,-112963.32627534866,1099915.1468276978,707837.9988670349,1327857.494354248,-4683386.80267334,2041815.5193328857,2186628.3416748047,-17125942.23022461,100801.87022686005,1516605.6156158447,-5137505.054473877,129119.50051784515,380720.49617767334,1809176.4450073242,7893013.000488281,3577416.41998291,-4808915.615081787,-498220.5927371979,-2267530.2028656006,-2487437.7250671387,2176634.5500946045,936417.4604415894,5538907.051086426,6039785.385131836,7412220.478057861,209713.3845090866,-11169928.550720215,-5957071.781158447,-2911572.217941284,750004.3511390686,1817680.835723877,4999383.449554443,4076285.3622436523,-2269960.880279541,-2534585.475921631,3411675.214767456,-2771150.1121520996,-4695512.294769287
0.035,-69187194.82421875,-59273799.896240234,-19854137.420654297,-21323705.673217773,-30967679.977416992,2367171.7643737793,-9256238.93737793,-5297005.653381348,-5572302.81829834,-7941595.077514648,-11490038.871765137,-20978065.490722656,-20856439.5904541,3123446.464538574,2620488.166809082,1122697.4725723267,-10411278.72467041,-2805814.9814605713,-5084695.339202881,-3661744.3561553955,-3049064.3978118896,4025333.4045410156,1023844.9573516846,5508367.538452148,2286206.4838409424,-240927.93464660645,-2360543.4894561768,-1530231.8334579468,-5483113.2888793945,3831322.193145752,5578239.917755127,-12868719.100952148,5658777.713775635,4744283.676147461,-3757338.762283325,-1593839.2877578735,367821.8126296997,1496563.7922286987,10022716.522216797,8070235.252380371,2185097.2175598145,4200638.294219971,2498847.484588623,-195084.76555347443,655997.3955154419,858059.6446990967,6228261.470794678,11510138.511657715,12600904.46472168,7088242.530822754,-5384557.247161865,-1144214.8685455322,1863237.6194000244,926688.015460968,7602392.196655273,11316585.540771484,11103819.847106934,2523648.262023926,2070297.0027923584,8655261.039733887,3270092.725753784,1876963.6154174805
0.04,-77796180.72509766,-69285049.43847656,-34935142.517089844,-29525712.966918945,-40676147.4609375,-2449825.2868652344,-15895498.275756836,-11486049.65209961,-10952583.312988281,-14120619.773864746,-17640459.060668945,-27111108.779907227,-26678604.125976562,-3639538.049697876,-2024004.4593811035,-1064581.6326141357,-12870707.511901855,-5199210.166931152,-6610396.862030029,-5760244.369506836,-5008479.118347168,556157.4101448059,-2782933.473587036,3998538.9709472656,1684881.6871643066,-928662.8365516663,-2921175.718307495,-1135317.8024291992,-4230843.544006348,5114186.763763428,5746880.531311035,-13191157.341003418,4815280.437469482,3729590.892791748,-3679998.1594085693,-1228251.338005066,323236.3164424896,2632528.781890869,10993297.576904297,9613025.665283203,3308393.716812134,2351936.8171691895,957691.7886734009,-732155.978679657,-1406550.407409668,653142.0946121216,5883369.445800781,12292901.992797852,13141313.552856445,6551948.070526123,-6989782.810211182,-3790034.532546997,-1134152.889251709,740257.9188346863,7713880.53894043,9932494.163513184,9378798.484802246,-698576.3311386108,-1131176.233291626,4863833.904266357,1187860.4888916016,-349009.4840526581
0.045,-94329246.5209961,-85927291.87011719,-52535831.451416016,-39299343.10913086,-52893028.259277344,-12931202.88848877,-26971393.585205078,-18962926.864624023,-16447532.653808594,-19714653.01513672,-23897377.014160156,-36483901.97753906,-35894035.33935547,-15579286.575317383,-12125538.82598877,-7746698.379516602,-16641145.706176758,-7413182.735443115,-7852651.596069336,-7451116.08505249,-8759420.394897461,-6679037.094116211,-11864325.523376465,-2480656.147003174,-2937498.3310699463,-2126553.535461426,-2343835.8306884766,1136237.1444702148,-3489432.3348999023,3503708.600997925,865306.1985969543,-19785472.869873047,-724822.1039772034,-744150.1021385193,-5643182.277679443,294431.5969944,210814.77403640747,4010108.9477539062,10155479.431152344,6968170.166015625,-2370498.4188079834,-3152211.6661071777,-4496967.315673828,-3042382.4787139893,-1376665.711402893,533267.8556442261,5219168.186187744,8602334.976196289,9528141.975402832,539703.7863731384,-13255455.97076416,-10193737.983703613,-7384173.393249512,378710.86597442627,3287912.8456115723,4177796.3638305664,2729589.9391174316,-7227035.999298096,-7407330.9898376465,-1937503.9339065552,-5431496.143341064,-7733910.56060791
0.05,-117121475.21972656,-109433532.71484375,-72091201.78222656,-51163845.06225586,-65681869.50683594,-24844758.987426758,-38594974.517822266,-26560115.814208984,-22539890.28930664,-25328325.271606445,-29772178.649902344,-46068168.64013672,-45650672.912597656,-26766656.87561035,-23789466.857910156,-15793462.753295898,-21220672.607421875,-10226183.891296387,-10554476.737976074,-9125413.89465332,-12538399.696350098,-13122088.432312012,-19976406.09741211,-7752228.260040283,-7008677.005767822,-3394158.8401794434,-1881496.787071228,2571419.2390441895,-4093429.5654296875,671382.3676109314,-4094980.239868164,-25912296.295166016,-4198950.76751709,-3339069.8432922363,-6858185.291290283,1388587.474822998,31743.39234828949,4143374.443054199,8896674.156188965,3572875.2613067627,-8186450.958251953,-5613462.448120117,-7186047.077178955,-3349560.9760284424,772319.9725151062,530774.8913764954,4962093.830108643,5401393.413543701,6499561.309814453,-3711906.1946868896,-16463722.229003906,-12838847.160339355,-9888885.498046875,87842.84442663193,126885.44392585754,914424.0617752075,-1222314.0001296997,-9853558.540344238,-9811006.546020508,-4212427.616119385,-9241098.403930664,-12283735.275268555
0.055,-127700340.2709961,-121236740.11230469,-81039749.14550781,-57236606.59790039,-70565208.4350586,-31266038.89465332,-43572547.912597656,-29825145.721435547,-25217126.846313477,-27282749.17602539,-31607330.322265625,-49742454.528808594,-49605045.318603516,-29609170.91369629,-30306478.50036621,-20039648.056030273,-23022064.208984375,-11383359.909057617,-12087013.244628906,-9336323.738098145,-13455404.281616211,-14596867.561340332,-22386474.609375,-9657364.845275879,-7972584.247589111,-4311516.284942627,-1832847.5952148438,2494338.274002075,-4569066.524505615,-645583.8084220886,-4837831.497192383,-27442003.25012207,-4371541.500091553,-2596377.13432312,-5840632.915496826,1469596.266746521,-80033.83129835129,3472854.6142578125,8373135.566711426,2250322.3419189453,-9694012.641906738,-4087024.688720703,-5788136.005401611,-1372438.3115768433,2746111.1545562744,530009.3293190002,5764520.645141602,5934966.087341309,6946955.20401001,-3145637.273788452,-14932534.217834473,-10900103.569030762,-8342200.27923584,5662.635900080204,978124.4993209839,1944256.9017410278,-475701.4811038971,-8239952.087402344,-8234519.958496094,-2368103.504180908,-8284889.221191406,-11800019.264221191
0.06,-119985488.89160156,-114555686.9506836,-75904067.99316406,-53331489.56298828,-66564857.482910156,-31775463.104248047,-41586696.62475586,-27927667.61779785,-22602609.634399414,-24121416.091918945,-29080186.84387207,-48002323.150634766,-47925693.51196289,-27235023.498535156,-31078596.115112305,-20486831.665039062,-21446170.806884766,-9899223.327636719,-10581257.820129395,-8257528.305053711,-12586890.22064209,-13564006.805419922,-22474386.21520996,-11688714.981079102,-8493904.113769531,-5597453.594207764,-2170066.1182403564,1981589.5557403564,-4311307.907104492,-707576.2748718262,-3956780.9104919434,-28773637.771606445,-5618196.964263916,-2353947.639465332,-4843827.724456787,1009934.1869354248,14695.768244564533,3539172.410964966,8166888.236999512,1855324.8643875122,-9969037.055969238,-3191202.8789520264,-4805131.435394287,-730015.2778625488,3048239.4695281982,500550.8065223694,7819482.803344727,8321664.810180664,9066075.325012207,-1463295.6981658936,-13603295.32623291,-9598151.206970215,-7470079.42199707,160414.9043560028,3091814.9948120117,3711536.169052124,1132169.246673584,-7259142.3988342285,-7463527.679443359,-1465024.9481201172,-6230397.2244262695,-10415270.805358887
0.065,-112695068.359375,-107960342.40722656,-72012924.19433594,-48554317.474365234,-64597175.59814453,-32021087.646484375,-39845123.291015625,-26553632.736206055,-20100090.02685547,-21712591.17126465,-28051969.528198242,-48034492.49267578,-47783702.8503418,-29167772.29309082,-31436721.801757812,-21256771.087646484,-20370298.385620117,-8806873.321533203,-9236518.859863281,-8835027.694702148,-13948535.919189453,-15249820.709228516,-25410259.246826172,-14650883.674621582,-10656337.73803711,-7588628.768920898,-2933488.130569458,1255500.5550384521,-4964603.424072266,-1801691.7705535889,-6231370.92590332,-33757659.912109375,-8528322.219848633,-4398340.225219727,-5921569.347381592,570191.502571106,252964.7946357727,4158376.2168884277,7336061.954498291,364617.5265312195,-12687876.70135498,-4339859.0087890625,-5913732.051849365,-2720536.231994629,2498024.9404907227,542310.4763031006,9986326.217651367,9191349.983215332,9882260.3225708,-2061685.32371521,-14256787.300109863,-10398996.353149414,-8202155.113220215,480939.50748443604,3631471.1570739746,4140765.1901245117,1422913.7897491455,-7968893.527984619,-8292940.139770508,-1851418.9720153809,-5000735.759735107,-10080007.553100586
0.07,-121558929.44335938,-117217552.1850586,-81113853.45458984,-53459655.76171875,-71935379.02832031,-34171802.52075195,-42263633.728027344,-30196058.27331543,-23565885.543823242,-26010753.631591797,-32798519.134521484,-52553092.95654297,-52158962.24975586,-35756832.122802734,-33502925.872802734,-23305860.51940918,-22339712.142944336,-10910576.820373535,-11715469.360351562,-12430680.274963379,-18083141.326904297,-19097043.991088867,-28953104.01916504,-14356818.199157715,-11883163.452148438,-8945019.721984863,-3843603.3725738525,-299595.2367782593,-7391997.814178467,-4104048.728942871,-10422384.262084961,-37734626.77001953,-8513673.782348633,-5494099.140167236,-7498289.585113525,426278.11431884766,429310.1131916046,3417097.568511963,5814292.907714844,-1500472.068786621,-15478427.88696289,-3794298.4104156494,-5500619.411468506,-4134460.44921875,2522159.0995788574,699747.5624084473,10296257.019042969,8090364.456176758,9081358.909606934,-3222885.847091675,-12862543.106079102,-9192002.296447754,-6769481.182098389,795748.770236969,3559233.1886291504,4993654.251098633,2373947.858810425,-6571046.352386475,-6846315.860748291,405869.5435523987,-2646598.1006622314,-7958178.520202637
0.075,-134551055.90820312,-130445129.39453125,-91822212.21923828,-63564601.89819336,-80532775.87890625,-33486225.128173828,-43739196.77734375,-35083339.69116211,-30228372.57385254,-33790042.877197266,-39194782.25708008,-55251762.39013672,-54882900.23803711,-37097976.68457031,-32751461.029052734,-22850481.033325195,-24805126.190185547,-14238384.246826172,-16203987.121582031,-16122220.993041992,-20804805.755615234,-19610006.33239746,-26952783.584594727,-9499039.649963379,-9451401.710510254,-8308645.248413086,-4311527.729034424,-2135920.0477600098,-9681622.505187988,-5408556.938171387,-11135248.184204102,-34915657.04345703,-4601997.375488281,-3417176.0082244873,-7062019.348144531,780556.6191673279,469234.31754112244,712385.4160308838,4074377.0599365234,-2068130.0163269043,-14492509.841918945,-70974.9162197113,-1856084.5851898193,-2582576.274871826,3281972.1698760986,871562.8385543823,8125514.030456543,6677681.922912598,8016641.616821289,-2326906.442642212,-7850529.193878174,-4604611.873626709,-2245286.9415283203,958327.7106285095,4720227.7183532715,7237485.885620117,4977660.655975342,-2046768.9037322998,-2271137.475967407,5310907.84072876,1348646.640777588,-3064299.1065979004
0.08,-131252532.95898438,-127991622.92480469,-87621650.69580078,-65907958.984375,-79408393.85986328,-26591413.497924805,-38766647.33886719,-34853965.759277344,-32769145.965576172,-37319400.787353516,-40889503.479003906,-51160808.56323242,-50834739.685058594,-29395063.400268555,-25934692.3828125,-17951656.341552734,-24625970.8404541,-15233447.074890137,-18640537.26196289,-17145126.342773438,-19949558.25805664,-15781727.79083252,-20194726.943969727,-4842810.153961182,-5321362.9722595215,-6560696.125030518,-4375284.671783447,-3059299.945831299,-10141024.589538574,-5096475.601196289,-7819675.922393799,-28513383.865356445,-1765982.0318222046,-787027.1801948547,-5230368.137359619,1431370.0199127197,480844.2294597626,-2115655.6606292725,2287099.838256836,-1994626.0452270508,-11266263.008117676,3206669.569015503,1544216.513633728,-62035.4488492012,4081294.536590576,942685.8425140381,5241497.039794922,5753919.60144043,7144354.820251465,-524277.1506309509,-3543199.300765991,-789873.6000061035,1518357.9921722412,1012956.6192626953,6562581.0623168945,8912328.720092773,6923040.866851807,1746772.4084854126,1455100.2979278564,8349836.349487305,4227956.295013428,932229.9957275391
0.085,-115705200.1953125,-114347328.18603516,-74251983.64257812,-59209308.62426758,-71934944.15283203,-17816173.553466797,-30695859.909057617,-30502082.82470703,-30514148.712158203,-36031688.69018555,-39018520.35522461,-45256286.62109375,-44848087.310791016,-21848932.26623535,-17260505.67626953,-12238562.58392334,-23225690.841674805,-14499466.896057129,-19430305.48095703,-17287969.5892334,-19038433.074951172,-13329676.628112793,-16189132.690429688,-3524815.320968628,-3030467.2718048096,-5882360.935211182,-4929434.299468994,-3428469.657897949,-10118229.866027832,-5255417.823791504,-5791886.806488037,-25978744.506835938,-2176893.472671509,-248061.01620197296,-4639153.480529785,1461811.0656738281,528619.4682121277,-3355132.3413848877,783586.6808891296,-2805121.898651123,-9718579.292297363,3865544.319152832,2305260.8966827393,798887.8488540649,4630287.170410156,923092.6036834717,3869554.7580718994,5230250.358581543,6384736.53793335,64921.580255031586,-2647659.3017578125,-382.3381557594985,2690583.7059020996,1132525.8016586304,7891088.485717773,9158029.556274414,7135778.427124023,2919590.2347564697,2533373.3558654785,8526784.896850586,5004919.052124023,1969852.5667190552
0.09,-109171508.7890625,-109439598.0834961,-70219367.98095703,-54988952.63671875,-69653602.60009766,-13730375.289916992,-27228668.212890625,-28677869.79675293,-29556560.516357422,-35997821.80786133,-39294235.22949219,-44523723.60229492,-44025753.021240234,-21964397.430419922,-13156079.292297363,-10142571.449279785,-23945156.09741211,-15325033.187866211,-21677288.055419922,-19240568.161010742,-21097057.342529297,-15282744.407653809,-17450233.459472656,-2668040.5139923096,-2839977.979660034,-7022856.712341309,-6425495.624542236,-4411785.125732422,-11285921.096801758,-6697569.847106934,-7324851.512908936,-27279123.306274414,-1866176.724433899,-438129.84228134155,-6101532.459259033,145086.8546962738,517587.3041152954,-3342020.7500457764,687380.6118965149,-3402969.8371887207,-9249628.067016602,4470517.158508301,2761757.6122283936,507637.02392578125,4973359.107971191,895394.2060470581,4273905.7540893555,5662247.657775879,6565454.483032227,636287.2123718262,-2060413.122177124,827817.976474762,4017771.2440490723,1334666.37134552,9146141.052246094,10224707.60345459,8111261.367797852,4255432.12890625,3873785.972595215,9981445.3125,6426512.241363525,3019647.5982666016
0.095,-116909576.41601562,-116529228.21044922,-77144607.54394531,-59090747.83325195,-73820510.86425781,-15469326.01928711,-30183877.94494629,-31603704.45251465,-32475360.870361328,-38978797.912597656,-41841114.04418945,-46753227.23388672,-46322052.001953125,-24017309.188842773,-14808308.601379395,-11902867.317199707,-26491971.969604492,-17726734.161376953,-24389293.670654297,-21106309.89074707,-22966554.641723633,-16767009.735107422,-17855264.66369629,-539825.7970809937,-3462773.084640503,-8935317.039489746,-7860921.382904053,-5207204.341888428,-12053310.39428711,-6892874.240875244,-8042762.756347656,-26105953.216552734,455269.7539329529,35582.832992076874,-8199587.821960449,-1854217.529296875,384376.9431114197,-2920423.2692718506,2675581.455230713,-1412000.8945465088,-6663475.036621094,6164995.193481445,4230548.858642578,253726.5121936798,4784988.4033203125,894266.664981842,5105769.634246826,7451043.605804443,8280207.633972168,3233475.44670105,280374.9740123749,3208794.355392456,6419429.302215576,1399872.5414276123,10568053.245544434,13134433.74633789,11101583.480834961,6773282.527923584,6465087.413787842,13819268.226623535,9581514.358520508,5954275.608062744
0.1,-123593032.83691406,-120890617.37060547,-80335159.30175781,-64145050.048828125,-75593505.859375,-19409440.994262695,-34600982.666015625,-34653266.90673828,-34986835.47973633,-40111591.33911133,-41479839.32495117,-45322788.23852539,-45007091.5222168,-20781135.55908203,-18740549.087524414,-14926216.125488281,-27687299.728393555,-18347984.313964844,-23441015.243530273,-19272878.646850586,-20492776.87072754,-13686170.57800293,-13963681.2210083,-1194922.2087860107,-5513289.928436279,-10578037.26196289,-7821502.685546875,-3727834.939956665,-9968004.22668457,-4139325.1419067383,-5135372.161865234,-21871234.893798828,-763024.1513252258,-967481.9707870483,-9776090.621948242,-3025158.643722534,263175.21929740906,-1710817.813873291,5238987.922668457,2128950.357437134,-3407591.8197631836,5239439.964294434,3351252.317428589,-979292.3331260681,3852959.156036377,910556.4951896667,5531572.341918945,9112265.586853027,10019982.33795166,5959311.008453369,662798.821926117,3296577.215194702,6053297.519683838,1192584.9914550781,10446764.945983887,14831657.409667969,12811874.389648438,6589783.668518066,6323854.923248291,15003913.879394531,11001489.639282227,7091903.209686279
0.105,-120135650.63476562,-117226585.3881836,-76319152.83203125,-62693988.80004883,-72711349.48730469,-21361827.850341797,-35479961.39526367,-33721725.46386719,-33657142.639160156,-37272373.19946289,-37688846.588134766,-41918640.13671875,-41516677.85644531,-18613067.626953125,-20787811.279296875,-16564138.412475586,-26407014.846801758,-16077180.862426758,-19136306.762695312,-15318081.855773926,-16433309.555053711,-11147725.105285645,-12664034.843444824,-5962674.140930176,-8738981.246948242,-11245986.938476562,-6172382.831573486,-400186.2406730652,-6511132.717132568,-1339219.8085784912,-3426381.1111450195,-21937606.811523438,-7569949.150085449,-4417024.612426758,-10424530.982971191,-2756948.471069336,336910.3968143463,560863.6140823364,5719034.671783447,2864171.5049743652,-4643222.808837891,267804.47363853455,-1292738.7952804565,-3546199.321746826,3055680.0365448,960457.9210281372,5755122.661590576,8544090.270996094,9562518.119812012,4892148.971557617,-3387462.1391296387,-846069.5743560791,1342785.120010376,937215.5666351318,7870350.8377075195,12582926.750183105,10213224.411010742,1928700.32787323,1670068.9792633057,10702483.177185059,8228942.87109375,3246501.684188843
0.11,-112958862.3046875,-114690895.0805664,-76663017.27294922,-56144062.04223633,-71938354.4921875,-16733942.031860352,-30325510.025024414,-28946119.30847168,-29893676.7578125,-34311294.55566406,-35876682.28149414,-44309055.32836914,-43636936.18774414,-28341920.852661133,-16250701.904296875,-13461089.134216309,-23776159.286499023,-13191987.991333008,-16506036.758422852,-14379388.809204102,-16921577.45361328,-16197473.526000977,-21137201.3092041,-6401861.667633057,-8297283.172607422,-9333300.590515137,-3821492.4335479736,1616320.1332092285,-5578489.780426025,-2317052.6027679443,-8042401.313781738,-29902841.567993164,-11200843.811035156,-5556386.470794678,-9042305.946350098,-1662130.59425354,598755.5980682373,2344505.548477173,3598066.568374634,-960825.8605003357,-10907620.429992676,-2721858.501434326,-4014485.3591918945,-4161384.5825195312,3705516.815185547,1064752.3403167725,5757825.3746032715,5975001.811981201,7054316.04385376,86341.99947118759,-6875291.347503662,-3982042.5510406494,-2483117.10357666,974930.3460121155,5298249.244689941,8429787.635803223,5598373.889923096,-2078838.586807251,-2314745.9030151367,5811263.561248779,4336405.7540893555,-1999434.5903396606
0.115,-105378593.44482422,-114452545.16601562,-82997077.94189453,-47539001.46484375,-74271476.74560547,-2275459.2895507812,-18327831.268310547,-21212261.199951172,-24914836.883544922,-32997901.916503906,-37501216.888427734,-52040424.34692383,-51233676.91040039,-45584247.58911133,-1810617.6853179932,-2942005.8727264404,-19651916.50390625,-10702491.760253906,-17182750.701904297,-16867044.44885254,-21395112.991333008,-25610216.14074707,-34273097.99194336,5373826.503753662,85551.12779140472,-3524287.700653076,-1268554.8067092896,904119.610786438,-7451373.57711792,-5864905.834197998,-15248429.298400879,-38976032.25708008,-3420386.31439209,226072.68393039703,-4775919.437408447,-252239.85314369202,875495.2549934387,1882453.9184570312,1412076.473236084,-5564030.170440674,-16451717.376708984,1703506.7081451416,397241.9500350952,-56424.62521791458,5660130.500793457,1180292.3679351807,5078400.135040283,3784479.6180725098,4855009.078979492,-4214400.768280029,-4372852.325439453,-1305341.7205810547,-790016.5915489197,1294317.364692688,5450042.247772217,6064873.218536377,3141607.2845458984,-637504.7564506531,-857960.58177948,5615004.539489746,3149940.4907226562,-3329587.459564209
0.12,-91639434.81445312,-105851409.91210938,-81333648.68164062,-36565505.98144531,-71813392.63916016,17102128.982543945,-3329049.587249756,-11377969.741821289,-17751541.137695312,-29838665.008544922,-37118228.912353516,-55070316.314697266,-54433429.71801758,-53938228.607177734,17576431.274414062,11261558.532714844,-13524856.567382812,-7259976.387023926,-17099847.7935791,-17694456.100463867,-22966985.70251465,-29216180.8013916,-40160881.04248047,22596164.70336914,11837302.207946777,3875033.378601074,1324018.120765686,-257128.86452674866,-8367953.300476074,-7269000.53024292,-17137239.456176758,-41177944.18334961,9659005.165100098,9056632.041931152,270225.465297699,1480923.5334396362,1044105.2913665771,-42089.0711247921,1435957.7894210815,-6578728.675842285,-17373025.89416504,8997002.601623535,7530790.328979492,5476554.393768311,7101221.561431885,1245892.4055099487,4138709.06829834,3218889.7132873535,4238093.852996826,-5473932.74307251,698790.3118133545,3215854.4063568115,2812608.480453491,1540567.0404434204,7141094.68460083,5526899.814605713,2798599.2431640625,2871964.2162323,2596116.542816162,7792942.047119141,3312025.547027588,-1846226.5729904175
0.125,-76218696.59423828,-91183853.14941406,-69089103.69873047,-27083280.563354492,-63918827.056884766,27985097.885131836,4389914.989471436,-4176565.647125244,-10909048.080444336,-24538064.95666504,-32643249.51171875,-49837062.83569336,-49420551.30004883,-48680072.78442383,28429082.8704834,18740709.30480957,-8652667.999267578,-3755222.3205566406,-14345074.653625488,-15033659.934997559,-19652894.973754883,-25072412.490844727,-36514339.447021484,29806892.39501953,16681179.04663086,7445352.077484131,2884233.236312866,188326.28428936005,-6845561.981201172,-5522622.585296631,-13683204.650878906,-38076881.408691406,14541391.372680664,12281900.405883789,2034173.4886169434,2994111.5379333496,1098865.8666610718,-996601.8199920654,2557519.1974639893,-4882451.53427124,-16491203.308105469,10296506.881713867,8747417.449951172,6379250.049591064,6803864.479064941,1269515.1567459106,4185939.7888183594,3076112.747192383,4059472.5608825684,-5531414.985656738,853938.6987686157,2642621.9940185547,2012034.6546173096,1499809.980392456,7299338.340759277,4436348.438262939,1621051.0730743408,2178817.7490234375,1793178.4391403198,7181971.073150635,1443164.8254394531,-2426789.0453338623
0.13,-76086196.89941406,-89645233.15429688,-64555007.93457031,-27916906.356811523,-62205257.415771484,22947820.66345215,-2191174.9839782715,-5473052.978515625,-10413444.519042969,-23253940.58227539,-30365955.352783203,-46233798.98071289,-45755107.87963867,-43558963.775634766,23324232.10144043,13853748.321533203,-9582478.523254395,-3701378.345489502,-12903271.675109863,-13623287.200927734,-17911134.719848633,-22556911.46850586,-33200901.03149414,23128417.96875,11730271.339416504,4844810.485839844,2197760.1051330566,954980.0157546997,-6090436.4585876465,-4765234.470367432,-12770142.555236816,-37197860.71777344,9109902.381896973,8350335.121154785,-351670.89104652405,3231822.4906921387,1034397.7212905884,-412920.14718055725,2027291.0594940186,-4710852.62298584,-17717174.530029297,5454015.731811523,3917683.3629608154,2478984.1175079346,5886241.436004639,1293864.2501831055,5154063.2247924805,2224085.0925445557,3213120.460510254,-6574214.458465576,-3791044.9504852295,-1911842.942237854,-2153750.419616699,1335157.1559906006,5964346.408843994,2833317.518234253,-503301.6800880432,-1792109.6086502075,-2265196.5618133545,4616293.430328369,-1437341.0940170288,-5028764.724731445
0.135,-91448318.48144531,-104487213.13476562,-75964866.6381836,-38039665.22216797,-71096443.17626953,12560807.228088379,-15004817.962646484,-12472264.289855957,-15733823.776245117,-27771862.030029297,-34063117.98095703,-51809413.90991211,-51062641.14379883,-49008502.96020508,12874394.416809082,4973716.259002686,-14253376.007080078,-6595460.414886475,-14880486.488342285,-16246883.392333984,-21722194.67163086,-27643995.28503418,-37023586.27319336,15368546.485900879,5871766.090393066,802248.2395172119,522762.0005607605,440098.4048843384,-8103350.639343262,-7365612.983703613,-17661701.202392578,-40826606.75048828,4670175.075531006,4978632.45010376,-2543592.929840088,2444938.898086548,823500.0371932983,-245014.2651796341,-338228.2853126526,-7132163.524627686,-19845802.307128906,2928181.4098358154,1390305.995941162,186255.90205192566,6300639.1525268555,1299099.4453430176,4922505.3787231445,1556726.4556884766,2526257.276535034,-7670034.408569336,-5963334.083557129,-3205682.9929351807,-3327573.537826538,1261132.5979232788,5713589.191436768,2895640.6116485596,-888742.6257133484,-2774333.0001831055,-3285529.851913452,4681299.209594727,-1704222.4407196045,-5066296.100616455
0.14,-93706809.9975586,-107589378.3569336,-80322624.20654297,-40714721.6796875,-75293144.22607422,14422841.07208252,-16939846.03881836,-13345718.383789062,-16510940.551757812,-28907545.08972168,-36042339.32495117,-57269645.69091797,-56454433.44116211,-55001163.482666016,14684976.577758789,5691390.9912109375,-14307696.342468262,-6052098.751068115,-14967723.846435547,-17602281.57043457,-24633407.592773438,-32700653.076171875,-41289588.928222656,18256553.649902344,8037616.729736328,1905247.688293457,1311535.5968475342,357971.4000225067,-9389020.919799805,-9533327.102661133,-21299594.87915039,-43389869.689941406,8762825.965881348,8060173.988342285,-270480.6327819824,2432308.6738586426,560967.8030014038,-1719771.146774292,-1582023.024559021,-8459445.95336914,-19086885.452270508,6820645.809173584,5248473.644256592,3400690.5555725098,7942062.854766846,1243204.8320770264,2087880.1345825195,2473619.222640991,3321294.7845458984,-6752759.4566345215,-2611323.833465576,652721.2262153625,-255181.40196800232,1235733.7474822998,6860150.8140563965,4773283.4815979,953170.7763671875,427864.55154418945,-87574.0721821785,7189316.749572754,368767.0826911926,-1798058.5098266602
0.145,-60781616.2109375,-75371154.78515625,-52406894.68383789,-23444406.509399414,-58869136.810302734,30514028.549194336,-2717370.03326416,-1890699.7442245483,-5877486.228942871,-18690513.610839844,-27087585.44921875,-47729999.54223633,-47212692.26074219,-44905944.82421875,30715089.797973633,17171726.22680664,-6475028.038024902,1364691.2574768066,-8299616.813659668,-11829541.206359863,-18503452.30102539,-26732042.31262207,-35059040.06958008,27423303.604125977,15567538.261413574,8037534.713745117,5834408.283233643,3253010.7498168945,-5999206.54296875,-6653082.847595215,-16361164.093017578,-39340045.92895508,15165384.292602539,13738109.588623047,4794502.735137939,3942682.0278167725,469667.0472621918,-3289290.428161621,392095.98302841187,-5609480.857849121,-15008846.282958984,11318049.430847168,9762091.636657715,7976176.738739014,8568070.411682129,1170012.5932693481,-1558104.8727035522,4580947.8759765625,5267932.891845703,-3970100.4028320312,1123830.9144973755,3793378.5915374756,1577381.3724517822,1127016.1867141724,6948096.752166748,6281827.926635742,2486466.1693573,2229080.2001953125,1763129.711151123,7539853.572845459,1012285.8285903931,-115929.05223369598
0.15,-11989214.897155762,-25766252.517700195,-3324334.144592285,2343740.224838257,-29623758.31604004,43697288.513183594,12998020.17211914,12399524.688720703,7978388.30947876,-4017726.8981933594,-11262649.536132812,-24530961.990356445,-24339202.880859375,-19600263.595581055,43846576.69067383,25879032.135009766,1280937.4332427979,9521512.031555176,497212.2311592102,-2285181.999206543,-6061679.840087891,-11119717.597961426,-18419233.322143555,30065395.35522461,18547277.450561523,12220314.025878906,10727027.893066406,7850399.971008301,-57561.393827199936,-280560.2550506592,-6014765.739440918,-29860517.501831055,14344060.897827148,14505468.368530273,7004776.0009765625,5215398.788452148,621634.9601745605,-2818382.978439331,3972372.531890869,-473454.68401908875,-10701444.625854492,10029301.643371582,8568120.956420898,7736257.553100586,6836084.842681885,1136305.4513931274,-3074275.016784668,6124647.14050293,6789034.843444824,-1439200.1628875732,302868.0384159088,2004827.0225524902,-1102140.9034729004,967962.8610610962,5131080.627441406,6510729.3128967285,2411457.7770233154,-681880.6529045105,-1027938.1275177002,4817877.292633057,-655999.7797012329,-2879599.5712280273
0.155,13261524.200439453,2572835.683822632,31608465.19470215,13742660.522460938,-10583733.558654785,39151966.0949707,13361467.361450195,15487755.77545166,11464988.708496094,1256257.41481781,-1769825.3393173218,-4968389.511108398,-4708310.604095459,3342502.1171569824,39321605.68237305,20807966.232299805,-136861.04118824005,10193398.475646973,2887000.08392334,2353332.51953125,2170304.536819458,1905511.8560791016,-2621411.8003845215,22017286.30065918,12983210.563659668,9562189.102172852,11908110.618591309,10204866.409301758,2863588.0947113037,3793797.731399536,228778.74970436096,-20974000.930786133,6564509.868621826,9296645.164489746,4093774.7955322266,4471127.986907959,752352.1780967712,-543432.1761131287,5953829.288482666,2494848.9665985107,-8624461.17401123,4702459.335327148,3328858.3755493164,2800364.2559051514,4152365.207672119,1037393.2123184204,-2420129.7760009766,5969671.249389648,6809670.925140381,-915190.9351348877,-3485899.2099761963,-1874426.3648986816,-5029194.355010986,833811.0446929932,3367908.000946045,6376179.6951293945,1920634.7465515137,-4870834.3505859375,-5104753.017425537,3101782.5603485107,-1686560.3923797607,-6825520.992279053
0.16,5047372.341156006,-20978.162065148354,38207153.3203125,5519273.75793457,-10095874.786376953,21867733.001708984,-84626.2127161026,6764770.5078125,3799752.950668335,-4650629.997253418,-3175049.7817993164,138385.1170539856,802534.7590446472,12803050.994873047,22145425.79650879,6908313.751220703,-8385177.6123046875,4470415.115356445,-1254807.710647583,87286.83739900589,2149622.678756714,5319000.244140625,4296677.112579346,10912705.421447754,4591894.149780273,3187485.694885254,9763385.772705078,9078259.468078613,1575515.1510238647,3478228.5690307617,-783318.8772201538,-16808244.705200195,-562945.0678825378,3514593.3628082275,-305348.0386734009,2640053.9875030518,549964.4875526428,1456330.0609588623,5538871.288299561,1808483.362197876,-8580458.641052246,1100354.6714782715,-281407.05823898315,-1544311.285018921,2682876.1100769043,709880.0539970398,-2376108.407974243,4407825.946807861,5456239.700317383,-2437628.0307769775,-6334399.223327637,-3735412.359237671,-6534904.479980469,652973.7710952759,2685746.192932129,5836907.863616943,1489259.8390579224,-6429617.881774902,-6678108.692169189,4228546.142578125,-891734.0040206909,-7887976.64642334
0.165,-9708921.432495117,-7780323.028564453,35719200.134277344,-5528501.510620117,-13942337.989807129,8216290.473937988,-11205069.541931152,-1511205.792427063,-3006955.623626709,-9998332.023620605,-6503705.978393555,-1302211.2846374512,-386913.2995605469,16083763.122558594,8592830.657958984,-2665144.920349121,-13301166.534423828,738714.337348938,-3949901.580810547,-2460583.9252471924,653175.1155853271,5034957.408905029,6641541.481018066,4838545.322418213,116923.37691783905,-608890.7122612,7937036.037445068,7134431.3621521,331749.8564720154,2722535.3717803955,-2376694.440841675,-15416304.588317871,-2970551.7292022705,1095543.0269241333,-2177373.4092712402,1751750.8268356323,109394.8632478714,1999536.0374450684,4927231.788635254,388664.75224494934,-8560384.750366211,691479.3848991394,-779757.2612762451,-2512882.947921753,2430088.996887207,257904.88719940186,-4153552.532196045,2684363.36517334,3790181.6368103027,-4105950.8323669434,-7592809.677124023,-3888873.1002807617,-6525093.555450439,385390.5498981476,1885903.8352966309,4080595.016479492,260552.49571800232,-6267236.232757568,-6663369.655609131,5300000.190734863,-404073.20857048035,-6062298.29788208
0.17,-9072884.559631348,-1528609.6334457397,42516441.345214844,-5774921.417236328,-8657493.591308594,5379624.366760254,-10839687.34741211,-1659430.8614730835,-1701822.8769302368,-7189209.461212158,-3554877.281188965,3151552.200317383,3847511.2915039062,24693935.39428711,5739275.4554748535,-3308601.6178131104,-11170283.317565918,2469614.267349243,-1262243.5092926025,-339534.78932380676,4257704.257965088,9647465.705871582,13298542.976379395,3936580.8963775635,-344740.8676147461,-466430.03821372986,7741985.321044922,6584985.733032227,2081265.6879425049,5391230.583190918,2221664.9055480957,-11297139.167785645,-3005816.4596557617,722495.2578544617,-2305841.6843414307,1600501.1796951294,-124489.46386575699,1682055.4733276367,6165575.02746582,1591789.0071868896,-6094040.870666504,751856.9231033325,-800175.130367279,-2430360.3172302246,1689539.3133163452,56234.028190374374,-5314815.998077393,2323014.736175537,3353103.1608581543,-3039847.1355438232,-8351115.2267456055,-4283330.917358398,-6858071.804046631,249356.29963874817,999375.5221366882,2567128.896713257,-781690.7167434692,-6494453.430175781,-7045094.013214111,4862638.9503479,-716745.5554008484,-2973725.5573272705
0.175,-3854875.087738037,5806049.346923828,49962825.775146484,-1792117.1188354492,-29740.260913968086,5917194.843292236,-6491398.811340332,676599.0257263184,1662739.2768859863,-2247574.5677948,1957456.8271636963,12154715.538024902,12392554.28314209,36679439.544677734,6194430.351257324,-2068836.2121582031,-8398140.907287598,4559185.028076172,1959832.4298858643,3330314.874649048,10167470.932006836,17937793.731689453,24400793.075561523,3651826.6201019287,-860179.3646812439,-50278.04896235466,6956734.657287598,6624604.70199585,4672387.12310791,9956249.237060547,10857369.422912598,-2494218.587875366,-3525398.015975952,-239419.3410873413,-3851934.1945648193,353547.24526405334,63079.42420244217,1418542.742729187,8634195.327758789,5198826.313018799,-308647.15576171875,93796.2457537651,-1477254.7483444214,-3784861.3262176514,9370.692074298859,293798.89369010925,-3414991.855621338,4049170.970916748,5004545.211791992,1774741.291999817,-8061402.320861816,-4267246.723175049,-6306347.846984863,472217.4108028412,2351969.9573516846,4124644.2794799805,1021004.6768188477,-6032091.6175842285,-6629989.6240234375,5989183.9027404785,1024193.0484771729,1242673.7546920776
0.18,-15493641.85333252,-6497028.350830078,39816543.57910156,-6907147.8843688965,-1954480.1712036133,765243.2322502136,-9490010.261535645,-2745438.575744629,-854758.5606575012,-3442620.038986206,1879898.7865447998,14096818.923950195,14101703.643798828,40106163.024902344,1069847.2261428833,-5797507.762908936,-10527236.938476562,2658892.1546936035,1054192.1854019165,3446354.389190674,11524807.929992676,21237339.01977539,30574705.123901367,1602743.6256408691,-3125164.747238159,-1533194.899559021,4470479.488372803,6123822.6890563965,5095885.753631592,12159728.050231934,15682950.973510742,5778590.202331543,-4284474.849700928,-1748865.4851913452,-6848856.9259643555,-1902145.0281143188,369049.0126609802,1463589.5490646362,10138586.044311523,8126528.739929199,5957254.409790039,137614.81642723083,-1415594.220161438,-5457516.193389893,-1088720.9177017212,696546.8525886536,15099.680051207542,6642188.549041748,7560478.687286377,7304284.572601318,-6099879.264831543,-2590274.3339538574,-3557629.5852661133,880321.5622901917,6236808.300018311,8099758.148193359,5225277.900695801,-3421670.67527771,-3946316.719055176,10425049.781799316,5683412.551879883,5870570.659637451
0.185,-41854000.091552734,-33998527.52685547,14139813.423156738,-20191444.396972656,-15016869.54498291,-9184801.10168457,-19463075.637817383,-10275153.160095215,-6863543.0335998535,-8494684.219360352,-3515124.559402466,5324591.159820557,5450585.842132568,30743574.142456055,-8692959.785461426,-12521840.09552002,-14422474.86114502,-134468.03390979767,-1148128.1518936157,840618.908405304,7796919.345855713,16058450.698852539,25676010.131835938,-1099407.5536727905,-5296225.547790527,-2909095.048904419,2774710.178375244,6170325.756072998,4296887.8746032715,11053742.408752441,13422663.688659668,6845310.211181641,-4309873.104095459,-2387358.9038848877,-8220719.337463379,-2791943.5501098633,420201.30157470703,1907968.6403274536,9745863.914489746,8436838.150024414,7989451.4083862305,1086821.0792541504,-432292.75941848755,-5431101.322174072,-727377.2954940796,871013.2241249084,1222615.5996322632,7640300.273895264,8518967.628479004,9052636.14654541,-4509172.9164123535,-971695.4231262207,-1020711.4219665527,1032524.7049331665,8806425.094604492,9941070.556640625,7310337.066650391,-886408.4482192993,-1259790.6589508057,14266412.734985352,9222133.63647461,7851903.438568115
0.19,-60242870.33081055,-53124134.0637207,-6407639.980316162,-28593259.811401367,-25955911.63635254,-16559206.008911133,-26583135.6048584,-14053701.400756836,-8641648.292541504,-9591854.095458984,-6774246.2158203125,-4359718.799591064,-4033160.2096557617,18420036.31591797,-15920887.94708252,-16395151.138305664,-14762753.4866333,708005.3091049194,87613.75397443771,178463.25039863586,4844575.881958008,8896606.4453125,15500521.659851074,-3152616.024017334,-6010960.102081299,-2401139.736175537,3969285.011291504,8007979.393005371,5268348.217010498,9826475.143432617,8988903.045654297,1407037.7349853516,-4340270.519256592,-2432589.7693634033,-6903052.806854248,-1358963.131904602,286028.6235809326,2943368.434906006,8757064.819335938,7469566.822052002,4858963.966369629,843288.0640029907,-591220.1404571533,-4672288.417816162,-322286.33761405945,770721.6739654541,-659027.7552604675,6213781.833648682,7105577.9457092285,6506301.8798828125,-5984160.900115967,-2183355.3314208984,-1878074.7652053833,780123.6510276794,7129418.37310791,7428316.593170166,4834227.561950684,-1663765.549659729,-1865046.739578247,13304313.659667969,8209993.362426758,5479475.975036621
0.195,-59612949.37133789,-53662628.173828125,-10358920.097351074,-26812324.52392578,-26630041.122436523,-18441289.9017334,-26182435.989379883,-12594486.236572266,-5975296.974182129,-6647383.689880371,-5351430.416107178,-6178936.48147583,-5796208.381652832,13806362.15209961,-17900440.216064453,-16737636.56616211,-13193732.261657715,3053863.525390625,2954708.8146209717,2195875.883102417,5739738.941192627,6952737.331390381,10141530.990600586,-5188533.306121826,-6736993.789672852,-2060489.8929595947,5796531.200408936,10085689.544677734,7999696.254730225,10846592.903137207,8232144.355773926,-3103610.7540130615,-5711304.664611816,-3625342.845916748,-5732651.233673096,187386.78097724915,274778.0382633209,4161694.5266723633,8826338.768005371,7537985.324859619,1086126.3275146484,-1715847.2537994385,-3019262.5522613525,-5736363.887786865,-1324885.4875564575,614334.1660499573,-2493575.8113861084,4567975.5210876465,5618962.287902832,3834656.238555908,-10019504.54711914,-5821166.038513184,-5177038.669586182,431686.52057647705,3839972.0191955566,4175480.365753174,1429846.2867736816,-4964187.145233154,-5058032.989501953,9481431.96105957,5126253.604888916,1633442.6403045654
0.2,-55453720.09277344,-51180889.12963867,-9283958.435058594,-25346273.42224121,-24972890.853881836,-19899475.09765625,-25012546.53930664,-13263216.972351074,-7077200.412750244,-8051868.438720703,-5811559.677124023,-4964137.554168701,-4563949.5849609375,14653397.560119629,-19601179.122924805,-18382863.998413086,-15892497.062683105,877072.4534988403,1389858.9611053467,2317366.123199463,6343372.821807861,8262127.876281738,10527477.264404297,-8641481.399536133,-9654844.284057617,-4853497.02835083,4343636.512756348,9458819.389343262,9072307.586669922,12228164.672851562,10022374.153137207,-2875193.5958862305,-8501407.623291016,-6571510.791778564,-7284858.226776123,-453142.07673072815,373632.8184604645,4499552.249908447,9755498.886108398,8452622.413635254,522487.3423576355,-4936747.074127197,-6186372.756958008,-8614647.86529541,-2531322.0024108887,474200.5467414856,-1461372.73311615,5182324.409484863,6444888.114929199,4091288.5665893555,-13469224.92980957,-8771017.074584961,-7301784.038543701,288587.39137649536,3410772.0851898193,4485651.016235352,1670318.1266784668,-7161070.823669434,-7279845.714569092,7833113.193511963,4598621.368408203,83372.19059467316
0.205,-67808570.8618164,-64283538.818359375,-20137945.1751709,-35380466.46118164,-33063289.642333984,-26482248.306274414,-31145080.56640625,-21397636.41357422,-16545450.210571289,-18118061.065673828,-13900628.089904785,-11074219.703674316,-10532106.399536133,10749829.292297363,-26284601.21154785,-24213670.73059082,-23941064.834594727,-6578905.5824279785,-5715641.021728516,-2539726.972579956,1871256.3514709473,5484000.682830811,8618992.805480957,-13433486.938476562,-14541925.430297852,-9924039.840698242,-346251.7559528351,5813889.980316162,6374701.499938965,10746913.90991211,8682323.455810547,-2533210.515975952,-11550596.237182617,-9782803.535461426,-10154396.057128906,-2541528.2249450684,259700.9837627411,3542176.2466430664,9964039.80255127,7964558.124542236,1251540.4224395752,-6691799.640655518,-8074558.258056641,-10470790.86303711,-1509354.4721603394,240664.3182039261,1374603.3906936646,7498637.676239014,8796211.242675781,5391014.099121094,-14505396.842956543,-9289694.786071777,-7225494.384765625,278719.57421302795,5649421.215057373,7393870.3536987305,4548449.516296387,-7091441.1544799805,-7329371.452331543,9017716.407775879,6511921.8826293945,245870.903134346
0.21,-93115653.99169922,-88955528.25927734,-41435432.43408203,-51973903.65600586,-49254676.818847656,-36184116.36352539,-41957817.07763672,-31913024.90234375,-27917312.622070312,-29816453.93371582,-25136684.41772461,-23740821.838378906,-23044202.80456543,-120938.36069107056,-35878364.56298828,-30910701.751708984,-31214778.900146484,-13147795.677185059,-12477517.127990723,-9171298.98071289,-5572848.320007324,-2434697.389602661,766761.2433433533,-17515556.33544922,-18713390.350341797,-13277469.635009766,-4063362.5984191895,2157966.8521881104,2049254.1790008545,6705804.347991943,2966484.0698242188,-6820456.504821777,-13624492.645263672,-11339415.550231934,-11073783.874511719,-3627756.357192993,-135070.5325603485,2247927.42729187,8883377.075195312,5465917.110443115,-527176.9762039185,-6842649.459838867,-8443621.635437012,-9559233.665466309,1759659.0518951416,-44573.43369722366,2831041.8128967285,8848555.564880371,9972410.202026367,4609934.329986572,-14258693.69506836,-8526200.294494629,-7147701.740264893,182278.5586118698,6542045.593261719,8717926.025390625,5537719.7265625,-6963657.855987549,-7291149.139404297,9200171.47064209,6699758.052825928,-1200388.3123397827
0.215,-107609077.45361328,-103325042.72460938,-54821994.78149414,-59051807.40356445,-58954940.79589844,-41269878.38745117,-46696197.509765625,-35106384.27734375,-31108911.514282227,-32963851.928710938,-29600803.37524414,-30734054.565429688,-30092195.510864258,-8321768.760681152,-40893257.14111328,-33038600.92163086,-32245254.516601562,-13647400.856018066,-13676001.54876709,-11970026.016235352,-9363086.700439453,-7956802.845001221,-6001868.724822998,-18714527.130126953,-19666399.002075195,-12677910.804748535,-3824738.025665283,1179985.0463867188,-180524.7962474823,3786617.9943084717,-1561760.0679397583,-12175045.013427734,-14074697.494506836,-10585055.351257324,-9245368.003845215,-2839405.5366516113,-440186.7687702179,1743474.006652832,7828291.416168213,3345517.39692688,-3807341.0987854004,-6446618.08013916,-8117708.206176758,-7298213.481903076,4564285.2783203125,-124644.05596256256,1723707.4375152588,8234696.388244629,9219786.643981934,2496131.8969726562,-14513340.950012207,-8130371.09375,-8218281.7459106445,22115.444764494896,4705527.782440186,7266765.594482422,3625619.1730499268,-8079299.9267578125,-8390165.328979492,6792525.291442871,3707997.7989196777,-4458239.0785217285
0.22,-98905578.61328125,-96579193.11523438,-50114952.087402344,-50594524.38354492,-54067146.30126953,-37899906.158447266,-40663494.11010742,-29114795.684814453,-24912744.522094727,-26816463.470458984,-24835498.809814453,-25729888.916015625,-25298887.252807617,-6290510.654449463,-37658405.30395508,-29612054.8248291,-28653352.737426758,-10024744.987487793,-10915094.375610352,-10062361.717224121,-7307028.293609619,-5727526.1878967285,-4419816.493988037,-16821895.599365234,-17336294.174194336,-9920535.08758545,-1260497.9276657104,2229600.9063720703,445485.2044582367,4017401.2184143066,-396937.1020793915,-11865783.69140625,-12736535.07232666,-8092020.034790039,-6713775.157928467,-1372508.6450576782,-354616.76120758057,1798667.550086975,7976873.874664307,3728848.934173584,-4065586.566925049,-5578322.410583496,-7112882.614135742,-5691880.226135254,5122581.005096436,121601.05258226395,-212561.77127361298,7366714.4775390625,8411028.861999512,2350456.476211548,-15058147.430419922,-7949474.334716797,-8485383.033752441,28874.635696411133,3218936.6817474365,5834229.469299316,2519076.8241882324,-8494256.019592285,-8713303.565979004,5290569.305419922,1258496.4036941528,-5599481.582641602
0.225,-82844772.33886719,-82819763.18359375,-39040439.60571289,-38943759.91821289,-44041873.931884766,-30765254.974365234,-31536727.905273438,-22193941.116333008,-18033327.102661133,-20320650.100708008,-18853767.39501953,-17652666.091918945,-17310775.756835938,734705.7461738586,-30674285.888671875,-24739135.7421875,-25974405.28869629,-7840324.878692627,-9279935.836791992,-7893337.249755859,-4335790.157318115,-236119.04680728912,2231097.936630249,-13516220.092773438,-13776948.928833008,-8080792.427062988,87203.13757658005,2694763.8988494873,1326537.7283096313,5171599.864959717,3697407.007217407,-6343930.244445801,-9690132.141113281,-4859702.587127686,-5246678.352355957,-484082.967042923,-41876.744478940964,1305296.0634231567,8581129.07409668,5521053.314208984,-219077.87024974823,-3262691.2593841553,-4642757.415771484,-4556102.275848389,4789092.540740967,485793.20311546326,-909807.7416419983,7867300.033569336,9017886.1618042,4958168.983459473,-13947092.056274414,-6573096.752166748,-5846009.731292725,303386.24119758606,4733110.9046936035,6766070.84274292,5053668.49899292,-5897488.117218018,-6022178.649902344,8309543.609619141,3329601.526260376,-1665438.4136199951
0.23,-80850479.12597656,-80244789.12353516,-37583862.3046875,-37722045.8984375,-41976375.579833984,-26512126.922607422,-28814697.265625,-21618164.0625,-17408624.64904785,-19979555.130004883,-18696063.995361328,-17441951.751708984,-16992338.180541992,3201838.731765747,-26314680.099487305,-22268190.383911133,-26269886.016845703,-8685606.956481934,-10051098.823547363,-8592730.522155762,-5059723.854064941,1227641.4632797241,5589906.692504883,-10632710.456848145,-11096317.291259766,-8031539.9169921875,-678276.3600349426,1687481.164932251,542275.4287719727,4382959.842681885,5272647.380828857,-2418285.608291626,-5674993.515014648,-2125462.532043457,-4711581.230163574,-356221.64607048035,172401.63683891296,130270.74933052063,8244229.316711426,6153075.218200684,3700753.2119750977,366033.52427482605,-988538.3248329163,-2819854.974746704,5623648.643493652,695663.5117530823,-138233.67655277252,9041357.99407959,10146014.213562012,7566196.918487549,-10375461.57836914,-3669010.639190674,-1361035.3469848633,674856.3647270203,7765734.672546387,9186537.742614746,9397727.012634277,-1229790.449142456,-1315258.8605880737,14345000.267028809,8987048.149108887,5245679.3785095215
0.235,-87203231.81152344,-83165710.44921875,-40459217.0715332,-42137054.443359375,-44669429.779052734,-24783870.697021484,-30579826.35498047,-23880069.732666016,-19194292.068481445,-21511608.123779297,-20372419.357299805,-21535015.106201172,-21016298.294067383,2043879.508972168,-24295621.871948242,-21412935.256958008,-26221282.958984375,-8603437.423706055,-9483684.539794922,-9441862.106323242,-6964309.215545654,-483673.8705635071,4857243.537902832,-8937261.581420898,-9756736.755371094,-8194541.931152344,-1165207.028388977,1183990.8361434937,-301328.8676738739,2570468.6641693115,4131458.282470703,-3102241.9929504395,-2681621.551513672,-1159857.3923110962,-4294070.720672607,-532436.3112449646,245902.9108285904,-353138.5362148285,7298920.631408691,5125626.087188721,3967882.3947906494,2871903.419494629,1504687.9053115845,-1226416.3494110107,7311258.792877197,709860.3248596191,962828.516960144,9054665.565490723,10024453.163146973,7439603.328704834,-6974301.815032959,-1473001.480102539,1222288.966178894,880169.4512367249,8902605.056762695,10566219.329833984,11424392.700195312,1577918.6487197876,1438871.5028762817,17971096.03881836,13052701.950073242,9483986.854553223
0.24,-74617500.30517578,-68373703.00292969,-26305778.50341797,-35301548.00415039,-36843799.59106445,-19537670.135498047,-26349094.39086914,-19706630.70678711,-14604905.128479004,-16542297.36328125,-14854469.299316406,-17306062.698364258,-16907455.444335938,6724961.280822754,-18909513.473510742,-18618177.41394043,-22277885.43701172,-3950201.2729644775,-4655522.346496582,-5969983.100891113,-4299014.568328857,1541551.8283843994,6510710.2394104,-8298761.367797852,-8710729.598999023,-6804939.270019531,1000851.035118103,3281073.0934143066,1532938.3611679077,2905745.9831237793,4305782.318115234,-4600260.257720947,-3094569.683074951,-2272276.4015197754,-3724029.779434204,-374024.6295928955,320950.4783153534,1004428.2674789429,7379464.626312256,3923673.152923584,821718.8119888306,1493503.8089752197,208365.7532930374,-1671589.3745422363,7969484.806060791,643532.6933860779,1447839.0216827393,7207580.089569092,8132304.1915893555,4227175.712585449,-8037962.913513184,-3269658.8039398193,-1167730.450630188,793161.8094444275,6683109.283447266,9115360.260009766,8893138.885498047,-811282.8135490417,-1068986.177444458,15414533.615112305,11055293.083190918,6663746.8338012695
0.245,-32591327.667236328,-28667263.03100586,11491475.105285645,-12083263.397216797,-14254174.23248291,-7831950.1876831055,-11451059.341430664,-6645238.399505615,-2164612.054824829,-4531833.171844482,-1361170.5303192139,-2159112.6918792725,-1892280.4594039917,19763994.216918945,-7352270.603179932,-12129951.477050781,-15153123.85559082,3830131.5307617188,2445406.436920166,1473099.4701385498,3381592.5121307373,9019817.352294922,12632925.033569336,-7656464.576721191,-6569124.698638916,-3455100.2979278564,5592422.4853515625,7459264.755249023,5830078.601837158,5881896.495819092,6806942.939758301,-3934206.72416687,-6853765.01083374,-3914498.5675811768,-2837206.8405151367,725623.607635498,366010.75530052185,3384897.232055664,8785576.820373535,3254479.6466827393,-3655151.128768921,-3411054.3727874756,-4577339.649200439,-4040603.1608581543,7073530.673980713,548396.1701393127,1086679.220199585,4297949.314117432,5250710.010528564,-792131.781578064,-14385445.594787598,-9482627.868652344,-7943217.754364014,480192.8102970123,2338181.257247925,4733761.787414551,2907940.149307251,-7813621.997833252,-8132526.397705078,8207405.090332031,3389037.1322631836,-2499537.706375122
0.25,15007323.265075684,13610541.343688965,51592826.84326172,13203783.988952637,8164081.573486328,6815310.001373291,7303932.666778564,8044214.248657227,10540754.318237305,6626435.75668335,11198715.209960938,12163454.055786133,12469595.909118652,31258657.455444336,7075039.863586426,-3246281.862258911,-8152035.713195801,10582908.630371094,7996648.31161499,8187498.092651367,10585567.474365234,15582423.210144043,16968364.715576172,-4846630.573272705,-2552735.8055114746,1124392.7478790283,10657446.86126709,11409609.7946167,9596589.088439941,8629595.756530762,8210525.5126953125,-3612891.435623169,-10071136.474609375,-3634404.420852661,-1064019.4416046143,2745383.9778900146,220739.87126350403,4699562.549591064,9918069.839477539,2543512.5827789307,-8122051.239013672,-7803708.553314209,-8944088.93585205,-5691917.419433594,5880055.4275512695,408711.0161781311,-27269.54221725464,1504402.1606445312,2400765.1805877686,-5736051.559448242,-21056417.46520996,-15863740.921020508,-14859677.3147583,101242.34855175018,-1878156.304359436,-748740.7922744751,-3245882.034301758,-14943741.798400879,-15178270.33996582,1593515.157699585,-4837287.902832031,-12317516.326904297
0.255,39861522.67456055,34280155.181884766,70077575.68359375,26188552.856445312,16149078.369140625,20567199.70703125,21762889.862060547,17588813.78173828,17547927.856445312,11688567.161560059,16393438.339233398,15894933.700561523,16260232.925415039,31826358.795166016,20768373.489379883,6457472.324371338,-2449766.8743133545,14994375.228881836,11499868.392944336,11573673.248291016,13532959.938049316,16136976.24206543,14439223.289489746,2095087.7666473389,3279611.587524414,5968737.1253967285,14919434.547424316,13897755.62286377,11087314.60571289,9229876.518249512,6720119.476318359,-6488988.876342773,-8266016.960144043,-311889.111995697,2020977.0202636719,4843610.2867126465,-73360.48781871796,4004961.0137939453,9665392.875671387,1917300.7011413574,-11547474.86114502,-7816347.599029541,-8982644.081115723,-4683750.152587891,5326416.969299316,259688.40718269348,-1600090.8613204956,-448103.129863739,288833.1115245819,-8667516.708374023,-22207662.58239746,-17339271.545410156,-17532279.96826172,-214711.7257118225,-4289060.115814209,-4453483.581542969,-6485751.628875732,-17634008.407592773,-17748819.35119629,-507362.4849319458,-8387943.267822266,-16863712.310791016
0.26,41511074.06616211,34370544.43359375,66703620.91064453,28582101.821899414,13090663.90991211,33173965.454101562,31108186.721801758,22663312.911987305,20613437.65258789,13245106.69708252,16814474.10583496,12223842.62084961,12422554.969787598,23825164.794921875,33448101.043701172,16085069.65637207,3011043.7870025635,18619039.53552246,14592437.744140625,13067049.980163574,13666975.975036621,12956962.585449219,8023968.696594238,12035822.868347168,9754160.88104248,9980365.753173828,18079801.559448242,15144560.813903809,11203485.488891602,8726878.16619873,4730986.11831665,-10767805.099487305,-1409197.6881027222,4739086.627960205,5909857.273101807,6247617.244720459,-260517.23957061768,2538511.9915008545,8732526.779174805,2304018.020629883,-12934506.4163208,-3733495.9506988525,-4844340.3244018555,-2062379.1217803955,5246762.752532959,176441.89298152924,-2893327.7130126953,-1436312.5562667847,-840887.725353241,-8962454.795837402,-17730485.916137695,-13573904.991149902,-15317292.213439941,-401386.3503932953,-4656744.480133057,-4869074.34463501,-6237436.771392822,-15275189.399719238,-15441376.686096191,1282548.6660003662,-6700731.27746582,-15294714.92767334
0.265,37049465.17944336,28633014.678955078,55981929.779052734,28763271.33178711,9620887.756347656,43484046.936035156,37049270.62988281,25702610.01586914,22363649.368286133,13974885.940551758,16179138.18359375,8085568.428039551,7996021.747589111,15210515.975952148,43815399.169921875,23125379.56237793,7200803.279876709,20865486.14501953,15753331.184387207,13204270.362854004,12623560.905456543,9993412.971496582,2883139.6102905273,20190124.51171875,14580161.094665527,11693235.397338867,19212156.295776367,14700207.710266113,10538891.792297363,8065264.701843262,4040530.6816101074,-13388777.732849121,5761580.944061279,9055473.327636719,9255603.790283203,7001666.069030762,-192668.1399345398,2065330.5053710938,7936048.984527588,3245067.358016968,-12811328.887939453,882263.5412216187,-115079.97661828995,-5824.91047680378,5760773.181915283,194332.00359344482,-3017711.639404297,-1747081.3989639282,-1237672.9249954224,-8141501.426696777,-12682838.439941406,-8873049.73602295,-11237203.598022461,-388352.9007434845,-4021297.9316711426,-3240970.1347351074,-4534045.696258545,-11035367.012023926,-11426269.53125,3755547.285079956,-3607918.0240631104,-11736677.169799805
0.27,30046739.57824707,18440977.096557617,41879535.67504883,25487960.815429688,4972348.213195801,46344661.712646484,36751575.4699707,24059137.34436035,19484115.600585938,10138448.715209961,11669460.29663086,2369626.998901367,2237751.245498657,7773298.740386963,46706989.28833008,23581340.789794922,6231337.547302246,18029996.871948242,10701363.563537598,9252216.339111328,8542753.219604492,6408030.033111572,-1139955.1630020142,22308874.130249023,15845413.208007812,10184363.36517334,16823921.20361328,11297302.24609375,7815109.729766846,6043981.075286865,2788048.505783081,-14794097.900390625,9285025.596618652,11287485.122680664,10832274.436950684,7335689.544677734,35062.42111325264,2731082.9162597656,6814877.510070801,3007925.7488250732,-12763275.146484375,3812336.206436157,2839931.7264556885,1163473.6061096191,7579833.030700684,319190.0849342346,-1884525.5374908447,-1444236.5169525146,-1007054.8057556152,-7654914.379119873,-10175801.277160645,-6312427.997589111,-7889051.914215088,-100990.44442176819,-3092789.4115448,-1399051.547050476,-3045281.6486358643,-7606321.811676025,-8154231.071472168,5741888.999938965,-2000156.4025878906,-9404067.039489746
0.275,10130156.517028809,-5381825.4470825195,17822856.903076172,12363978.385925293,-8985780.715942383,39081176.7578125,27497476.57775879,14713714.599609375,8614781.379699707,-1665718.674659729,-111385.58387756348,-9340218.544006348,-9161561.965942383,-2047706.6040039062,39518558.502197266,16959014.892578125,-970856.0705184937,9351145.74432373,-348277.7178287506,401867.0916557312,373750.56743621826,-199549.3471622467,-6820798.873901367,19307449.340820312,14107488.632202148,6666402.339935303,11467851.638793945,5738398.551940918,2864397.5257873535,2073949.0985870361,-619357.2282791138,-16967744.827270508,10127736.09161377,11988854.40826416,10523439.407348633,6922113.418579102,267283.55884552,3198374.5098114014,4967919.34967041,1468958.020210266,-12776538.848876953,6160617.351531982,5115463.2568359375,2738789.0815734863,10243648.529052734,551361.2031936646,-622278.9883613586,-145987.43617534637,294131.3087940216,-6543768.882751465,-8065013.885498047,-4520227.432250977,-4954408.645629883,386011.18326187134,-1278287.0531082153,769085.1092338562,-1022733.8075637817,-4672340.869903564,-5153942.584991455,8908985.137939453,-628379.762172699,-7010321.140289307
0.28,-21417781.829833984,-38610237.12158203,-13089817.04711914,-6751857.280731201,-30150388.717651367,27469453.811645508,14467879.295349121,2204695.463180542,-4996616.363525391,-15799475.66986084,-14364457.130432129,-24055452.346801758,-23529808.044433594,-14041296.95892334,27984811.782836914,8681323.051452637,-9137026.7868042,588477.7307510376,-9979668.617248535,-8373475.074768066,-8001710.891723633,-8019195.556640625,-13298110.961914062,15817906.379699707,11974732.398986816,4030226.230621338,6751776.695251465,1749081.8500518799,-1287014.8420333862,-1562260.627746582,-4252753.734588623,-19536149.978637695,11315549.850463867,12270510.67352295,9316252.708435059,5567741.394042969,430622.6372718811,2687978.506088257,3425562.1433258057,573903.1434059143,-11429356.575012207,9194217.681884766,8134778.97644043,4926717.281341553,11615011.215209961,814155.101776123,-534673.0947494507,1961604.356765747,2575457.0960998535,-3450790.8821105957,-3918121.099472046,-1467611.55128479,-1563127.5177001953,776521.0866928101,1629802.5846481323,3897660.493850708,2367512.7029418945,-1308197.6175308228,-1644431.710243225,13689704.895019531,2472941.1602020264,-2585156.4407348633
0.285,-46663597.106933594,-62490997.314453125,-35627315.521240234,-19521389.00756836,-45803432.46459961,19550891.876220703,6205930.709838867,-5156766.891479492,-12078055.381774902,-22846979.14123535,-22452796.936035156,-33874942.779541016,-33278621.673583984,-22968051.91040039,20031349.182128906,4292479.038238525,-12263944.625854492,-2101798.7728118896,-11642694.473266602,-11595526.695251465,-12002782.821655273,-13129858.016967773,-17434705.73425293,14156526.565551758,10877519.607543945,3715267.6582336426,5829588.890075684,1973846.197128296,-1880096.0779190063,-2620720.148086548,-5980284.690856934,-21158826.82800293,12615832.328796387,12115487.098693848,8099815.368652344,4081463.33694458,476714.46204185486,2011306.0474395752,3339681.386947632,1059592.2470092773,-9347774.505615234,11224102.973937988,10272488.594055176,5975771.903991699,10348190.307617188,927673.2802391052,-1551391.363143921,3397352.2186279297,4234800.338745117,-224359.30371284485,-54393.209517002106,1213851.6902923584,812058.0911636353,787109.7326278687,3719071.388244629,6322321.41494751,5064446.926116943,1072464.942932129,753751.5759468079,16994136.810302734,5516649.7230529785,1681303.858757019
0.29,-56021038.05541992,-69824501.03759766,-43606327.056884766,-22200746.536254883,-50452545.166015625,15591563.22479248,3498576.4026641846,-6181613.922119141,-11530640.602111816,-22071149.826049805,-23397859.573364258,-37167278.28979492,-36705432.8918457,-26552539.825439453,15923247.337341309,2840571.165084839,-11214731.216430664,-12471.77179902792,-7919745.445251465,-10437070.846557617,-12587508.201599121,-15415862.083435059,-19527076.721191406,12260074.615478516,9514156.341552734,3904939.651489258,7525413.990020752,4361940.860748291,-571390.2115821838,-2406571.388244629,-7158858.776092529,-22717538.833618164,11225813.865661621,10763006.210327148,6795394.8974609375,3488877.773284912,364272.20702171326,2129713.296890259,4149468.421936035,1104310.6317520142,-9395431.518554688,9945874.214172363,9084106.4453125,4730475.425720215,8028944.01550293,782286.2863540649,-2263189.0773773193,3009023.427963257,3859637.498855591,-235592.60368347168,-237443.32790374756,744898.1404304504,349459.9759578705,478303.61127853394,3198757.1716308594,5750196.45690918,4457284.450531006,648426.7115592957,252798.55728149414,16385391.235351562,5215878.486633301,2096474.6475219727
0.295,-60463043.212890625,-74384086.60888672,-48555229.18701172,-23511680.603027344,-52208381.65283203,10216818.809509277,61405.60284256935,-7269793.0335998535,-10916806.2210083,-21356395.721435547,-24035549.16381836,-39599678.03955078,-39202163.69628906,-28970256.805419922,10400851.249694824,-346031.4869880676,-11747181.89239502,562336.802482605,-6515443.801879883,-10433821.678161621,-14104253.768920898,-18004648.208618164,-23048049.926757812,8409059.524536133,6609094.142913818,2240979.1946411133,7989575.386047363,4731507.301330566,-1237734.9138259888,-3710962.5339508057,-9958209.037780762,-25984949.111938477,7236298.084259033,8574224.472045898,5202681.541442871,3692624.33052063,161083.05752277374,2475926.637649536,4430497.169494629,-417758.67342948914,-12205434.799194336,6745455.741882324,5831821.441650391,2852052.2117614746,7506130.695343018,514252.1262168884,-1787878.394126892,2110081.672668457,2749637.3653411865,-3029286.6230010986,-3291007.7571868896,-1615010.9767913818,-1394089.8180007935,222405.43365478516,1851270.5564498901,3500396.490097046,2097530.8418273926,-1088915.228843689,-1485512.137413025,14531567.573547363,2539307.5942993164,-306210.54768562317
0.3,-71088119.50683594,-87335540.77148438,-60540428.161621094,-29264326.095581055,-58221168.518066406,3197452.7835845947,-5916703.224182129,-11550000.190734863,-14332462.310791016,-24660661.697387695,-27845119.47631836,-44356903.076171875,-43865177.154541016,-34450183.8684082,3295995.4738616943,-5464006.9007873535,-15615268.70727539,-2317700.3860473633,-9539861.679077148,-13181112.289428711,-17276802.06298828,-21782529.830932617,-29097373.962402344,4912309.169769287,3724933.624267578,-447032.4516296387,6022261.619567871,2270274.877548218,-4296649.45602417,-6298539.638519287,-13262102.127075195,-30358608.24584961,4652882.5759887695,7253983.974456787,4179234.504699707,3804879.903793335,27372.902259230614,1820519.9241638184,4031836.50970459,-1696759.7007751465,-14646163.940429688,5590913.772583008,4565009.593963623,2964531.898498535,9394953.727722168,386265.1586532593,-938283.0262184143,3159109.592437744,3656872.9877471924,-4307572.364807129,-4285641.670227051,-1797720.7899093628,-1038887.3815536499,281819.4031715393,3133194.4465637207,3544318.914413452,2317086.4582061768,-807460.7849121094,-1122946.5007781982,15900941.848754883,2069103.479385376,-611653.5663604736
0.305,-80479354.85839844,-98672050.47607422,-71811889.6484375,-33432579.040527344,-63522727.966308594,564882.0996284485,-8790792.465209961,-14326447.486877441,-16922946.92993164,-26808885.57434082,-30309953.689575195,-47762439.7277832,-47159965.51513672,-40751495.361328125,616039.2761230469,-7726688.385009766,-18346515.655517578,-4174639.7018432617,-11765989.303588867,-14747560.501098633,-18571596.145629883,-24144384.384155273,-34292732.23876953,4579395.771026611,3191238.1649017334,-1249529.0040969849,4354688.64440918,101151.99536085129,-6190080.165863037,-7247767.448425293,-14257610.321044922,-33335132.598876953,5611479.28237915,7466590.404510498,4692776.203155518,3509098.0529785156,37589.54629302025,574071.9437599182,4029526.710510254,-870993.8526153564,-14421523.094177246,7284888.744354248,6247197.62802124,4805280.2085876465,11441659.927368164,486762.25543022156,-912544.9657440186,6055424.690246582,6664136.4097595215,-2264603.614807129,-1921707.1533203125,748238.0867004395,1292020.2016830444,541573.1072425842,6579640.865325928,6537642.002105713,5623280.048370361,1409960.7467651367,1107904.1957855225,19810543.060302734,4991833.209991455,2536884.7846984863
0.31,-76272018.43261719,-93566040.0390625,-68932479.85839844,-29828550.338745117,-60069358.825683594,3446106.9107055664,-6295669.078826904,-12008518.21899414,-14171195.983886719,-23119003.295898438,-27120519.638061523,-45547763.82446289,-44923259.73510742,-41030120.849609375,3509783.5063934326,-5799695.4917907715,-16937953.94897461,-2074771.6426849365,-9571172.714233398,-12387234.687805176,-16110326.766967773,-22730329.513549805,-34047599.79248047,5513181.209564209,3960900.068283081,108326.14451646805,5091530.323028564,499223.9475250244,-4608743.190765381,-5301513.671875,-12311831.4743042,-33051052.09350586,6797920.227050781,7316176.891326904,5737148.284912109,3084393.5012817383,117884.50926542282,800194.5614814758,4967986.583709717,1049531.8174362183,-12934820.175170898,7935966.968536377,6996305.9425354,4977639.198303223,11383856.773376465,663677.3943901062,-1390351.414680481,7950925.827026367,8740720.748901367,-54617.952555418015,-426890.7308578491,1881790.280342102,1716790.0800704956,734504.4612884521,7809938.430786133,8555688.858032227,7625072.956085205,1754829.6451568604,1364868.6408996582,21073623.657226562,7008851.528167725,4908592.700958252
0.315,-63479560.85205078,-76842910.76660156,-53486240.38696289,-23930295.944213867,-49631397.24731445,3436568.021774292,-5523235.79788208,-9193158.149719238,-9976560.592651367,-17397487.64038086,-20989032.745361328,-38192932.12890625,-37576194.763183594,-30784854.888916016,3631095.8862304688,-5391194.820404053,-14930855.751037598,478446.24519348145,-6192430.9730529785,-8382858.2763671875,-11996658.325195312,-17357513.427734375,-25939893.72253418,3163783.7886810303,2441604.3758392334,428055.9718608856,6524466.991424561,2094147.4437713623,-1363769.769668579,-2186857.9387664795,-8382574.081420898,-28334007.263183594,4412365.913391113,4808485.507965088,4947453.97567749,2341068.0294036865,192487.7166748047,3271744.4896698,6377840.995788574,2507192.1348571777,-11209309.577941895,4907537.460327148,4020099.16305542,1527952.6710510254,9430743.217468262,773616.4927482605,-1100447.654724121,7601480.960845947,8393260.955810547,156550.43721199036,-2567145.347595215,-664973.258972168,-1015540.8382415771,811980.3667068481,5494366.645812988,7590754.985809326,6325842.380523682,-1002399.206161499,-1451220.5123901367,18317253.11279297,5407795.9060668945,3933887.004852295
0.32,-59164596.55761719,-67236129.76074219,-40140373.22998047,-25302639.00756836,-40984348.29711914,-6265369.415283203,-13019968.98651123,-12012560.844421387,-10630270.004272461,-15940808.296203613,-17145507.8125,-29006765.365600586,-28363744.735717773,-12695777.893066406,-5896614.074707031,-11394212.72277832,-16852441.787719727,-762899.8160362244,-6081574.440002441,-6034927.3681640625,-8487977.027893066,-9147541.999816895,-11422026.634216309,-2968497.5147247314,-2238280.2963256836,-2131298.542022705,6115136.623382568,2556365.489959717,704628.586769104,248601.60052776337,-2687276.601791382,-18751987.45727539,160179.7640323639,1140607.8338623047,1920836.091041565,869167.4470901489,292884.6478462219,5763929.36706543,7648317.813873291,4391145.2293396,-6950042.724609375,1365127.682685852,361943.3343410492,-2757188.320159912,7563836.574554443,865916.37134552,-88020.65998315811,7314789.295196533,7968700.408935547,1288313.5080337524,-4903858.184814453,-3309872.627258301,-2603076.696395874,952652.1563529968,4174217.2241210938,7252979.278564453,5915895.462036133,-2562223.9112854004,-2988277.4353027344,16824789.04724121,3966036.796569824,3292675.018310547
0.325,-68695930.48095703,-72007774.35302734,-37712760.92529297,-33384704.58984375,-38565643.310546875,-20484325.408935547,-24488267.89855957,-18686777.114868164,-15270465.850830078,-18430828.094482422,-16453224.182128906,-21336660.385131836,-20697706.22253418,4093610.2867126465,-20100414.276123047,-20418905.25817871,-21256772.994995117,-4220490.455627441,-8428300.857543945,-5528952.121734619,-5754046.440124512,-932807.8627586365,3138527.3933410645,-8492424.964904785,-6673782.825469971,-5062824.249267578,4545615.196228027,1851196.2890625,1173192.858695984,1604248.046875,3544201.8508911133,-7708209.037780762,-1496857.1662902832,-642009.7947120667,-850495.1596260071,-631768.8822746277,465262.5322341919,5619553.565979004,8193190.574645996,7539324.760437012,266239.7027015686,1727433.204650879,507195.5919265747,-3652850.389480591,7097218.036651611,1032926.082611084,-65345.95042467117,8694918.632507324,9279314.994812012,5588809.967041016,-3280620.0981140137,-2100744.9626922607,454625.36811828613,1240503.191947937,7101608.753204346,10533138.275146484,9636603.355407715,609580.8744430542,164521.262049675,20311391.830444336,6770696.640014648,6489566.802978516
0.33,-80104682.92236328,-80576362.60986328,-41998676.30004883,-39116119.384765625,-40177806.85424805,-28558649.06311035,-30567331.314086914,-22439840.31677246,-18144346.237182617,-20196104.049682617,-16736894.607543945,-18576103.21044922,-18050312.042236328,10298294.067382812,-28376253.128051758,-25320917.1295166,-23406806.94580078,-5492115.9744262695,-9634502.410888672,-5683032.512664795,-4304423.809051514,2502294.5404052734,9155753.135681152,-10413623.809814453,-8019742.965698242,-5346275.329589844,4347100.734710693,1393150.6872177124,1088863.8496398926,1504059.6723556519,6029481.410980225,-2687005.9967041016,-553437.4117851257,-211570.75464725494,-1475118.1602478027,-743852.6749610901,647483.4084510803,3342164.7548675537,7167735.0997924805,9170278.549194336,4521380.90133667,4545441.627502441,3206014.394760132,-1392287.8503799438,7431700.229644775,1182726.6216278076,-2011190.414428711,9109267.234802246,9745272.636413574,8565781.593322754,36281.37335181236,732316.1363601685,4621791.362762451,1488198.5187530518,10146125.793457031,13502017.974853516,13026492.11883545,4989626.407623291,4410931.11038208,24265552.520751953,10489412.307739258,9763554.573059082
0.335,-82744194.03076172,-82966148.37646484,-46321475.982666016,-38609306.33544922,-43272800.44555664,-28123386.38305664,-29732975.006103516,-21701890.94543457,-17944820.404052734,-20487655.639648438,-17777488.708496094,-22463611.602783203,-22089191.436767578,4422026.15737915,-28136482.23876953,-24886066.436767578,-22844427.10876465,-4466324.806213379,-9334623.336791992,-6818577.766418457,-5876934.051513672,-1451363.6827468872,3626562.5953674316,-10826182.36541748,-7913686.275482178,-4239495.277404785,5573850.154876709,1406374.6929168701,571476.6979217529,-675521.3737487793,1737848.7586975098,-7668859.958648682,-1434084.8922729492,-736602.7235984802,-1460071.325302124,408684.01527404785,708116.6505813599,1992665.6484603882,4445393.085479736,6020783.424377441,189943.79043579102,4162526.6075134277,2914581.537246704,-615577.0421028137,7012811.183929443,1124494.6718215942,-4511795.520782471,5714066.982269287,6405748.36730957,4551762.104034424,-662513.9713287354,-165649.11603927612,3785190.3438568115,1441814.1841888428,7686058.044433594,10551169.395446777,9957646.369934082,4356984.615325928,3672862.0529174805,22263193.130493164,8581200.59967041,7011317.253112793
0.34,-79963592.52929688,-81703323.36425781,-49427753.44848633,-37038646.69799805,-47172409.05761719,-26055538.177490234,-28574314.11743164,-21319362.64038086,-18745313.64440918,-22530696.868896484,-20705780.029296875,-29531641.006469727,-29195568.084716797,-5460969.4480896,-26026018.142700195,-24149257.65991211,-23497900.009155273,-4910923.004150391,-10033640.86151123,-9387759.2086792,-10068562.507629395,-8774049.758911133,-6334009.170532227,-12739239.692687988,-9434195.518493652,-5233261.1083984375,5666722.297668457,876546.5021133423,-770331.2635421753,-3789945.602416992,-5375455.856323242,-16675771.713256836,-5683943.748474121,-4132342.3385620117,-3168475.866317749,757024.0497589111,597707.3907852173,3047629.5948028564,1685237.6461029053,351430.86314201355,-8722207.069396973,-812437.2959136963,-1878780.722618103,-3886996.269226074,5217399.597167969,867045.2833175659,-5416728.496551514,1169300.1985549927,1855428.8148880005,-3504597.4254608154,-5689021.110534668,-5061889.6484375,-1578059.196472168,1096181.9887161255,1969881.1769485474,3895488.500595093,2975678.4439086914,-967754.5428276062,-1555475.2349853516,16058687.210083008,1856420.1593399048,-157475.7546186447
0.345,-78650421.14257812,-81382209.77783203,-50535320.28198242,-38163772.58300781,-49402713.775634766,-26731367.111206055,-30173160.552978516,-23607469.55871582,-21855123.51989746,-26212867.736816406,-23847259.521484375,-32693881.98852539,-32272235.870361328,-9445366.859436035,-26495277.404785156,-25691860.19897461,-26442960.739135742,-7643708.7059021,-12001067.161560059,-11567853.927612305,-12920712.4710083,-12004817.008972168,-10326638.221740723,-15068227.767944336,-11901926.99432373,-8125248.908996582,3763554.573059082,-275333.0171108246,-2050427.9136657715,-4911711.692810059,-7546092.510223389,-19738607.40661621,-9134193.420410156,-7753526.68762207,-5701204.776763916,-790902.853012085,422749.8769760132,4653786.182403564,935451.5075683594,-1745055.1986694336,-12364806.175231934,-5126968.860626221,-6139016.628265381,-7910593.9865112305,3164160.0131988525,671637.4754905701,-4493248.93951416,959993.302822113,1615388.9894485474,-6480346.6796875,-9152228.355407715,-8608418.464660645,-4781369.209289551,728652.2388458252,453622.3113536835,1518065.2141571045,713812.8280639648,-4314716.815948486,-4657423.01940918,13301029.205322266,-1681249.0224838257,-3700191.4978027344
0.35,-74815963.74511719,-76502914.42871094,-43990863.80004883,-36930797.5769043,-45090160.36987305,-25887340.545654297,-29018970.489501953,-23726747.512817383,-22249713.897705078,-26234119.415283203,-22947660.446166992,-28097122.192382812,-27613121.032714844,-4590406.41784668,-25547168.731689453,-25570817.947387695,-27104015.350341797,-8449879.64630127,-12180514.335632324,-10639842.03338623,-10921043.395996094,-8205023.765563965,-5500958.9195251465,-14306488.037109375,-11469693.183898926,-8526384.353637695,2647502.899169922,-459696.4418888092,-1516317.60597229,-2583588.123321533,-2464692.5926208496,-14699190.139770508,-7939742.565155029,-7651793.003082275,-5737634.181976318,-2241525.411605835,374785.72130203247,4592089.1761779785,2166818.857192993,1513146.8772888184,-7984182.834625244,-4262583.7326049805,-5367739.200592041,-7904817.1043396,2575342.4167633057,747791.588306427,-3405145.8835601807,5346470.832824707,5962178.707122803,-1584473.0138778687,-7578577.041625977,-7737058.162689209,-2587707.042694092,634373.664855957,4541203.498840332,5611455.44052124,5248265.743255615,-2295922.9946136475,-2469226.598739624,16082965.850830078,1674479.9613952637,-632589.6382331848
0.355,-58225376.12915039,-58240142.822265625,-24845363.61694336,-26425260.543823242,-32020561.21826172,-18272670.74584961,-19693487.1673584,-16492692.947387695,-15283024.787902832,-19002817.153930664,-15866444.58770752,-17969175.338745117,-17521600.7232666,5448022.842407227,-18027963.638305664,-19736152.64892578,-21617517.471313477,-3999960.6609344482,-8464120.864868164,-6098008.155822754,-4673438.07220459,-670728.8026809692,2856291.7709350586,-9628685.95123291,-6592552.185058594,-3986716.5088653564,5177096.366882324,1738199.7108459473,1326094.8657989502,1505787.3725891113,4706167.697906494,-8037755.966186523,-3859342.8134918213,-3711487.5316619873,-2271073.818206787,-944331.0499191284,558498.6209869385,3290261.2686157227,3608875.513076782,5528087.139129639,-2553553.1044006348,-296962.35060691833,-1425487.0414733887,-3794956.684112549,3847577.8102874756,1009678.9598464966,-3441922.903060913,8625648.498535156,9185137.748718262,4110090.732574463,-4480237.007141113,-5501491.069793701,680194.6759223938,858748.733997345,7590354.919433594,9541691.780090332,9245886.80267334,896776.3185501099,705490.0527000427,18338842.391967773,6275496.482849121,3004746.437072754
0.36,-27780723.571777344,-27951610.565185547,4121065.616607666,-7998865.127563477,-13380270.957946777,-6303741.931915283,-5374346.733093262,-4057875.633239746,-3277450.7999420166,-7463817.596435547,-4652672.76763916,-5816432.476043701,-5382705.211639404,17620372.772216797,-6211209.297180176,-10714701.652526855,-12781436.920166016,3398236.036300659,-2386735.9161376953,276820.5404281616,3007884.0255737305,7319397.449493408,10556493.759155273,-4022754.192352295,-544809.2222213745,2192285.0608825684,10335565.567016602,5650826.930999756,5163118.839263916,5209892.749786377,9337185.859680176,-4176214.2181396484,-1283067.3456192017,426937.8185272217,1793440.818786621,2453030.824661255,868168.4136390686,2708276.2718200684,4619433.403015137,6719829.559326172,-1451990.4851913452,1828230.857849121,889044.8808670044,205184.60869789124,5465867.99621582,1222697.2579956055,-4309890.270233154,7485854.625701904,8035991.668701172,4488488.674163818,-4442392.826080322,-5621068.477630615,285082.6382637024,1185389.1611099243,5421568.393707275,8154865.264892578,7465220.4513549805,496008.12792778015,216529.2352437973,15737396.240234375,6014681.339263916,1402102.4703979492
0.365,5216316.223144531,3587584.0187072754,34948554.99267578,9550108.909606934,5470506.66809082,2553081.274032593,5780118.942260742,6227980.613708496,6954140.663146973,2525830.030441284,6860015.869140625,7385955.333709717,7945110.321044922,31968208.31298828,2545415.4014587402,-4933777.809143066,-7022007.942199707,8710753.440856934,2927092.7906036377,6558165.550231934,10542618.751525879,16099708.557128906,18849903.106689453,-1024997.7111816406,2105759.1438293457,4896863.93737793,14296310.424804688,8941470.1461792,8433461.18927002,8605234.146118164,12781111.717224121,-327794.8200702667,-1778971.4336395264,1698775.5298614502,3252243.5188293457,4388771.533966064,1069043.755531311,3498793.840408325,6551483.154296875,7527013.778686523,-1476670.1459884644,691795.825958252,4805.564880371094,1014431.8342208862,5579664.707183838,1293424.0102767944,-5143846.035003662,5611416.339874268,6276032.447814941,2383138.418197632,-6960824.489593506,-7449305.057525635,-2530369.997024536,1342134.5949172974,2306695.6996917725,4916176.795959473,4095226.764678955,-2351655.2448272705,-2618376.4934539795,11723061.561584473,2566664.695739746,-3591945.171356201
0.37,28823741.912841797,27897947.311401367,61360824.58496094,19241960.525512695,20670234.68017578,4658678.05480957,9931422.233581543,9944525.718688965,11241059.303283691,8009465.217590332,15603882.789611816,20279285.430908203,20992588.04321289,46883720.39794922,4537976.7417907715,-4971915.245056152,-6889975.070953369,9927080.154418945,5694997.787475586,11413933.753967285,17180959.701538086,25494287.490844727,28518638.610839844,-1895852.5657653809,232047.08099365234,3312770.6050872803,14844588.279724121,9910224.914550781,10635985.374450684,12511621.475219727,17707098.00720215,6074451.446533203,-3934471.845626831,130890.48862457275,2091228.4851074219,3001237.392425537,1048637.7477645874,4798710.346221924,10088161.46850586,11210643.768310547,1640043.1394577026,-1752764.5826339722,-2363501.54876709,-702470.600605011,3929730.8921813965,1307850.71849823,-5659321.308135986,7384737.491607666,8227569.580078125,3084764.242172241,-9063141.822814941,-8780141.830444336,-4256472.110748291,1226312.6373291016,3258111.4768981934,5123559.951782227,4789564.609527588,-4130432.12890625,-4275003.433227539,10676210.403442383,769571.6023445129,-7400965.213775635
0.375,38162189.48364258,41542205.810546875,77971267.70019531,20289062.5,28991100.311279297,2302123.785018921,9112032.890319824,8466821.670532227,10317628.860473633,9241051.67388916,19469226.837158203,27920051.57470703,28622970.581054688,56347846.98486328,2019941.5683746338,-7790460.109710693,-9401826.858520508,8858451.843261719,5778336.048126221,13514012.336730957,20997068.405151367,31313270.568847656,35098949.43237305,-5474007.606506348,-3431423.6640930176,985682.487487793,13351647.37701416,9112637.519836426,11962490.08178711,15785743.713378906,22087980.270385742,11103596.687316895,-6331776.6189575195,-2410271.8830108643,458965.2419090271,503564.7749900818,928956.5682411194,6023710.72769165,13397525.787353516,15555123.329162598,5205222.606658936,-4118148.8037109375,-4858818.054199219,-2829637.289047241,1811819.314956665,1339748.6209869385,-5950301.647186279,11026945.114135742,11944834.70916748,5551506.042480469,-10440653.800964355,-9971187.591552734,-5018934.24987793,971435.546875,6017393.589019775,7440398.216247559,7587989.330291748,-4868724.346160889,-4933537.483215332,10898403.16772461,721111.0591888428,-9695044.51751709
0.38,31508802.41394043,39388816.833496094,76619171.14257812,14290291.786193848,26456098.556518555,-1944450.9744644165,5218046.66519165,4589661.121368408,6334009.647369385,6493219.85244751,17233343.12438965,25372026.443481445,25939704.89501953,54842056.27441406,-2288623.571395874,-10237883.567810059,-11348998.069763184,7323619.365692139,3561933.0406188965,11965565.68145752,19982608.795166016,29415710.44921875,33659259.79614258,-9347322.463989258,-5754194.736480713,587130.2485466003,12309470.176696777,8300950.050354004,12236153.602600098,16055612.564086914,21618190.76538086,9780226.707458496,-8012389.183044434,-4148070.812225342,-337288.11144828796,30860.97538471222,874724.4477272034,7102709.770202637,14123885.154724121,15825531.005859375,4350720.8824157715,-5917580.604553223,-6860377.311706543,-4116772.6516723633,583187.1032714844,1353776.8125534058,-5950320.720672607,11824897.766113281,12647740.364074707,5463748.455047607,-12078003.883361816,-11805400.848388672,-6510680.675506592,822088.2415771484,5677138.805389404,7425179.004669189,7425406.455993652,-6229559.421539307,-6379757.404327393,9145326.614379883,-158782.43744373322,-11876137.733459473
0.385,8206245.422363281,16502752.304077148,52637882.232666016,2154329.538345337,11736583.709716797,-8595559.120178223,-2641093.4925079346,-1199890.375137329,80284.2453122139,-475206.1665058136,9611906.051635742,13640501.976013184,14187178.611755371,43329627.990722656,-8761831.283569336,-13061937.33215332,-13290843.963623047,4884481.906890869,-410857.6774597168,7483061.31362915,14795305.252075195,21313583.374023438,25436286.92626953,-11411094.665527344,-6172653.1982421875,936284.601688385,12134298.324584961,7927359.104156494,10872637.748718262,12879671.096801758,16200389.862060547,3815948.724746704,-7689817.428588867,-4162196.159362793,-571019.4706916809,1527457.2372436523,871816.873550415,7361732.482910156,12280289.649963379,11906373.023986816,545361.5188598633,-5653666.4962768555,-6795512.676239014,-3963410.1390838623,683249.7715950012,1290092.2298431396,-5684697.62802124,9579308.50982666,10245704.650878906,3353191.375732422,-12336316.108703613,-12063712.120056152,-7031735.897064209,902399.3015289307,3229353.666305542,5789489.269256592,5339641.571044922,-6620001.316070557,-6962809.085845947,7685251.712799072,-631534.5764160156,-11852105.140686035
0.39,-23251052.856445312,-18488990.783691406,17094524.383544922,-12855247.497558594,-8618152.618408203,-17359889.98413086,-13390471.458435059,-8647948.265075684,-7612306.594848633,-9891650.199890137,-97248.90440702438,-223241.23978614807,481897.35412597656,28741672.51586914,-17224290.84777832,-17798318.86291504,-16982482.91015625,784982.6812744141,-5120490.074157715,2274171.5908050537,8639660.835266113,12868657.112121582,16418848.037719727,-11300450.325012207,-6132923.126220703,-244028.41925621033,11265392.303466797,6686987.87689209,8035718.91784668,8653120.994567871,10476893.424987793,-867186.963558197,-5212352.752685547,-2740401.50642395,-609680.5334091187,2371940.851211548,804346.0249900818,6048534.870147705,9932806.015014648,8219386.100769043,-764843.5235023499,-2345708.8470458984,-3646008.9683532715,-2166497.4689483643,1783554.3155670166,1142572.6413726807,-5572964.668273926,8229789.733886719,8812950.134277344,3419819.3550109863,-9086558.34197998,-8558082.580566406,-3832013.3686065674,1088229.5370101929,3430391.550064087,6792849.540710449,6268109.7984313965,-3417357.6831817627,-3877194.404602051,10646132.469177246,2392185.688018799,-7260611.534118652
0.395,-43783313.7512207,-42590583.80126953,-6647520.065307617,-23313875.198364258,-22442235.946655273,-23699790.954589844,-21020601.272583008,-14608454.704284668,-13844415.664672852,-17283193.588256836,-7413219.928741455,-8955944.061279297,-8145909.309387207,18310560.22644043,-23413396.83532715,-22250337.600708008,-21017913.818359375,-3448101.043701172,-8928352.355957031,-1301289.5584106445,4461868.2861328125,8267600.059509277,10912976.264953613,-10294885.635375977,-6394617.080688477,-2489309.310913086,9047656.059265137,4086472.511291504,5402077.198028564,6196931.838989258,8298748.970031738,-1942152.1425247192,-2764967.918395996,-1206989.2883300781,-138821.75087928772,1339096.4269638062,697955.9063911438,4062719.3450927734,8592523.574829102,7325150.489807129,1285156.7268371582,1669985.5327606201,373511.28458976746,205074.20599460602,3086151.361465454,964372.1580505371,-5916625.499725342,9125631.332397461,9712714.195251465,5967020.034790039,-4550978.183746338,-3929577.350616455,983533.3228111267,1165199.875831604,6249889.850616455,10158679.962158203,9911446.571350098,1284512.996673584,877952.9929161072,15879169.464111328,6993299.48425293,-1462571.144104004
0.4,-41251869.201660156,-41066013.33618164,-5804518.699645996,-23754604.33959961,-22730449.676513672,-23249897.003173828,-20485694.885253906,-15204503.059387207,-15216759.68170166,-18792556.762695312,-9401083.946228027,-10187916.75567627,-9513774.871826172,14957539.558410645,-23076612.47253418,-22457374.572753906,-21760200.50048828,-4817337.989807129,-10022459.983825684,-1841065.1683807373,3219555.377960205,7302572.250366211,8986462.593078613,-9653608.322143555,-6125538.349151611,-3244125.3662109375,7210287.570953369,2278480.5297851562,4976335.048675537,6315125.942230225,9207692.14630127,-1656231.0457229614,-2486713.8862609863,-684833.8842391968,936740.1003837585,-41462.164372205734,710449.4571685791,3478567.8386688232,8165502.548217773,7476077.556610107,2528002.977371216,2686686.0389709473,1603145.5993652344,1106991.7678833008,3432689.905166626,863637.1493339539,-6271303.653717041,9367444.038391113,9967847.82409668,6931779.384613037,-3510820.8656311035,-3082132.577896118,2083619.8329925537,1116067.886352539,6803360.462188721,10948624.610900879,10802302.360534668,2298193.93157959,2004953.145980835,17018207.550048828,7724182.12890625,-269153.4161567688
0.405,-27382965.087890625,-26508361.81640625,6597652.435302734,-18061569.213867188,-15407315.254211426,-18623556.13708496,-15123005.867004395,-11200156.211853027,-11839945.793151855,-15184086.799621582,-6986772.060394287,-7213986.396789551,-6766967.296600342,16290784.83581543,-18662014.00756836,-18891813.278198242,-18609724.044799805,-2449283.5998535156,-7853251.4572143555,280195.8918571472,4025967.597961426,7453367.710113525,8624365.80657959,-9746913.90991211,-5063207.149505615,-1862327.9333114624,7651794.43359375,3637403.964996338,6725667.476654053,7648884.296417236,10268550.872802734,-1666420.4597473145,-3748995.304107666,-1127299.0703582764,1686434.3881607056,-260011.07692718506,869764.0895843506,4804358.005523682,8153657.913208008,6676067.82913208,1063203.0963897705,441829.74100112915,-456130.89203834534,-306875.46730041504,2081546.7834472656,954430.4013252258,-5854381.084442139,7386191.844940186,7957151.412963867,4903880.1193237305,-6559093.475341797,-6229286.193847656,-1277808.0701828003,1141669.3925857544,3733497.381210327,7818212.032318115,7483252.048492432,-1019374.4897842407,-1314501.0471343994,13251070.976257324,4196661.472320557,-3369079.58984375
0.41,-27265659.33227539,-25667385.10131836,6216124.534606934,-16886388.778686523,-13795001.029968262,-17981515.884399414,-14226189.613342285,-8826603.889465332,-8719885.82611084,-12079943.656921387,-5088694.095611572,-6406944.751739502,-6013129.234313965,16676565.170288086,-18083053.588867188,-17506557.46459961,-16091758.728027344,384205.6095600128,-4867652.893066406,2315872.6692199707,4501531.600952148,6302025.79498291,7632987.022399902,-10948060.035705566,-5256591.320037842,-1114069.7002410889,9339715.003967285,6750057.697296143,7975042.819976807,8098002.4337768555,9295860.290527344,-1400689.4826889038,-4745401.859283447,-2060961.9617462158,840576.0526657104,-131568.49145889282,976669.6095466614,6141616.344451904,8577929.496765137,5656579.01763916,-245087.77260780334,-1713066.6971206665,-2735313.653945923,-2618192.9111480713,-91664.6495461464,1203163.8622283936,-4547090.530395508,6041685.581207275,6570689.2013549805,3454715.4903411865,-8965057.373046875,-8458061.218261719,-3621280.4317474365,1333746.314048767,1904292.106628418,5829080.581665039,5347601.890563965,-3257683.753967285,-3673646.2116241455,11027790.069580078,2524120.330810547,-4487759.590148926
0.415,-50618801.11694336,-48240592.95654297,-14918981.552124023,-26348260.8795166,-24804521.560668945,-25651922.22595215,-22528081.8939209,-13551248.550415039,-11620334.62524414,-15309504.508972168,-9118757.247924805,-12536513.328552246,-12016310.691833496,11794598.579406738,-25572700.50048828,-22898664.474487305,-19177177.42919922,-1079087.0189666748,-5679729.93850708,541650.2952575684,1853901.2670516968,2553811.0733032227,4461541.175842285,-13895396.23260498,-8868970.87097168,-3865203.619003296,8876782.417297363,6892407.8941345215,5989946.8421936035,6384508.6097717285,6080358.505249023,-905350.6255149841,-5571211.338043213,-3563655.376434326,-1717495.5606460571,-1263472.4378585815,839489.4599914551,5727686.882019043,9387603.759765625,5742223.739624023,1115686.6550445557,-1517238.974571228,-2868810.6536865234,-3853157.7587127686,-875926.3157844543,1364025.9504318237,-3127793.312072754,8277788.162231445,8819261.55090332,5474529.266357422,-7042243.957519531,-6510620.1171875,-646870.1958656311,1476731.4195632935,5180950.64163208,9223307.609558105,8722760.200500488,-262327.1346092224,-737086.4748954773,14877443.313598633,6730651.378631592,-370450.9139060974
0.42,-81114875.79345703,-77326309.20410156,-41474349.97558594,-41257690.4296875,-42051322.93701172,-36626182.556152344,-34724868.77441406,-23565393.447875977,-20756460.189819336,-24979564.666748047,-19388122.55859375,-24059667.587280273,-23441614.151000977,3098598.003387451,-36237007.14111328,-32119262.6953125,-27173294.067382812,-7800566.19644165,-12444974.899291992,-5928627.967834473,-4228703.022003174,-2853017.568588257,-73065.50443172455,-17808330.535888672,-14362599.37286377,-9126623.153686523,4782987.594604492,1567356.1096191406,1070926.6662597656,3017163.2766723633,2145765.542984009,-1143976.6883850098,-7257103.91998291,-5413201.332092285,-4353403.091430664,-3327978.8494110107,507875.32329559326,4061264.991760254,9905853.271484375,6450448.989868164,4098631.8588256836,22560.574114322662,-1472180.0088882446,-3420436.6207122803,1019121.4084625244,1211570.7397460938,-2509922.981262207,12552879.333496094,13169150.352478027,9371272.087097168,-2411212.205886841,-2392225.503921509,5414859.771728516,1336795.5684661865,11018090.24810791,15595098.495483398,15038669.58618164,5727688.312530518,5372646.808624268,21605653.762817383,13408659.934997559,5417216.777801514
0.425,-95714141.84570312,-90725944.51904297,-53743816.37573242,-50377845.764160156,-52545642.8527832,-41981388.092041016,-41498867.03491211,-30833881.378173828,-29216575.622558594,-34090099.3347168,-28973741.53137207,-32927539.825439453,-32318092.346191406,-2685956.9549560547,-41366779.32739258,-37460124.96948242,-33681472.77832031,-14826408.386230469,-20935222.625732422,-12831583.023071289,-9730710.983276367,-6381936.550140381,-2242852.9262542725,-19884126.663208008,-16998052.5970459,-12636571.884155273,162843.80853176117,-5632871.627807617,-3478435.277938843,82232.69134759903,-157046.18394374847,-1274200.439453125,-8778098.106384277,-6143344.402313232,-4919025.897979736,-4309993.267059326,195570.99044322968,2710220.0984954834,9526183.128356934,6659673.690795898,6773605.823516846,1304198.145866394,-17794.594168663025,-1969114.899635315,4234441.28036499,824922.7404594421,-3037168.7412261963,14875433.921813965,15538022.0413208,12149703.979492188,1021317.1243667603,436117.7980899811,9467777.252197266,1027193.6655044556,14438669.204711914,19490655.89904785,19028568.267822266,9771107.67364502,9591786.38458252,25459060.668945312,16861852.645874023,8365357.398986816
0.43,-88240295.41015625,-83706008.91113281,-47142898.55957031,-47507812.5,-49268646.240234375,-38378192.90161133,-39144622.802734375,-29261148.45275879,-29352684.020996094,-34736236.572265625,-29669660.568237305,-31784166.33605957,-31167177.200317383,-551808.4168434143,-37760608.6730957,-34986228.942871094,-33109317.779541016,-15824205.39855957,-23640403.747558594,-14289014.81628418,-9758954.048156738,-4965650.55847168,689979.1955947876,-18149110.794067383,-14272464.752197266,-11513926.50604248,-398204.9822807312,-8379760.7421875,-4595059.394836426,-522445.4402923584,320464.28322792053,694468.2598114014,-8011251.449584961,-4677364.826202393,-2998969.316482544,-3296615.3621673584,43257.99271464348,2152348.518371582,8519818.305969238,6229302.406311035,8499563.217163086,2143206.1195373535,1042571.7830657959,-426178.63416671753,5944829.940795898,497006.8037509918,-4364991.188049316,13761942.863464355,14351175.308227539,12870061.874389648,1558776.0210037231,1063324.3322372437,9588389.39666748,851388.3948326111,14082983.016967773,18890048.98071289,19041303.634643555,10029591.56036377,9877247.81036377,25011592.864990234,15808871.269226074,8104258.5372924805
0.435,-71795486.45019531,-69084403.99169922,-33081188.201904297,-37103343.96362305,-37456390.380859375,-30758617.401123047,-32107234.954833984,-21230337.142944336,-21257978.439331055,-26697488.78479004,-21332242.965698242,-22523624.420166016,-21825555.8013916,6371507.167816162,-30312049.865722656,-28449827.194213867,-26492864.60876465,-10048804.28314209,-18098577.49938965,-9391963.958740234,-4640770.91217041,-215377.8374195099,5975844.383239746,-14352004.051208496,-9333062.171936035,-7400762.08114624,3627200.8419036865,-4631481.170654297,-2298271.417617798,990552.2465705872,1884659.8863601685,3886153.221130371,-5484117.9847717285,-2490568.6378479004,-663164.9732589722,-1646958.2319259644,38759.034126996994,1842839.7178649902,7601740.837097168,5215837.9554748535,8558032.035827637,2416968.822479248,1391306.757926941,299744.78483200073,4849975.5859375,376185.3575706482,-5746597.766876221,11071060.180664062,11516082.763671875,11772064.208984375,-44597.67788648605,156608.9540719986,7444404.602050781,847467.6012992859,11886800.765991211,15874436.378479004,16866273.880004883,8012468.338012695,7732263.088226318,22587234.497070312,12765295.028686523,6272554.397583008
0.44,-63186820.98388672,-61467090.60668945,-25971090.31677246,-29469524.383544922,-29177007.6751709,-26325342.178344727,-27303665.161132812,-14987095.832824707,-13224178.314208984,-18308938.98010254,-13093523.025512695,-15342544.555664062,-14606609.344482422,9720804.214477539,-26059877.395629883,-24345319.747924805,-20092700.958251953,-3444717.6456451416,-10318303.108215332,-3633841.5145874023,-344463.050365448,2495901.346206665,7606602.668762207,-12231531.143188477,-7240563.869476318,-4390521.049499512,7867969.036102295,1163206.2196731567,734670.6986427307,2515638.828277588,1553117.275238037,4634886.741638184,-4225091.934204102,-2182200.4318237305,-290222.4361896515,-996839.7617340088,112542.90491342545,1600157.9761505127,6985468.38760376,3153205.156326294,6001149.1775512695,1323005.7954788208,359458.327293396,-317354.61950302124,2494719.7437286377,370480.477809906,-6507661.34262085,8901494.026184082,9291225.43334961,8983534.812927246,-2446434.0209960938,-1928456.3064575195,5002129.554748535,777682.5428009033,9399624.824523926,13007821.083068848,14193592.071533203,5460984.230041504,5094460.487365723,19976600.646972656,9844533.920288086,3515403.2707214355
0.445,-66560150.146484375,-63545787.8112793,-29367282.86743164,-29722618.103027344,-30626058.57849121,-26973718.643188477,-26911079.40673828,-15195394.515991211,-12180842.399597168,-16902378.08227539,-12794002.532958984,-16959457.397460938,-16290287.017822266,6342854.976654053,-26809194.564819336,-24512105.94177246,-18357347.48840332,-1795819.4017410278,-7846010.208129883,-2476861.2384796143,-1197501.0633468628,601674.1991043091,4091087.3413085938,-12871807.098388672,-8699152.946472168,-4372605.323791504,8340213.775634766,3354121.685028076,2034746.1700439453,2493800.163269043,-1156335.2346420288,1954068.3031082153,-5328321.933746338,-3768879.175186157,-1732350.7070541382,-1101022.0050811768,213095.14343738556,1711736.559867859,6388310.432434082,474618.524312973,2166519.1650390625,-760803.8783073425,-1569444.8947906494,-1616254.210472107,1453221.4403152466,400924.59321022034,-6681547.64175415,7632671.356201172,8130419.731140137,5687067.985534668,-4283239.364624023,-4281310.081481934,3156320.333480835,589122.1165657043,7188156.604766846,11325460.433959961,11820474.624633789,3301756.1435699463,3006608.009338379,17559518.814086914,7776849.269866943,749106.5859794617
0.45,-67581092.83447266,-62391849.517822266,-30044923.782348633,-30677070.61767578,-33696636.19995117,-27138000.48828125,-25833351.135253906,-17010452.270507812,-14792448.997497559,-19431915.283203125,-16533990.859985352,-21177425.384521484,-20543411.254882812,4035984.992980957,-27026536.94152832,-24468368.530273438,-19094013.214111328,-3826509.2372894287,-10522718.42956543,-4604722.499847412,-3841601.610183716,-1357724.7858047485,1712910.8905792236,-13202483.177185059,-9433888.43536377,-5216847.896575928,6271335.124969482,1417988.657951355,1726730.9427261353,1872097.134590149,-2946956.6345214844,47035.84313392639,-6182839.870452881,-4349066.257476807,-2511437.6544952393,-495865.46421051025,298200.3390789032,2158585.3099823,5963980.197906494,-687825.6797790527,449165.4932498932,-1818033.5760116577,-2563864.231109619,-2148372.4117279053,2512679.8152923584,523476.1834144592,-6999547.481536865,6835213.661193848,7494412.422180176,4081871.0327148438,-4633171.558380127,-5113968.849182129,2243836.6413116455,543850.8987426758,6150923.728942871,10673782.348632812,10459467.887878418,2163692.4743652344,1971851.110458374,15596793.174743652,6828812.599182129,-171185.03153324127
0.455,-44176242.82836914,-38673160.552978516,-7397719.383239746,-18811559.677124023,-22567495.346069336,-18868728.637695312,-16234800.338745117,-11133045.196533203,-10882141.11328125,-15659383.773803711,-12509480.476379395,-14833422.660827637,-14093482.01751709,14046280.860900879,-18784694.67163086,-18602512.35961914,-16333969.116210938,-2921480.655670166,-10869590.759277344,-3499988.079071045,-904086.4706039429,3823582.172393799,7948688.03024292,-9653091.430664062,-5748847.007751465,-3532285.451889038,6355623.245239258,-100519.15794610977,2281862.258911133,3184258.222579956,-229058.77232551575,3398453.2356262207,-4269287.586212158,-2063532.1140289307,-998089.0154838562,1266716.0034179688,323857.6948642731,2804749.2504119873,6619841.0987854,1281292.43850708,2071963.7870788574,-1074922.9192733765,-1992607.7127456665,-1519677.4005889893,3991434.5741271973,711770.1768875122,-7876602.649688721,6460889.3394470215,7181703.090667725,4538783.073425293,-4409605.979919434,-4382711.410522461,1728477.0011901855,739085.31665802,6536443.710327148,10133761.405944824,9987708.09173584,1702391.3860321045,1470566.5111541748,13735644.340515137,6147759.437561035,397369.4145679474
0.46,9299316.40625,12840125.08392334,43699169.15893555,9831885.33782959,7930120.468139648,-397191.28608703613,3622849.941253662,5003650.188446045,3815293.312072754,-1177560.4486465454,4040879.726409912,6016416.549682617,6864085.1974487305,37427085.876464844,-269512.8619670868,-6464174.270629883,-7668230.5335998535,4492043.495178223,-3801295.042037964,4348418.235778809,9727541.92352295,17275024.4140625,22405054.092407227,-2384921.073913574,1144392.728805542,1452041.6259765625,10803628.921508789,2532469.7494506836,5779954.433441162,7605573.1773376465,6597236.156463623,11175201.416015625,-702369.9283599854,1401623.8451004028,1604429.841041565,3024639.129638672,277392.77482032776,3937380.790710449,9007081.031799316,5279837.131500244,4500254.154205322,-530916.690826416,-1643525.1235961914,-997882.3661804199,3740808.0101013184,748813.6291503906,-8704311.37084961,6728477.954864502,7390899.658203125,4895539.7605896,-5834513.6642456055,-4753401.279449463,108587.25756406784,822647.3331451416,6488340.377807617,8717115.40222168,9060849.1897583,276554.49509620667,-101936.48934364319,10557237.62512207,3766760.82611084,-1015783.9059829712
0.465,68205566.40625,70427902.22167969,100089126.58691406,41657264.709472656,42802333.83178711,19929410.934448242,24993068.69506836,23080619.81201172,21496210.0982666,16263639.450073242,23846006.393432617,29666803.35998535,30416810.989379883,61702217.10205078,20142135.620117188,6184664.249420166,2638521.194458008,14601676.940917969,7136734.0087890625,15075027.465820312,22069608.688354492,31852975.845336914,36496772.76611328,4679077.625274658,6954788.2080078125,7142644.882202148,16876657.485961914,8134546.279907227,11442976.951599121,13408690.452575684,13451389.31274414,18354265.213012695,1426913.4998321533,3248142.957687378,3022768.259048462,3656927.5856018066,200573.8914012909,5722124.5765686035,12394662.857055664,8739645.004272461,5308566.093444824,-2124048.4714508057,-3206400.3944396973,-1680644.3929672241,1432080.7456970215,507310.8673095703,-8793044.090270996,7465507.984161377,8046147.346496582,3796584.367752075,-9444146.156311035,-7991739.749908447,-3312167.8829193115,468911.20076179504,3959078.073501587,6574229.717254639,6946231.842041016,-3070312.5,-3508706.80809021,5631389.617919922,-755856.3947677612,-6174496.650695801
0.47,97103912.35351562,101455802.91748047,129156051.63574219,57703311.920166016,60734600.06713867,30104127.883911133,35628604.888916016,32297878.26538086,30894786.834716797,25547809.600830078,34133934.020996094,41226978.30200195,41722499.84741211,73083885.1928711,30294914.24560547,12554217.338562012,8436809.539794922,21075002.670288086,14652219.772338867,22142774.58190918,29052955.627441406,39535690.30761719,42436813.35449219,7588659.286499023,8989969.253540039,10369528.770446777,20583429.33654785,12854498.863220215,16260982.513427734,17617172.241210938,16999534.606933594,21337360.382080078,922102.3917198181,3013329.50592041,2742098.331451416,3504702.32963562,161408.4243774414,7425490.379333496,15002866.744995117,10397544.860839844,5209313.869476318,-4848104.953765869,-5802413.9404296875,-2986654.281616211,-1288694.143295288,186260.80453395844,-8696426.391601562,7892479.419708252,8459490.776062012,2568172.6932525635,-12967191.696166992,-12004564.28527832,-7029665.470123291,-86233.18374156952,-199031.66592121124,4868664.741516113,4682278.156280518,-6884799.957275391,-7227355.003356934,1050802.230834961,-4939492.702484131,-11701763.153076172
0.475,85169860.83984375,94195503.23486328,121285469.05517578,52724685.66894531,56136157.98950195,25802839.279174805,31777011.87133789,30075031.280517578,29246347.427368164,24174032.21130371,32573207.85522461,38410942.07763672,38755325.31738281,69934822.08251953,25827686.309814453,10782164.573669434,8086960.792541504,21894723.892211914,15969542.503356934,23267610.549926758,29604789.73388672,39172668.45703125,40630382.5378418,5728667.259216309,7870491.027832031,10296417.236328125,21022039.41345215,14739052.772521973,18013780.59387207,18809028.62548828,17494684.21936035,20890352.249145508,-631441.2951469421,2316319.227218628,2027281.7611694336,3608044.385910034,191053.98654937744,8075470.924377441,15618786.811828613,10742399.215698242,5849065.30380249,-6174242.4964904785,-7181198.596954346,-3691009.759902954,-2662184.715270996,78371.64402008057,-9415103.912353516,7241544.723510742,7898970.603942871,2611008.882522583,-13990811.347961426,-13359658.241271973,-8719734.191894531,-314361.6318702698,-2846563.8160705566,4202350.13961792,3510169.02923584,-8701997.756958008,-8930324.55444336,-591233.1342697144,-6143785.9535217285,-13017789.840698242
0.48,52571575.16479492,65208648.681640625,94242408.7524414,37024570.46508789,40983215.33203125,13369601.249694824,20304830.55114746,21935508.728027344,22205814.361572266,17768600.463867188,26303907.39440918,30411834.716796875,30811021.80480957,61023479.46166992,13303377.151489258,4299124.240875244,4438794.136047363,19303470.611572266,13447629.928588867,20710712.432861328,27061216.354370117,35270053.86352539,36812549.59106445,1691144.4664001465,5481382.369995117,8445063.591003418,19966453.552246094,14450479.507446289,16984365.463256836,17848720.55053711,16875404.357910156,19871597.290039062,-1063143.9685821533,2346311.8076324463,1814086.4372253418,4174088.478088379,249236.062169075,7658875.942230225,14759081.840515137,10546346.664428711,6994227.409362793,-5167850.971221924,-6347093.58215332,-3408973.9322662354,-2259200.096130371,216287.00196743011,-10319307.327270508,5940501.689910889,6763362.884521484,3288518.6672210693,-12451247.215270996,-11521211.624145508,-7544201.374053955,-84579.13994789124,-2168132.0667266846,4331303.596496582,3522222.0420837402,-7613423.824310303,-7831336.02142334,1051351.6664505005,-4449217.319488525,-9923082.35168457
0.485,21110591.888427734,34110031.12792969,65971405.029296875,21030818.939208984,26110294.342041016,1461110.234260559,8920960.426330566,13057256.698608398,14516326.904296875,10578791.618347168,20098487.854003906,23498744.96459961,23968891.143798828,52559288.024902344,1566339.373588562,-2649210.4530334473,65931.96839094162,15225064.277648926,9415779.113769531,16713544.845581055,23353973.388671875,30969793.31970215,33719310.76049805,-1390649.0802764893,3137090.6829833984,6728324.413299561,18738231.658935547,12841978.073120117,14776144.027709961,16300081.253051758,15649050.71258545,19562461.853027344,568658.4115028381,3241810.7986450195,2047522.783279419,4650545.120239258,277941.9422149658,6860486.5074157715,14047695.15991211,10312816.619873047,7758167.743682861,-2668475.62789917,-3821203.7086486816,-2107193.7084198,-688381.016254425,420877.75468826294,-9576773.643493652,5731704.7119140625,6675796.5087890625,3879758.358001709,-9672360.42022705,-8630551.3381958,-4453677.654266357,235850.12555122375,618647.9926109314,5403014.659881592,4547616.004943848,-4617971.420288086,-4865962.982177734,4342415.332794189,-1633617.2819137573,-5867013.454437256
0.49,-6582912.445068359,4385095.596313477,37593742.37060547,6274347.305297852,10744954.109191895,-6858176.708221436,-948488.9507293701,4578330.516815186,6500316.143035889,2521863.9373779297,12477188.110351562,15102799.415588379,15472307.205200195,42698600.76904297,-6499501.2283325195,-8020677.56652832,-4413917.541503906,10346231.460571289,4758517.265319824,12089129.447937012,18333435.05859375,25647789.001464844,28821578.979492188,-2221944.0937042236,1846482.1577072144,6171258.926391602,17493791.580200195,10445185.661315918,12679241.180419922,15050996.780395508,13201625.82397461,18615882.873535156,3726225.8529663086,5099806.308746338,2834022.5219726562,5033705.711364746,294505.774974823,5985001.564025879,14465928.077697754,10607418.060302734,8505154.609680176,431724.3993282318,-438334.31601524353,605373.4421730042,1244707.3459625244,589495.3608512878,-7316031.932830811,7543980.598449707,8432884.216308594,5171662.8074646,-6614283.561706543,-6294518.47076416,-1122085.452079773,328535.5865955353,2959567.5468444824,7621299.266815186,6552867.889404297,-1350358.009338379,-1556554.7943115234,7372920.513153076,979006.7672729492,-3386877.0599365234
0.495,-32331352.23388672,-23918045.043945312,8969234.466552734,-6785107.612609863,-6025242.805480957,-12070915.222167969,-9558486.938476562,-1949995.1601028442,-279852.3008823395,-4489995.956420898,3895982.265472412,3624870.538711548,3809539.0796661377,30123970.03173828,-11733927.726745605,-10692721.366882324,-7478698.73046875,7115683.078765869,2094041.5859222412,8946537.971496582,13812558.1741333,19512252.807617188,20773077.0111084,-1445476.0551452637,2606492.9962158203,7134552.955627441,16979715.34729004,9167963.981628418,11777094.841003418,14564756.393432617,10446636.199951172,15511615.753173828,6784748.077392578,7733703.136444092,4608991.622924805,6067813.396453857,378510.5347633362,5115829.944610596,15356760.025024414,11479699.13482666,9481719.970703125,3299146.6522216797,2663084.9838256836,4181105.136871338,2590679.64553833,725549.578666687,-6551505.565643311,9369992.25616455,10060867.309570312,7096112.251281738,-4257718.086242676,-4805293.560028076,645294.0106391907,242352.11312770844,3134231.8058013916,9331579.208374023,8158561.706542969,535538.0177497864,404892.6830291748,8437690.734863281,2230684.0419769287,-2766975.4028320312
0.5,-46399326.32446289,-39995841.97998047,-7679605.484008789,-12740900.039672852,-15903043.746948242,-13547276.496887207,-13731368.064880371,-3017539.5011901855,-1291628.7183761597,-5167321.681976318,251266.747713089,-4686518.669128418,-4544816.493988037,20605384.826660156,-13527854.919433594,-9762117.385864258,-6575378.894805908,8815289.497375488,4835375.785827637,10173665.046691895,13242620.468139648,15892411.231994629,13768809.31854248,-499333.4710597992,4892098.426818848,9243499.755859375,18330911.63635254,11264375.686645508,12892589.569091797,15027712.82196045,9476477.62298584,11288894.653320312,7763155.460357666,9479965.209960938,6578675.746917725,7804633.140563965,526445.8060264587,4927105.42678833,15199873.924255371,11685410.499572754,9193784.713745117,4336710.453033447,3663939.4760131836,6031372.547149658,2336879.9686431885,769740.1642799377,-9187276.840209961,8020024.299621582,8567989.349365234,7135912.895202637,-4000394.821166992,-4637468.338012695,-351273.92411231995,147907.88292884827,1141772.5086212158,7947088.718414307,6982994.556427002,-167543.00892353058,-313343.49513053894,6600315.093994141,816473.3648300171,-3718299.627304077
0.505,-42583572.38769531,-37073013.30566406,-4904763.221740723,-10041054.725646973,-13318556.785583496,-11689929.008483887,-12032150.268554688,799190.0444030762,3466117.3820495605,553388.8936042786,3764276.2660980225,-4687442.302703857,-4402842.044830322,19307718.27697754,-11899871.826171875,-7054652.214050293,-2782200.0980377197,13976285.934448242,11131627.082824707,14412630.081176758,15961582.18383789,16285930.633544922,12111452.102661133,-775562.3459815979,5787525.177001953,10736059.188842773,20527791.97692871,15387113.571166992,14939023.971557617,15456240.6539917,9994494.438171387,8635744.094848633,5753863.334655762,8205100.059509277,6594796.180725098,8896977.424621582,582125.7829666138,5984926.700592041,13267777.442932129,9861013.412475586,6438363.552093506,2431802.0343780518,1581139.326095581,3920629.5013427734,585618.1979179382,644853.2938957214,-12460844.039916992,3556891.918182373,4112258.9111328125,3769361.4959716797,-5854175.567626953,-6109332.084655762,-3233360.2905273438,77539.48867321014,-1220891.3564682007,3947125.4348754883,3147244.453430176,-2849712.610244751,-3098510.980606079,3303931.951522827,-2542930.6030273438,-5473225.5935668945
