time,Fp1,Fpz,Fp2,AF3,AF4,F7,F5,F3,F1,Fz,F2,F4,F6,F8,FT7,FC5,FC3,FC1,FCz,FC2,FC4,FC6,FT8,T7,C5,C3,C1,Cz,C2,C4,C6,T8,TP7,CP5,CP3,CP1,CPz,CP2,CP4,CP6,TP8,P7,P5,P3,P1,Pz,P2,P4,P6,P8,PO7,PO5,PO3,POz,PO4,PO6,PO8,CB1,O1,Oz,O2,CB2
0.0,1347613.4538650513,1344577.7893066406,4976358.890533447,830751.5978813171,1783005.2375793457,-558602.3330688477,-374324.9177932739,270037.442445755,835373.2824325562,1216449.3799209595,1725646.734237671,592915.0581359863,592258.870601654,1485052.227973938,-560152.4114608765,-373224.675655365,-597061.7532730103,496793.56813430786,621588.0513191223,815790.4148101807,762700.617313385,915038.2876396179,1478594.5415496826,244335.3235721588,-111571.58762216568,174755.09643554688,12114.574201405048,189565.94169139862,390819.251537323,190324.88763332367,528604.1498184204,360201.03096961975,-29423.560947179794,-147297.7250814438,-521654.6654701233,99249.9589920044,-29447.48103618622,-17899.09601211548,-60595.25907039642,127603.09875011444,48086.43087744713,-246812.23928928375,-268378.4067630768,-273694.36621665955,-260265.052318573,-13291.459530591965,-361706.76350593567,-148363.44122886658,-202889.02521133423,-324633.9559555054,-584354.1622161865,-770720.1242446899,-545627.4151802063,-55299.293249845505,-392188.69805336,-300229.5196056366,-302772.4623680115,-548797.5478172302,-525891.9596672058,-652530.5509567261,-41125.02932548523,43353.94501686096
0.005,-16891445.15991211,-33647533.41674805,55042049.407958984,-9748777.389526367,-14731226.921081543,-12120675.086975098,-9651863.098144531,-5032758.2359313965,-5525438.7855529785,-8967069.625854492,-13690347.671508789,-31632244.110107422,-31464097.97668457,-11841621.398925781,-12097594.261169434,-6508450.031280518,-21961017.608642578,-1382491.7078018188,-3788496.494293213,-6813165.187835693,-7214016.914367676,-4235734.462738037,-812995.6722259521,358824.87893104553,-1019028.7828445435,-672742.9032325745,1810550.8089065552,-2052798.7480163574,-3627068.042755127,-4923976.421356201,-4179684.1621398926,-8756276.13067627,1889078.2594680786,-765447.4377632141,-1743027.687072754,1379769.5636749268,103662.8857254982,-3960828.5427093506,-3222806.215286255,-3768368.2441711426,-3669341.564178467,1543905.6158065796,892183.1250190735,-3380272.86529541,1598028.063774109,190084.308385849,-919822.6928710938,-1423514.2469406128,-2978822.4697113037,-5316794.872283936,-7007603.168487549,-9294045.448303223,-2080018.0435180664,-815944.0755844116,-1443334.460258484,-2178639.8887634277,-2876742.124557495,-2044410.9439849854,-1814297.7952957153,-659060.2993965149,1486673.7127304077,1211616.7545318604
0.01,-9278092.384338379,-34425674.43847656,89640190.12451172,-4541295.528411865,-10835755.348205566,-10534997.940063477,-6512717.723846436,-422018.1405544281,-2238247.6329803467,-6223953.2470703125,-13553622.245788574,-37997428.89404297,-37623931.884765625,-9794616.69921875,-10516276.359558105,-3823240.7569885254,-27074674.606323242,1237309.5750808716,-2435479.164123535,-7023692.607879639,-7422840.118408203,-2285589.6949768066,2382763.385772705,3576133.966445923,1664194.107055664,1363395.094871521,3187173.843383789,-888298.0346679688,-3828361.2728118896,-5848233.222961426,-3943198.9192962646,-10287252.426147461,3986664.056777954,72132.6395869255,-1534813.404083252,2067704.200744629,381608.784198761,-5986898.899078369,-4606692.790985107,-4216948.03237915,-3803524.7325897217,2340720.8919525146,1498712.0628356934,-4200216.770172119,2156451.2252807617,460223.4363555908,-1573522.2101211548,-2387882.947921753,-4374649.524688721,-6754526.138305664,-9226885.795593262,-12585712.432861328,-2293850.898742676,-996545.3147888184,-468553.1258583069,-2262161.4933013916,-3525281.4292907715,-2385584.3544006348,-1843566.1792755127,-611390.2926445007,2331544.1608428955,2560632.2288513184
0.015,13279429.43572998,-10396035.194396973,103381454.46777344,9662637.710571289,6015147.686004639,-131106.33194446564,3798653.8410186768,9421734.809875488,6523744.583129883,4979881.286621094,-2285461.187362671,-24324043.27392578,-23845861.434936523,3380903.959274292,-120084.44219827652,4327198.028564453,-19511270.52307129,5791639.32800293,2321216.344833374,-2059562.4446868896,-2061226.1295318604,4260540.008544922,9144192.695617676,8362318.992614746,6254987.2398376465,4689279.556274414,3286206.2454223633,2366789.8178100586,-1258753.6573410034,-3283231.258392334,383620.5005645752,-5685689.449310303,6058062.0765686035,2134309.768676758,-610330.2836418152,1859771.728515625,631648.5404968262,-5721948.146820068,-3932645.082473755,-1262626.7671585083,-920583.0693244934,2643538.9518737793,2006278.2764434814,-2917574.167251587,1565041.184425354,688696.8612670898,-2067902.5650024414,-2541912.317276001,-4076290.6074523926,-5019361.49597168,-7452575.68359375,-10925964.35546875,-1189560.7709884644,-643701.8513679504,1975742.4592971802,-1034448.0276107788,-2666577.8160095215,-1474726.915359497,-595830.5597305298,-552492.9165840149,2370236.873626709,3751540.6608581543
0.02,18290475.845336914,764524.1618156433,100049438.4765625,13136762.619018555,11982312.202453613,2936009.645462036,5176068.7828063965,11295588.493347168,8636596.6796875,9447855.949401855,3137368.2022094727,-16489921.569824219,-16136419.296264648,10531114.57824707,2946352.005004883,6325147.62878418,-15880965.232849121,5958266.258239746,3531723.976135254,82211.62855625153,730573.3561515808,7131817.817687988,12553196.907043457,9304800.987243652,7113576.889038086,4887210.845947266,1854901.1945724487,3554721.1170196533,175854.11667823792,-1383970.4990386963,3359303.9512634277,-2547299.861907959,6673901.081085205,3050850.1529693604,-1437005.0430297852,822677.4334907532,599823.6536979675,-4271564.960479736,-2746819.496154785,1518297.9106903076,978206.5153121948,2747162.342071533,2313503.5037994385,-2247688.2934570312,671137.809753418,704784.0356826782,-2108395.0996398926,-2265400.171279907,-3453965.187072754,-3841281.1756134033,-5837402.820587158,-9196968.078613281,-361743.89719963074,-343126.3267993927,3180646.8963623047,-773646.2354660034,-2623205.1849365234,-681888.0438804626,369461.68541908264,-1025681.8532943726,1786435.1272583008,3795473.575592041
0.025,618646.5620994568,-12245028.495788574,90928443.9086914,2873931.407928467,2288839.101791382,-6772519.588470459,-6151484.489440918,2872846.6033935547,2084609.7469329834,3053921.699523926,-2460139.513015747,-23431823.73046875,-23307365.41748047,5559480.1902771,-6834995.269775391,-1672364.354133606,-22504453.659057617,1371896.2669372559,89974.44063425064,-2478929.042816162,-1023563.1465911865,4310678.005218506,10201030.731201172,3791790.48538208,2027015.6860351562,1071169.7340011597,630522.0723152161,1725578.6657333374,-412601.9775867462,-2013662.0998382568,1937320.8284378052,-4550900.459289551,3971588.8500213623,626936.3760948181,-5029852.867126465,-398322.8802680969,353459.32841300964,-2789684.295654297,-2771496.295928955,854913.5327339172,-1120980.978012085,938306.6296577454,493240.6544685364,-4537503.242492676,-412510.2162361145,505784.45196151733,-1988233.5662841797,-3242325.782775879,-4652814.3882751465,-6309080.123901367,-8292787.551879883,-11491032.600402832,-2094334.1255187988,-557930.8271408081,1006224.3938446045,-3300972.4617004395,-5406167.507171631,-2285162.925720215,-1276785.969734192,-3442275.7625579834,29813.293367624283,1233276.7248153687
0.03,-2606601.2382507324,-14679575.92010498,97104637.1459961,752023.458480835,840234.6968650818,-14218869.20928955,-13478884.69696045,-1261674.8809814453,79115.29392004013,-280128.50880622864,-4871483.80279541,-26770359.03930664,-26728500.366210938,2287959.337234497,-14495171.546936035,-8429520.606994629,-27616210.9375,184182.62898921967,-583940.9828186035,-2442415.714263916,-115152.18019485474,3562080.6217193604,8384805.679321289,-2864180.564880371,-3195797.920227051,-1281890.869140625,2661887.1688842773,1062079.906463623,455975.7113456726,-2360792.875289917,-369606.4054965973,-7889395.713806152,-1537501.6927719116,-3739678.382873535,-8469319.343566895,-411720.3652858734,184613.1831407547,-1445195.5556869507,-3710572.7195739746,-2497659.206390381,-6408329.486846924,-4334504.6043396,-4833896.636962891,-8695931.434631348,-1932551.0263442993,263192.41523742676,-2590324.1634368896,-6609625.816345215,-8427708.625793457,-12245544.43359375,-15323826.789855957,-17810831.06994629,-7741171.360015869,-1184643.268585205,-4281588.077545166,-8715736.389160156,-11382660.865783691,-7876830.101013184,-6954324.722290039,-9333064.079284668,-4461596.965789795,-5277011.394500732
0.035,41824039.459228516,28435514.450073242,137035263.06152344,25713621.139526367,28329763.412475586,-2575826.406478882,-184127.28607654572,12367553.7109375,14359428.405761719,12993771.55303955,9543533.325195312,-9403713.22631836,-9250143.051147461,15723078.727722168,-3110643.8636779785,-1112894.892692566,-19080883.026123047,9272476.196289062,7812723.159790039,6382747.650146484,9472587.585449219,12193187.713623047,14455595.016479492,-2472097.873687744,-768065.9294128418,3606056.9286346436,9185998.916625977,5444755.554199219,5495615.482330322,905367.7320480347,2045147.8958129883,-7614903.926849365,-6407346.725463867,-5797483.921051025,-7604980.945587158,1920906.1861038208,175055.45914173126,107547.59609699249,-3544619.7986602783,-4865700.721740723,-11735045.433044434,-11277594.566345215,-11659990.310668945,-11192208.290100098,-3331709.861755371,106291.93484783173,-4439451.217651367,-11157258.033752441,-13167857.17010498,-19176626.205444336,-24211259.841918945,-25276391.983032227,-16214584.350585938,-1788336.0385894775,-10550261.497497559,-15697049.140930176,-19348955.154418945,-16520563.125610352,-15540794.372558594,-18224704.74243164,-12348425.86517334,-15533840.17944336
0.04,113603515.625,99881225.5859375,199462982.17773438,65471008.30078125,71155548.09570312,22339551.92565918,26605489.73083496,36598007.20214844,37976242.06542969,36566341.400146484,33755924.224853516,18907854.080200195,19191080.09338379,40663688.65966797,21709293.365478516,16363229.751586914,-2289829.0157318115,24148118.97277832,21156940.460205078,19640693.66455078,23267887.115478516,26554666.51916504,26598884.58251953,5016427.993774414,8374230.38482666,13468912.124633789,17379739.76135254,12766051.292419434,12308540.344238281,6615281.581878662,9096056.938171387,-3901940.5841827393,-8154787.063598633,-3927974.7009277344,-2742643.117904663,5726061.3441467285,128504.33588027954,1693891.2868499756,-1481913.9242172241,-4425812.244415283,-14860561.37084961,-16134601.593017578,-16305873.87084961,-10602524.757385254,-3781999.8264312744,-11078.021489083767,-6908921.241760254,-14525296.211242676,-16580194.473266602,-24704589.84375,-31251537.322998047,-30919311.5234375,-24045232.77282715,-2130727.529525757,-15496173.858642578,-22169858.932495117,-26936677.932739258,-24612751.007080078,-23455827.713012695,-26545335.76965332,-21218669.891357422,-26511236.1907959
0.045,155007156.3720703,143341949.46289062,241550155.63964844,87028228.75976562,94296211.24267578,35884704.58984375,41854656.21948242,49770957.946777344,51239685.05859375,50238388.06152344,47284233.09326172,33459129.333496094,33776821.13647461,56701190.94848633,35393299.1027832,25791282.653808594,6216234.20715332,32668209.075927734,28727899.5513916,26847663.87939453,30824148.178100586,35404251.09863281,34916881.5612793,9695849.418640137,14091807.36541748,19171699.52392578,22258773.803710938,17074777.603149414,15909669.876098633,10094040.870666504,14463670.73059082,-577985.6443405151,-8453793.5256958,-1904832.124710083,704664.409160614,8224342.346191406,-56498.74359369278,2566738.3670806885,520885.05029678345,-3160874.843597412,-15659857.749938965,-17588048.934936523,-17676097.869873047,-9557548.522949219,-3615169.7635650635,-199737.59353160858,-8794120.788574219,-15785241.12701416,-17885215.759277344,-27531696.319580078,-34109771.728515625,-33259132.385253906,-27769477.84423828,-2320865.1542663574,-17819227.21862793,-25955312.728881836,-31346996.307373047,-28467988.967895508,-27186721.801757812,-30044767.379760742,-26762834.548950195,-33472038.26904297
0.05,135678207.39746094,127132957.4584961,230640563.96484375,74042922.97363281,81673927.3071289,23755580.90209961,31643905.639648438,40860630.03540039,44006298.06518555,43539871.21582031,40482902.52685547,24759552.001953125,25090002.059936523,52500633.239746094,23457563.400268555,16639530.181884766,-570115.6258583069,28685144.424438477,25412298.20251465,23567770.00427246,27683708.19091797,32661609.649658203,33017166.137695312,3702366.1136627197,9255993.843078613,15332015.991210938,21285808.563232422,15890448.570251465,14569146.156311035,8799847.602844238,13362635.612487793,54582.130163908005,-10384367.942810059,-4011383.056640625,-1324515.2235031128,7513032.913208008,-213050.2015352249,2272599.935531616,217386.46924495697,-3418282.985687256,-14961409.568786621,-17582834.243774414,-17744792.938232422,-10980201.721191406,-3990287.0655059814,-443118.1252002716,-9628158.569335938,-15697687.149047852,-17767021.17919922,-27267757.415771484,-33067325.592041016,-32565265.655517578,-26783037.185668945,-2501611.4711761475,-17538927.07824707,-25861671.447753906,-30995479.583740234,-27434377.670288086,-26173046.112060547,-27847747.802734375,-26819822.311401367,-33624347.68676758
0.055,82724327.08740234,76074142.45605469,181579193.11523438,43144683.837890625,51361190.79589844,-1725288.5103225708,7647091.388702393,21039651.87072754,25927059.173583984,26272359.84802246,23724075.317382812,6308425.9033203125,6711836.814880371,37071922.302246094,-2004175.1861572266,-1446915.7457351685,-13268241.882324219,18296779.63256836,16686000.82397461,15397468.566894531,19220111.846923828,23274911.880493164,24965803.146362305,-8420405.387878418,-1276271.939277649,6719141.006469727,16656860.3515625,12763688.087463379,11190187.454223633,5005341.053009033,8157867.431640625,-1202068.4480667114,-13496328.353881836,-8948275.566101074,-6501333.236694336,4768348.217010498,-196399.06287193298,1061275.2437591553,-1953081.8462371826,-4533708.095550537,-13382581.71081543,-17657159.80529785,-17891502.380371094,-13890114.784240723,-5137492.1798706055,-573677.5994300842,-10048807.144165039,-14994646.072387695,-16924158.096313477,-24489509.58251953,-30348688.12561035,-30336143.493652344,-23484874.725341797,-2604167.4613952637,-15777939.796447754,-22641942.977905273,-26930345.53527832,-24007921.21887207,-22850187.301635742,-23130790.71044922,-23238594.05517578,-28631561.279296875
0.06,41245162.96386719,34727020.263671875,137283767.7001953,20655790.328979492,29547729.4921875,-19100017.547607422,-10179360.389709473,7872322.082519531,13033082.008361816,14353882.789611816,12088448.524475098,-5456461.9064331055,-4969510.078430176,25378526.68762207,-19532821.655273438,-12225646.97265625,-20038232.803344727,11337107.65838623,11009014.129638672,10014160.15625,12997548.10333252,15980200.76751709,18948638.916015625,-15779524.803161621,-7536610.6033325195,1679538.2499694824,12645542.14477539,11926324.844360352,9172582.626342773,2448324.203491211,4509395.122528076,-2670555.830001831,-14485697.746276855,-11719919.204711914,-9747682.571411133,2717990.6368255615,-119776.94928646088,-504448.4734535217,-3692347.288131714,-4551826.477050781,-11415428.161621094,-17046051.025390625,-17285394.6685791,-15092953.6819458,-6060898.303985596,-463509.9768638611,-10706598.281860352,-13910512.924194336,-15769897.4609375,-21014425.27770996,-28046466.827392578,-28207695.00732422,-20584785.46142578,-2519515.2759552,-14065299.987792969,-18692106.246948242,-22239612.579345703,-20971393.585205078,-19908515.93017578,-19463855.743408203,-19305324.55444336,-22933515.548706055
0.065,24287521.362304688,17483177.185058594,118768302.91748047,13617468.83392334,22053615.57006836,-23347457.885742188,-16731975.555419922,5170837.40234375,9958884.239196777,11941854.476928711,8722429.275512695,-8512256.622314453,-8001671.79107666,20741621.017456055,-23885635.375976562,-12780358.31451416,-20306901.931762695,10239452.362060547,10477065.086364746,8963873.863220215,10915020.942687988,13658905.982971191,17286434.173583984,-15223417.282104492,-7359141.3497924805,1786574.0060806274,11186788.558959961,12907043.45703125,8855730.056762695,2053253.6506652832,4204397.678375244,-3499775.8865356445,-12646617.889404297,-10888971.328735352,-10137508.392333984,2330672.5025177,-137171.6558933258,-1835211.157798767,-3960114.9559020996,-3721339.464187622,-9730212.211608887,-15335271.835327148,-15607787.132263184,-14192167.282104492,-6143737.79296875,-208736.50908470154,-11208389.282226562,-13059482.57446289,-14996870.040893555,-18964412.689208984,-26797853.469848633,-27078458.786010742,-18932821.27380371,-2355021.4767456055,-13209056.854248047,-16332105.63659668,-19554359.436035156,-19215372.08557129,-18190095.901489258,-17590812.68310547,-16465393.06640625,-19634000.778198242
0.07,15042798.99597168,8403210.639953613,112257423.4008789,10882884.02557373,18051111.221313477,-25676357.26928711,-21034965.51513672,4066787.2428894043,9594425.201416016,11851022.720336914,7130349.636077881,-10229424.476623535,-9722625.732421875,16910213.470458984,-26116170.88317871,-12977136.611938477,-21323396.682739258,10115792.274475098,10932732.582092285,8783843.040466309,10104668.617248535,13047101.974487305,16242532.730102539,-13734092.712402344,-7300705.432891846,1683290.0047302246,10737052.917480469,12329910.278320312,8635196.685791016,2169781.446456909,4646584.987640381,-3473598.003387451,-11420066.833496094,-10321967.124938965,-11075329.780578613,2160627.841949463,-170835.30128002167,-2255489.8262023926,-3610030.174255371,-3794516.8018341064,-8708045.959472656,-14418040.27557373,-14812571.52557373,-14204240.798950195,-5958323.4786987305,-52133.53410363197,-10624746.322631836,-12962435.722351074,-14939437.866210938,-18753618.240356445,-26245656.967163086,-27006732.940673828,-17971532.821655273,-2309015.5124664307,-12585002.899169922,-16003973.007202148,-19013933.181762695,-18252059.936523438,-17179903.030395508,-16232450.485229492,-14224079.132080078,-18438337.326049805
0.075,2949030.1609039307,-3474000.2155303955,102006141.66259766,4753618.240356445,11767176.628112793,-33104255.67626953,-28638282.775878906,-1047093.1529998779,6191717.624664307,8932039.260864258,3959796.42868042,-13499157.905578613,-12985327.72064209,11960189.819335938,-33337837.21923828,-18665773.391723633,-26056140.899658203,7411986.351013184,9119416.236877441,7321205.139160156,8688863.754272461,11673684.120178223,13944359.77935791,-17029058.4564209,-11668698.31085205,-1983137.3691558838,9212123.87084961,9415544.509887695,7974995.136260986,1872023.8208770752,4354074.954986572,-2554262.638092041,-13285189.628601074,-12969181.060791016,-14272869.110107422,866034.8653793335,-55714.47312831879,-1411575.6750106812,-3152421.236038208,-4424742.221832275,-7752840.995788574,-15758550.643920898,-16301958.084106445,-16854320.526123047,-6139284.133911133,-96788.4287238121,-8874461.17401123,-12455642.700195312,-14323892.593383789,-18270244.598388672,-25929294.58618164,-27448932.647705078,-17060197.830200195,-2337433.099746704,-10729420.66192627,-15865529.06036377,-18471284.866333008,-17445951.461791992,-16273456.573486328,-14511264.80102539,-11839756.965637207,-17043802.26135254
0.08,-4410185.33706665,-10460913.65814209,93067298.88916016,-321346.640586853,8527855.87310791,-39776390.075683594,-34858043.6706543,-6090168.9529418945,2186452.1503448486,6139029.979705811,2569238.1858825684,-14454537.391662598,-13997716.903686523,11465690.612792969,-39889160.15625,-24502557.7545166,-30265825.271606445,4249480.247497559,6591781.6162109375,5954853.534698486,7833315.849304199,11294097.900390625,13688342.094421387,-21962614.059448242,-16627895.35522461,-6110034.465789795,6879593.372344971,7016920.08972168,7860019.207000732,2118549.585342407,5298772.33505249,-712878.5252571106,-15878236.770629883,-16403499.603271484,-17180812.83569336,-968857.8844070435,139181.4798116684,-25521.39386534691,-1850808.2628250122,-3093685.3885650635,-5606952.19039917,-17439897.537231445,-18101066.58935547,-19839242.935180664,-6455607.891082764,-204121.36614322662,-7119691.848754883,-9524442.672729492,-11309226.036071777,-14981659.889221191,-25283790.588378906,-27404031.75354004,-15685244.5602417,-2181246.9959259033,-7059813.976287842,-13539443.969726562,-15729918.479919434,-16128566.74194336,-14948686.599731445,-12429816.246032715,-8933501.243591309,-13762950.897216797
0.085,-1693940.4010772705,-6046678.54309082,95352180.48095703,790880.0840377808,12231772.422790527,-39426193.23730469,-34940898.89526367,-6133643.15032959,2184660.4347229004,7833488.941192627,5524608.135223389,-10861490.249633789,-10602235.794067383,18058855.056762695,-39540988.92211914,-24382099.151611328,-30105724.334716797,4228291.5115356445,6681080.8181762695,6496312.618255615,8919548.034667969,14026693.344116211,18187023.162841797,-22817096.710205078,-17013584.13696289,-6521135.330200195,5831340.789794922,7495831.9664001465,8906765.937805176,3687809.705734253,8915437.698364258,1992587.8047943115,-15627285.957336426,-16778516.76940918,-17208797.454833984,-1903246.521949768,154762.10415363312,497048.43759536743,386393.39804649353,716661.5128517151,-2026523.8285064697,-16664979.934692383,-17404338.836669922,-20171157.836914062,-6562552.928924561,-250413.9244556427,-6633164.882659912,-4710907.936096191,-6559079.170227051,-9421373.36730957,-23916711.807250977,-26282600.40283203,-13699984.550476074,-1808940.6490325928,-3249804.973602295,-9132607.460021973,-11214118.957519531,-14017576.217651367,-13039587.97454834,-10458584.785461426,-5780744.0757751465,-9383606.910705566
0.09,2356528.2821655273,938269.6747779846,103215713.50097656,4490956.3064575195,17749895.095825195,-36421707.15332031,-32275352.478027344,-3272274.2557525635,5595094.203948975,12646153.450012207,9684868.812561035,-6542933.464050293,-6516084.671020508,25203214.645385742,-36551109.313964844,-21163303.37524414,-27424573.89831543,7191633.224487305,9772729.873657227,8373453.140258789,11002484.321594238,17896282.196044922,24013446.807861328,-20429157.257080078,-14265505.79071045,-4033138.2751464844,7175018.787384033,9756707.191467285,10267346.382141113,5430382.251739502,12573400.497436523,4690165.5197143555,-13474773.406982422,-14753176.68914795,-15504791.259765625,-1493457.4365615845,-109022.69929647446,-319812.26801872253,1806460.0229263306,3611618.757247925,856998.2647895813,-14380206.108093262,-15087206.840515137,-18340442.657470703,-6764633.655548096,-358233.39223861694,-7536270.1416015625,-1976827.85987854,-3848192.9302215576,-5861986.6371154785,-22729598.999023438,-25125396.728515625,-12312680.2444458,-1610778.2125473022,-2426912.546157837,-6251197.814941406,-8457818.031311035,-12443391.799926758,-11731495.85723877,-10029634.475708008,-4169143.6767578125,-7152021.884918213
0.095,-1140329.5993804932,-718205.5115699768,103789108.27636719,4503663.539886475,18497451.782226562,-38822505.950927734,-32931972.50366211,-2751275.062561035,7942856.311798096,15498929.023742676,10550056.457519531,-6200323.581695557,-6225325.584411621,25178632.736206055,-38935668.9453125,-21629217.14782715,-26359029.76989746,9680880.546569824,12720895.767211914,9487428.665161133,11948491.096496582,18769401.55029297,25215873.71826172,-20318603.515625,-13747621.536254883,-2695394.277572632,9561258.316040039,10918962.478637695,10591191.291809082,5520100.5935668945,12503974.914550781,5502869.606018066,-13631903.648376465,-14275617.599487305,-14812229.15649414,-485708.23669433594,-465887.99357414246,-1338741.3024902344,829777.0023345947,2312784.433364868,141210.24310588837,-14317638.397216797,-14794397.354125977,-17213130.950927734,-7301198.482513428,-674502.968788147,-8747264.862060547,-4246997.356414795,-5939545.154571533,-7987689.971923828,-23472332.000732422,-25790359.497070312,-13385040.283203125,-1927481.0552597046,-5940876.9607543945,-8289603.233337402,-10577633.85772705,-13511464.11895752,-12826621.055603027,-12767115.592956543,-6157681.941986084,-9801478.385925293
0.1,-8634261.131286621,-8919035.911560059,96073822.02148438,896086.2159729004,14882448.196411133,-46269451.14135742,-37408470.153808594,-5804665.088653564,6744833.946228027,13928396.224975586,7928390.979766846,-9242660.522460938,-9090493.202209473,19398199.0814209,-46414306.640625,-26535013.19885254,-28211929.321289062,8941304.206848145,12227034.568786621,8591381.072998047,11111657.14263916,16067083.358764648,21374942.779541016,-24056819.915771484,-16854194.64111328,-4245681.285858154,10543088.912963867,9457661.628723145,9457161.903381348,3911524.772644043,9199410.438537598,3599248.4092712402,-17116472.244262695,-16614116.668701172,-15668133.735656738,122156.84354305267,-677577.3167610168,-1271407.2465896606,-1539580.4643630981,-1683765.6497955322,-3893177.5093078613,-17321403.50341797,-17487058.639526367,-17931207.65686035,-7592648.506164551,-1007781.0287475586,-8993529.319763184,-9057799.339294434,-10565703.392028809,-13781629.56237793,-25987249.37438965,-28143739.700317383,-16444919.58618164,-2510136.127471924,-10911725.044250488,-13434391.975402832,-15738324.165344238,-16753080.368041992,-15805712.699890137,-17464639.66369629,-10423319.816589355,-15470186.233520508
0.105,-12321196.556091309,-13923689.842224121,89922073.36425781,-1895673.2749938965,11827533.721923828,-51346004.486083984,-41838249.20654297,-9814023.0178833,3302239.8948669434,9848433.494567871,5061911.106109619,-10838589.668273926,-10482776.641845703,16425319.67163086,-51599666.595458984,-30812322.61657715,-31528276.443481445,5193941.116333008,8060146.331787109,6227981.5673828125,9954617.500305176,14051200.866699219,18771606.4453125,-27442255.0201416,-19934705.73425293,-6962998.390197754,9006818.771362305,6058511.257171631,7640548.229217529,2591966.6290283203,7352140.9034729,1637352.3473739624,-19969200.134277344,-18912330.627441406,-16712417.602539062,-331284.1057777405,-679181.9334030151,-305540.91930389404,-2631077.289581299,-3497208.1184387207,-6486928.462982178,-19757478.713989258,-19828018.188476562,-19065465.927124023,-7104165.077209473,-983279.2282104492,-7817577.362060547,-10830458.641052246,-12405490.87524414,-16575021.743774414,-27272651.67236328,-29403627.395629883,-17935762.405395508,-2748317.003250122,-12364814.758300781,-15543611.526489258,-17896045.684814453,-18358341.217041016,-17185272.216796875,-19523826.599121094,-11895741.46270752,-18038228.98864746
0.11,-11964010.238647461,-13022525.787353516,90572700.50048828,-2503585.8154296875,11688394.546508789,-50694049.83520508,-44322055.81665039,-12994924.545288086,-168928.1314611435,6228935.241699219,3975395.441055298,-8209716.796875,-7816718.101501465,20881174.087524414,-51045188.903808594,-31537689.208984375,-34918132.78198242,806295.3948974609,3085015.296936035,3879943.84765625,10019224.166870117,16327308.654785156,22470085.14404297,-27242624.282836914,-20248607.635498047,-8916965.48461914,6094706.058502197,2559676.8856048584,6252353.191375732,3149778.6045074463,9927721.02355957,3620898.723602295,-18960258.48388672,-18842634.201049805,-17359504.69970703,-1905014.5149230957,-558919.9066162109,378958.7914943695,-1295200.3479003906,-790259.063243866,-3280303.478240967,-18796184.539794922,-19092706.68029785,-19402582.1685791,-6481036.186218262,-613979.8760414124,-5919347.763061523,-7533988.475799561,-9319362.64038086,-12576161.38458252,-25156738.28125,-27675611.49597168,-15524352.073669434,-2447859.525680542,-8764205.932617188,-11536748.886108398,-13742414.474487305,-15864060.401916504,-14776651.382446289,-16179710.388183594,-7826648.712158203,-13947580.337524414
0.115,-12155174.255371094,-11764872.550964355,93590377.80761719,-3471547.6036071777,12756941.795349121,-48750244.140625,-46136093.13964844,-15617995.262145996,-2803745.5081939697,4201861.381530762,3822255.849838257,-4025405.4069519043,-3712401.6284942627,28209552.764892578,-49134643.5546875,-30885345.458984375,-37676681.51855469,-1808738.2316589355,477075.1893520355,2676575.8991241455,10970544.815063477,20825155.25817871,29712198.25744629,-25503614.42565918,-19207611.083984375,-9891305.923461914,3909897.3274230957,797239.4227981567,5779934.883117676,4748265.266418457,14289219.856262207,9320202.827453613,-16118579.864501953,-17747890.47241211,-18122037.887573242,-3818241.3578033447,-444422.30463027954,291578.7696838379,887464.4041061401,3526945.114135742,3785663.843154907,-16489166.259765625,-17068361.282348633,-19463743.209838867,-6845335.483551025,-387258.76808166504,-4645320.415496826,-2980938.673019409,-4831036.567687988,-5784244.060516357,-21830883.026123047,-24937520.98083496,-11884162.902832031,-2079174.0417480469,-4237284.6603393555,-5785444.259643555,-7322815.418243408,-12106232.643127441,-11260602.951049805,-11013347.625732422,-2533300.1613616943,-7495910.64453125
0.12,-13898078.918457031,-13947341.918945312,93757667.5415039,-6043586.730957031,12842502.59399414,-50142307.28149414,-47900402.0690918,-17675432.205200195,-4548748.970031738,3370452.1656036377,3233843.5649871826,-2908157.1102142334,-2621114.2539978027,31273904.80041504,-50557064.056396484,-31409934.997558594,-38966133.11767578,-1942563.6529922485,967377.4838447571,2748863.935470581,11276210.78491211,22466657.638549805,33659317.01660156,-25575431.82373047,-19145072.93701172,-10350210.189819336,3438712.1200561523,1526066.0648345947,5899648.189544678,5259965.419769287,15753774.642944336,13558906.555175781,-15384464.263916016,-17963371.27685547,-19055944.442749023,-4978034.496307373,-432533.8304042816,-39615.85834622383,1732793.688774109,5192895.889282227,8134225.845336914,-16365348.815917969,-16988349.91455078,-20004800.79650879,-8163413.047790527,-601615.7269477844,-4808033.9431762695,-1720421.9102859497,-3480487.823486328,-3130683.422088623,-21199197.76916504,-24488218.307495117,-11382432.93762207,-2106697.5593566895,-3737056.255340576,-4534335.136413574,-5125387.668609619,-11613734.245300293,-10829875.946044922,-9797087.669372559,-2308156.2519073486,-5906610.012054443
0.125,-14946455.001831055,-17262878.41796875,91547599.79248047,-8129663.467407227,11815406.799316406,-53372314.453125,-48249496.45996094,-18359094.619750977,-5241955.757141113,3244612.455368042,2389450.788497925,-5535026.073455811,-5189475.059509277,29272541.046142578,-53832473.75488281,-32493476.86767578,-38566249.84741211,-1002675.0564575195,2646960.973739624,3439556.59866333,10497085.571289062,20125892.639160156,32440788.26904297,-27098632.8125,-19909393.310546875,-10527211.18927002,3824148.8933563232,3521422.1477508545,6037428.379058838,4103852.7488708496,13794041.633605957,12969235.42022705,-16831258.77380371,-19241001.12915039,-19633338.928222656,-5138394.832611084,-516717.0763015747,-257459.55109596252,871256.4706802368,3741195.2018737793,6826085.567474365,-18020774.841308594,-18499271.392822266,-20645309.448242188,-9158806.800842285,-900383.2340240479,-5762613.773345947,-3566434.860229492,-5297463.417053223,-5703291.893005371,-23199741.36352539,-26167188.64440918,-13716208.457946777,-2350778.102874756,-6955929.279327393,-7555690.765380859,-7615435.1234436035,-14008918.762207031,-13074975.01373291,-12437243.461608887,-6486942.768096924,-9524379.73022461
0.13,-15076505.661010742,-18363130.569458008,90147407.53173828,-7944548.1300354,10993422.508239746,-54405815.12451172,-46822311.40136719,-18081079.483032227,-5155690.1931762695,3394192.2187805176,2182576.894760132,-7931981.086730957,-7551155.090332031,27704898.834228516,-54828075.40893555,-32782878.875732422,-38094375.61035156,-1177480.2207946777,3076500.177383423,3842104.67338562,9803283.69140625,18074602.127075195,31180265.426635742,-27522195.81604004,-20254016.876220703,-10936184.883117676,3538166.5229797363,4252485.275268555,5860111.713409424,2868675.2319335938,12434222.221374512,10932015.419006348,-17206546.783447266,-19728435.516357422,-19961647.033691406,-5176824.09286499,-550479.9485206604,-755223.1550216675,-377240.8962249756,2404770.3742980957,4351766.109466553,-18086956.024169922,-18492712.020874023,-20763134.002685547,-8943309.783935547,-758061.945438385,-5878944.873809814,-4684346.675872803,-6469185.352325439,-7810072.422027588,-23741991.04309082,-26545566.55883789,-14243134.498596191,-2282571.55418396,-9083889.961242676,-8864976.88293457,-9007733.345031738,-14525499.34387207,-13485870.361328125,-13099244.117736816,-8042447.090148926,-11212170.600891113
0.135,-16634178.161621094,-17900846.481323242,90110939.0258789,-7276337.623596191,10964524.269104004,-53600467.681884766,-46217777.252197266,-19034511.56616211,-5674134.254455566,2746057.2719573975,2235091.209411621,-7033590.316772461,-6668089.389801025,30425254.821777344,-53884330.74951172,-33388526.916503906,-39785198.21166992,-3477690.2198791504,1231521.3680267334,3155853.9867401123,9893517.49420166,19749706.268310547,34347366.33300781,-26864677.42919922,-20630023.956298828,-12438925.743103027,1992901.2060165405,2243318.0809020996,5194894.313812256,2847382.3070526123,14427094.459533691,12672542.572021484,-15393770.217895508,-19244295.120239258,-20752830.505371094,-5940649.98626709,-393744.70710754395,-1835398.9124298096,-853162.8847122192,3530969.8581695557,6184581.279754639,-15677362.442016602,-16157825.469970703,-20672721.86279297,-8057340.621948242,-246674.62706565857,-4254199.504852295,-2886195.182800293,-4616209.030151367,-5033420.562744141,-20704654.693603516,-23847002.029418945,-10937772.750854492,-1793340.3253555298,-7227671.6232299805,-5349291.801452637,-5593463.42086792,-11186042.785644531,-10208208.084106445,-8852976.79901123,-3502594.7093963623,-6615598.201751709
0.14,-21551193.237304688,-19514955.520629883,88718444.82421875,-9514805.793762207,10442370.414733887,-55281536.10229492,-49279350.28076172,-22615926.74255371,-8044248.580932617,322762.22109794617,1194005.3701400757,-4715457.916259766,-4323977.947235107,34911563.873291016,-55496585.845947266,-36224250.79345703,-43635585.78491211,-6861611.366271973,-2014671.5641021729,1271975.3980636597,9873311.042785645,23057676.315307617,39533172.607421875,-27722038.26904297,-22354713.439941406,-15032708.168029785,-20666.47633910179,-1252815.2465820312,4042440.891265869,3255175.5905151367,17604650.497436523,17540779.11376953,-13970329.284667969,-19371620.178222656,-22038454.055786133,-7203007.221221924,-127348.6465215683,-2971281.7668914795,-536713.4809494019,5941632.270812988,11216884.61303711,-13606753.3493042,-14154037.475585938,-21026899.337768555,-7652894.496917725,61245.43771147728,-1862004.7569274902,224593.56486797333,-1308936.8343353271,194303.88510227203,-17037261.962890625,-20320348.739624023,-7410362.243652344,-1333754.6586990356,-3554856.538772583,-630520.8206176758,-477819.9791908264,-7672071.933746338,-6785547.733306885,-3851365.804672241,2435387.134552002,-351793.94483566284
0.145,-29864168.167114258,-25489906.311035156,83459442.13867188,-15171441.078186035,7781536.102294922,-61078529.357910156,-55201019.287109375,-27272710.8001709,-11436308.860778809,-2954125.8811950684,-907763.0639076233,-4504014.015197754,-4041855.3352355957,36566215.51513672,-61384468.07861328,-40491893.76831055,-47010478.97338867,-9219933.50982666,-4632433.891296387,-598239.8390769958,9152760.50567627,24037813.186645508,41396495.8190918,-30971055.98449707,-24946220.39794922,-17395198.822021484,-1260084.629058838,-3406062.8414154053,3039613.0084991455,2851944.2081451416,18409358.978271484,20122411.727905273,-15006795.883178711,-20701665.8782959,-22992740.631103516,-8041965.484619141,7047.09580168128,-3313381.6719055176,17721.349373459816,7192888.7367248535,13750915.52734375,-14022314.071655273,-14542894.36340332,-21711271.286010742,-8083084.1064453125,-97810.55897474289,-620813.4889602661,2033787.9657745361,636637.806892395,2594768.0473327637,-16589109.420776367,-19094591.14074707,-7613994.598388672,-1297881.1264038086,-1712972.640991211,607745.110988617,1375583.8871002197,-7830506.324768066,-6964898.586273193,-3095424.6520996094,3935841.7987823486,820272.9225158691
0.15,-39219539.642333984,-33940364.837646484,75486457.82470703,-20968296.05102539,3628506.898880005,-67378837.58544922,-60097438.81225586,-30296634.674072266,-13656318.664550781,-4772309.303283691,-2264110.803604126,-6256044.387817383,-5814635.276794434,34849929.80957031,-67732696.53320312,-43436946.868896484,-47883354.18701172,-9465641.021728516,-5135698.7953186035,-829247.5938796997,8848724.365234375,22647472.381591797,39074409.48486328,-34503856.65893555,-26585054.397583008,-18397676.467895508,-1249360.5613708496,-2782644.9871063232,3175867.5575256348,2089250.3261566162,16816871.643066406,17887767.791748047,-17372442.2454834,-22076734.54284668,-23145153.045654297,-7859705.448150635,-74897.29672670364,-2608607.292175293,394791.1560535431,6722064.49508667,11331064.224243164,-15803957.93914795,-16309040.069580078,-22126840.591430664,-8590225.219726562,-362626.01613998413,-1243109.2262268066,1829044.222831726,387591.4514064789,723550.3792762756,-19370792.388916016,-20701206.20727539,-10779642.105102539,-1582715.7497406006,-2650551.0807037354,-1595041.9902801514,-616893.7683105469,-10784797.668457031,-9965187.072753906,-5980065.822601318,1338211.8940353394,-2993166.68510437
0.155,-45568519.592285156,-40678684.23461914,68616027.83203125,-24205543.518066406,196912.482380867,-70754020.69091797,-62016525.26855469,-31688581.466674805,-14528555.870056152,-5034553.050994873,-2566141.6053771973,-7478231.430053711,-7183282.852172852,32276580.810546875,-70915817.26074219,-44627151.48925781,-47680438.99536133,-8967592.239379883,-4500087.738037109,72262.74907588959,9403311.729431152,21410560.607910156,35877986.907958984,-36891677.85644531,-27230506.896972656,-18678905.487060547,-708231.9259643555,-912718.5940742493,4214867.115020752,1926793.2176589966,15169852.256774902,13431126.594543457,-19429424.285888672,-22881252.28881836,-22971223.831176758,-6806184.2918396,-185263.81254196167,-1386605.2627563477,255548.4175682068,5447396.278381348,6823297.97744751,-17284811.01989746,-17863935.470581055,-22226953.506469727,-8236474.03717041,-335318.4759616852,-2417709.5890045166,421785.3546142578,-1156708.2405090332,-2942078.5903930664,-22845127.10571289,-23667221.069335938,-13847616.195678711,-1851275.3248214722,-5162117.958068848,-4491747.856140137,-3901222.7058410645,-13626284.5993042,-12937343.59741211,-8943552.017211914,-1555923.4619140625,-6729887.008666992
0.16,-47206981.65893555,-44094635.009765625,64623634.338378906,-26571611.404418945,-2426706.314086914,-72733169.55566406,-63547161.10229492,-34473495.48339844,-16877292.63305664,-7116476.535797119,-4741171.360015869,-8705004.692077637,-8498937.606811523,29376855.850219727,-72658744.81201172,-46799999.23706055,-49592201.232910156,-10413241.386413574,-5711678.028106689,-987154.5433998108,8366909.027099609,20015951.15661621,33207550.048828125,-39438556.67114258,-28995389.938354492,-19877948.760986328,-894601.9411087036,-571225.3451347351,4147032.2608947754,1380767.7030563354,13641191.482543945,9389463.424682617,-21724943.161010742,-24171901.70288086,-23129829.40673828,-5596982.955932617,-144737.109541893,-471645.8022594452,-739465.8923149109,3566152.0957946777,3318603.277206421,-18931766.510009766,-19560878.75366211,-22571781.158447266,-6983169.5556640625,-128657.44531154633,-2361419.916152954,-1465552.9260635376,-3170491.933822632,-6424713.611602783,-25815282.821655273,-26795558.92944336,-16177513.122558594,-1974142.1937942505,-8185375.213623047,-7181864.7384643555,-7340097.427368164,-15961956.024169922,-15351025.581359863,-11244158.744812012,-3703923.463821411,-8287254.333496094
0.165,-47997940.06347656,-46938922.88208008,61323486.328125,-31444690.704345703,-6590336.799621582,-76347503.66210938,-67718505.859375,-40137031.55517578,-22372972.48840332,-13118508.338928223,-10791070.938110352,-13052552.223205566,-12743793.487548828,24835868.83544922,-76362808.22753906,-51252384.185791016,-54158790.588378906,-14508272.171020508,-10038949.966430664,-5728856.563568115,3554860.830307007,15869103.43170166,29453462.600708008,-42981929.779052734,-32589546.20361328,-22290933.60900879,-2326517.105102539,-2550148.4870910645,1610015.2730941772,-1372462.0342254639,10351095.199584961,5690529.346466064,-24986091.61376953,-26546092.987060547,-23675821.30432129,-5072165.012359619,-25210.35447716713,-420310.52708625793,-2443611.3834381104,717170.2980995178,950786.4713668823,-21544284.82055664,-22045612.335205078,-23381891.25061035,-5763376.712799072,-98874.10700321198,-876019.4778442383,-3347563.2667541504,-5136515.6173706055,-9455599.784851074,-28492649.07836914,-29435865.40222168,-18812541.961669922,-2033253.9081573486,-10711271.286010742,-10056242.942810059,-11066205.978393555,-18813056.94580078,-18105726.24206543,-14223164.558410645,-6224697.589874268,-9538064.002990723
0.17,-52183303.83300781,-51273895.263671875,57073448.181152344,-37613384.24682617,-11965343.475341797,-80202072.14355469,-72635406.49414062,-45282562.255859375,-27637205.123901367,-19132616.04309082,-16943180.084228516,-19567100.524902344,-19117746.353149414,20186443.328857422,-80604080.20019531,-54807746.88720703,-57967117.30957031,-18278032.302856445,-14363429.069519043,-10845419.883728027,-2135254.383087158,10119188.30871582,25000194.549560547,-45196407.318115234,-35455047.607421875,-24095926.28479004,-3984487.771987915,-4643932.819366455,-1487655.6396484375,-5356726.169586182,5872517.108917236,2575839.7579193115,-27645637.51220703,-28507884.979248047,-24195236.206054688,-5452880.382537842,19111.31478846073,-1094763.7557983398,-3948700.9048461914,-2104016.065597534,-781567.5735473633,-23868122.100830078,-24103906.631469727,-24113893.508911133,-5442604.541778564,-268895.9836959839,618289.2322540283,-4527543.067932129,-6292572.498321533,-11421072.006225586,-30134653.091430664,-30792591.094970703,-20971157.07397461,-2057984.5905303955,-11271145.820617676,-11961454.391479492,-13707575.798034668,-21142782.21130371,-20272106.170654297,-16938367.84362793,-8135371.208190918,-11006863.594055176
0.175,-55869979.85839844,-53058773.040771484,55568580.627441406,-38674385.07080078,-13073800.086975098,-79682006.8359375,-72830375.67138672,-44777233.1237793,-27101612.091064453,-18595146.17919922,-16546665.19165039,-21753335.95275879,-21352651.596069336,19882087.70751953,-80322792.05322266,-53409931.18286133,-57285148.62060547,-17748714.447021484,-14061647.415161133,-10829494.47631836,-2625890.2549743652,8416847.229003906,23659032.821655273,-43387844.08569336,-34766860.96191406,-23213657.37915039,-3947608.9477539062,-4020317.554473877,-1479228.4965515137,-6716897.964477539,4078920.364379883,2048700.3326416016,-27683563.232421875,-28206815.719604492,-24113073.348999023,-5819121.837615967,22051.850333809853,-1653734.3263626099,-4283547.878265381,-2799842.357635498,-1113413.3338928223,-24070947.647094727,-24115346.908569336,-23982959.747314453,-5820334.911346436,-328672.4388599396,831835.0315093994,-4641333.103179932,-6238307.952880859,-11392560.005187988,-29480714.797973633,-30563167.572021484,-20764673.233032227,-1983353.2571792603,-9713993.072509766,-11409610.748291016,-13523861.8850708,-20944396.97265625,-20032575.607299805,-16956632.614135742,-7385621.547698975,-10863915.44342041
0.18,-50540302.27661133,-46498561.85913086,61620559.69238281,-30958650.588989258,-5962076.187133789,-73729026.7944336,-66406745.91064453,-38121612.548828125,-20013584.13696289,-10727766.036987305,-8627750.396728516,-15912449.836730957,-15701285.362243652,25028715.133666992,-74210609.43603516,-47532398.22387695,-52170261.38305664,-12503617.286682129,-8699209.213256836,-4891975.879669189,3538270.950317383,13431407.928466797,27108331.68029785,-38527565.002441406,-30991968.154907227,-19633831.024169922,-1283038.7353897095,-340487.7483844757,2465636.4917755127,-3512403.4881591797,6979178.905487061,4333618.1640625,-25558401.107788086,-25851425.170898438,-22873800.27770996,-4946217.5369262695,120209.82801914215,-1358478.7845611572,-3426840.7821655273,-886771.2616920471,152669.7427034378,-22330528.259277344,-22401840.209960938,-22618516.92199707,-5924705.505371094,-124758.63099098206,-222723.5734462738,-4243214.130401611,-5685175.895690918,-10112541.198730469,-27097059.24987793,-29524684.90600586,-18566373.825073242,-1812911.868095398,-8269778.251647949,-9542704.582214355,-11580173.49243164,-18705898.28491211,-17886013.03100586,-14710013.389587402,-5018623.828887939,-9024873.733520508
0.185,-37821960.44921875,-34754943.84765625,71593276.97753906,-20323778.15246582,3911078.453063965,-67046432.49511719,-58547966.00341797,-30982797.622680664,-12377411.842346191,-2616980.791091919,-487841.06969833374,-7855303.2875061035,-7730947.494506836,30420564.651489258,-67225448.60839844,-41898693.0847168,-46424659.729003906,-6677369.594573975,-3141242.9809570312,1233591.6757583618,10206169.128417969,19951007.843017578,31326278.686523438,-34259326.93481445,-27174409.866333008,-15700709.342956543,2526692.6288604736,3722322.2255706787,6738304.138183594,1108160.8533859253,11174374.5803833,6278449.058532715,-23189355.850219727,-23294088.36364746,-20622091.29333496,-3026331.901550293,286375.7610321045,-625137.0310783386,-2453975.6774902344,1391577.6014328003,1523307.6810836792,-20173181.533813477,-20412528.99169922,-20414569.854736328,-5274322.509765625,141694.8437690735,-1708040.714263916,-4132858.2763671875,-5620172.023773193,-9338490.48614502,-24924144.744873047,-28345651.626586914,-16526742.935180664,-1640316.0095214844,-8778469.08569336,-8741432.189941406,-10474859.237670898,-16654687.881469727,-15921135.902404785,-13017176.628112793,-3917588.233947754,-7436643.123626709
0.19,-31528106.689453125,-29288549.423217773,74983642.578125,-16723268.508911133,6286992.073059082,-64309837.341308594,-55793933.8684082,-29196723.93798828,-10388901.710510254,-1114694.4761276245,545657.5155258179,-6647661.6859436035,-6443897.724151611,30688430.786132812,-64390113.830566406,-40010509.4909668,-43749782.56225586,-4655656.814575195,-2095089.4355773926,1861410.8562469482,10706337.928771973,20872703.552246094,31511791.229248047,-32600421.905517578,-25494565.963745117,-13958076.477050781,4668923.377990723,5217897.415161133,7420411.109924316,2405027.6279449463,11802384.376525879,5484055.995941162,-21297025.680541992,-21929002.76184082,-18698173.52294922,-1746344.5663452148,359832.85307884216,-725346.3268280029,-2523305.1776885986,1583807.8260421753,1940258.3837509155,-18430084.228515625,-18792230.6060791,-18601823.806762695,-4473383.42666626,234318.27127933502,-2874606.3709259033,-4388826.847076416,-6028647.422790527,-9178040.504455566,-23846988.677978516,-26918453.216552734,-15344025.611877441,-1521838.1881713867,-10006845.474243164,-8929822.92175293,-10338312.149047852,-15425232.887268066,-14701646.80480957,-12635544.776916504,-3967051.5060424805,-6161325.931549072
0.195,-36521118.1640625,-32516571.044921875,70687034.6069336,-20655052.185058594,898335.5760574341,-64273902.893066406,-57489582.06176758,-31772111.892700195,-12913987.159729004,-4477515.697479248,-3579182.1479797363,-11818738.93737793,-11548970.222473145,27876604.080200195,-64460548.400878906,-40678298.95019531,-44214294.43359375,-6191313.743591309,-4703347.206115723,-1695050.3587722778,6370743.751525879,16731435.775756836,28828636.169433594,-32612731.93359375,-25761100.76904297,-14661978.721618652,4128374.0997314453,4019508.3618164062,5149917.125701904,25890.92217385769,8934083.938598633,3577172.7561950684,-19985712.0513916,-22087495.803833008,-18580638.885498047,-2079820.8713531494,325506.44874572754,-2014907.5984954834,-3566641.092300415,-86534.44796800613,1977069.4971084595,-17713645.935058594,-18083776.473999023,-18703214.645385742,-4469416.618347168,179145.82788944244,-3263714.7903442383,-4660207.748413086,-6320946.69342041,-8555667.877197266,-23812726.974487305,-25963029.861450195,-14542359.352111816,-1452103.4955978394,-9998085.021972656,-8426341.05682373,-9526346.206665039,-14563869.47631836,-13824948.31085205,-12156917.572021484,-2817494.8692321777,-3957589.626312256
0.2,-32364513.397216797,-25970874.786376953,77001258.85009766,-18690633.77380371,2844245.9106445312,-60738510.13183594,-54872577.66723633,-30756368.63708496,-11832704.544067383,-3791010.856628418,-2856224.0600585938,-11148651.123046875,-10935999.870300293,30520744.32373047,-61043415.06958008,-39657333.37402344,-43924278.259277344,-6273196.697235107,-5365696.430206299,-2293405.055999756,5623081.684112549,16070882.797241211,29777673.721313477,-32401630.401611328,-26262853.622436523,-15230159.759521484,3487733.1256866455,3188870.906829834,4663423.538208008,-1268881.7977905273,7906868.457794189,3777765.2740478516,-20465232.849121094,-23572137.8326416,-19888376.235961914,-2751038.074493408,349265.09857177734,-2972010.612487793,-3921989.2024993896,-1077200.5319595337,1997148.036956787,-19523105.62133789,-19876071.92993164,-21132745.74279785,-5646034.240722656,142597.60081768036,-2790922.8801727295,-5006253.719329834,-6601554.393768311,-8215489.387512207,-25838537.216186523,-27839668.27392578,-15463603.973388672,-1462091.2075042725,-9971153.259277344,-8027202.606201172,-9020921.70715332,-15579750.061035156,-14843983.65020752,-12390716.552734375,-1457251.6679763794,-3141797.0657348633
0.205,7265468.597412109,12979053.497314453,115259429.93164062,2954421.9970703125,27343116.760253906,-48632686.614990234,-39928062.438964844,-18884994.506835938,-238141.20888710022,7812016.487121582,10237112.998962402,6158983.7074279785,6300196.170806885,45244037.62817383,-49011844.635009766,-33411113.739013672,-38336658.4777832,-86524.13636445999,528598.964214325,5284756.183624268,14646460.53314209,25900436.401367188,39206996.91772461,-30372285.842895508,-24772178.649902344,-12480584.144592285,6516630.64956665,6038156.032562256,9538140.296936035,2832331.418991089,13237987.518310547,7293052.196502686,-23283325.1953125,-25383180.618286133,-20274419.7845459,-1837290.88306427,497386.00850105286,-1782309.651374817,-1730448.4844207764,598427.8917312622,1328744.1730499268,-24315578.46069336,-24678932.189941406,-24287647.247314453,-7735008.716583252,176824.51009750366,-2123151.7791748047,-5768173.694610596,-7477247.714996338,-10347274.780273438,-31066499.710083008,-33645248.41308594,-20271930.694580078,-1615094.780921936,-12887466.430664062,-10633184.432983398,-12084519.386291504,-20649049.758911133,-19912168.502807617,-16449096.6796875,-4134825.2296447754,-8319361.686706543
0.21,76233390.80810547,79031661.98730469,179897766.11328125,39971275.329589844,68945426.94091797,-29868453.979492188,-15648249.626159668,1654008.5077285767,19434286.11755371,27661954.879760742,32035617.82836914,35247177.12402344,35404312.13378906,69140678.40576172,-30300422.66845703,-22391897.201538086,-27359395.98083496,11525875.091552734,11788844.108581543,18535459.518432617,30191967.010498047,43188915.25268555,54705585.47973633,-25804693.2220459,-20132183.074951172,-6173250.198364258,13495139.122009277,12492239.952087402,18089614.868164062,10919472.694396973,23137317.657470703,13043419.83795166,-26061613.082885742,-25838954.92553711,-18232135.772705078,557489.5143508911,605921.9241142273,1307151.0791778564,2629477.024078369,4097694.3969726562,27266.00132882595,-29407207.489013672,-29696138.381958008,-25888734.817504883,-10073925.971984863,204329.9376964569,-2416079.28276062,-7049690.723419189,-9023519.515991211,-14935625.076293945,-37759086.60888672,-40469757.080078125,-27617263.793945312,-1891876.220703125,-18498029.708862305,-16415893.5546875,-18807403.564453125,-28143321.990966797,-27377717.971801758,-24270847.32055664,-11508573.532104492,-18573820.114135742
0.215,129774673.46191406,132270004.27246094,232224838.25683594,68899780.2734375,100929664.6118164,-14598562.240600586,3249673.1281280518,18233655.92956543,35356033.32519531,44206962.58544922,49188716.888427734,57061992.64526367,57263004.302978516,89207862.8540039,-14968338.012695312,-12524088.859558105,-17614587.783813477,21452493.66760254,21595157.623291016,28900642.39501953,41835281.37207031,56380352.02026367,67091804.50439453,-20773870.46813965,-14737383.842468262,-375937.3128414154,19874521.255493164,18377393.72253418,24636344.90966797,16838644.02770996,30388954.162597656,18390710.830688477,-26223394.3939209,-24667167.66357422,-15509216.30859375,2309041.976928711,520313.024520874,4046084.403991699,5906713.962554932,6215496.54006958,-844826.8175125122,-31512081.146240234,-31549043.655395508,-25561401.3671875,-11748474.12109375,164148.92673492432,-3982219.934463501,-8796136.856079102,-10826652.526855469,-19199113.845825195,-41999748.22998047,-43912071.228027344,-32758834.838867188,-2167400.121688843,-22852642.059326172,-21590167.999267578,-24650390.625,-33112773.895263672,-32308517.456054688,-30831424.713134766,-18149837.493896484,-26079555.51147461
0.22,127174537.6586914,133527740.47851562,233702514.6484375,68522605.8959961,99837104.79736328,-14469971.656799316,2577029.228210449,18269187.927246094,36189208.984375,46140132.904052734,49847404.47998047,55952938.079833984,56168308.25805664,91062881.46972656,-14605284.690856934,-11697625.160217285,-17175401.68762207,22535295.486450195,23186599.731445312,29447929.38232422,41555458.068847656,55792831.42089844,67169372.55859375,-20013324.737548828,-13793826.10321045,-19411.679357290268,20879703.521728516,19290220.260620117,24928102.493286133,16021495.819091797,29127067.56591797,19420427.322387695,-25109071.731567383,-24127876.28173828,-15422321.319580078,1903414.3686294556,311256.7067146301,4671267.986297607,5046517.848968506,4431149.005889893,-1400843.858718872,-30898097.99194336,-30681131.36291504,-25238887.786865234,-12180717.468261719,46015.821397304535,-5747837.543487549,-10845589.637756348,-12638754.844665527,-21201639.17541504,-42077724.45678711,-43018764.49584961,-33101337.432861328,-2329259.3955993652,-23312522.888183594,-23096796.0357666,-25955656.051635742,-33156642.91381836,-32322082.51953125,-31868074.417114258,-19115734.100341797,-25397794.723510742
0.225,75487449.6459961,85257751.46484375,185670440.67382812,41764842.98706055,69518844.60449219,-30701005.935668945,-16569269.180297852,2530560.01663208,22641408.920288086,33256443.02368164,35040287.017822266,35406787.87231445,35677108.76464844,72231262.20703125,-30637563.705444336,-21379873.275756836,-26270595.55053711,15360923.767089844,16665639.877319336,21562475.204467773,31457351.684570312,43045581.81762695,54483707.427978516,-25304681.7779541,-19202016.830444336,-5198309.898376465,17150409.698486328,15540952.682495117,20320764.541625977,10317988.395690918,21037281.036376953,14058401.107788086,-25677190.78063965,-25950101.852416992,-18485811.233520508,155719.68257427216,134033.87367725372,3552244.6632385254,965739.369392395,-150571.25687599182,-2788553.7147521973,-30228397.369384766,-30059255.599975586,-26331829.071044922,-11937014.57977295,-162601.5156507492,-6735120.77331543,-12439929.962158203,-14092348.098754883,-21474351.88293457,-39848003.38745117,-40530395.5078125,-30680837.631225586,-2375385.284423828,-21502220.153808594,-21832307.815551758,-23892759.323120117,-30675018.310546875,-29796308.517456055,-28584241.86706543,-15679951.667785645,-19839326.858520508
0.23,20368726.73034668,28750667.572021484,128247436.5234375,12533539.772033691,36655765.533447266,-50303501.12915039,-37620227.8137207,-14445868.492126465,7570749.282836914,17663185.119628906,18220771.78955078,14116422.653198242,14519432.067871094,46700397.49145508,-50325126.64794922,-33101341.247558594,-35760936.73706055,8189214.706420898,9326470.375061035,13517955.780029297,21445329.666137695,29472539.9017334,39000274.658203125,-31351421.356201172,-25666782.37915039,-10390527.725219727,14052676.2008667,12032949.447631836,16160490.036010742,5751294.136047363,13779093.742370605,5959469.795227051,-27029251.098632812,-28155485.153198242,-21283811.569213867,-1035893.7978744507,-5821.025464683771,2155962.9440307617,-2258366.346359253,-3705973.3867645264,-4391295.433044434,-29934976.57775879,-30129192.352294922,-27640537.26196289,-12309206.008911133,-440943.8967704773,-7443221.092224121,-12614439.010620117,-14473984.718322754,-20820991.51611328,-37355430.603027344,-38631919.860839844,-28239770.889282227,-2393108.606338501,-20422470.092773438,-20216352.462768555,-21567575.454711914,-28471446.990966797,-27499296.188354492,-24868314.743041992,-12212892.532348633,-15546015.739440918
0.235,-4577064.037322998,-309033.8110923767,97572425.84228516,-7502.673659473658,22033508.30078125,-58975585.9375,-45937500.0,-20135704.040527344,2123383.5220336914,11229133.605957031,11259621.620178223,5776542.663574219,6260848.9990234375,31649381.637573242,-59256149.29199219,-37469802.85644531,-37730842.59033203,7317020.893096924,7344710.350036621,11287671.089172363,18362022.399902344,23933719.635009766,31020517.349243164,-31792402.267456055,-26675413.131713867,-10899022.102355957,14895927.429199219,12286169.052124023,15679688.453674316,5448479.175567627,12139580.726623535,1449460.6256484985,-25835216.522216797,-27719732.2845459,-20812906.26525879,-964510.7388496399,-195854.60424423218,1253572.4639892578,-2526497.6024627686,-4281968.116760254,-4282849.311828613,-28221990.58532715,-28734453.201293945,-27384393.6920166,-13579424.858093262,-668724.6561050415,-8666695.594787598,-11762279.510498047,-13859257.698059082,-19422447.204589844,-34780143.73779297,-37075031.28051758,-25976409.912109375,-2461054.801940918,-20772209.16748047,-19091709.13696289,-20118759.155273438,-26464574.813842773,-25372468.948364258,-22510631.561279297,-10328025.817871094,-13431743.621826172
0.24,-7172511.577606201,-4422516.345977783,92165229.79736328,597298.3837127686,21396184.92126465,-57181186.67602539,-44091697.692871094,-17704288.482666016,3648262.5007629395,12527492.52319336,11982952.117919922,5991017.818450928,6396755.695343018,29287559.509277344,-57535747.52807617,-35836357.11669922,-35253780.364990234,9448772.430419922,8320226.669311523,11976460.456848145,18857191.08581543,23626462.936401367,29765666.961669922,-28635934.829711914,-23533752.44140625,-8766108.512878418,16821771.6217041,13921010.01739502,16506805.419921875,6322620.868682861,12429032.325744629,1185130.1193237305,-23079381.942749023,-25801111.221313477,-18697284.698486328,-617695.0335502625,-395617.7532672882,740205.2283287048,-2231610.059738159,-4296053.886413574,-3285599.946975708,-25627941.131591797,-26114463.806152344,-26366603.85131836,-14382850.646972656,-711543.2024002075,-9521768.569946289,-11712947.845458984,-13693647.384643555,-18636070.251464844,-32455413.818359375,-35589653.01513672,-23578981.399536133,-2563495.15914917,-21286117.553710938,-18366342.544555664,-19403951.64489746,-24110689.163208008,-22976676.94091797,-21230529.78515625,-8914719.581604004,-10927493.09539795
0.245,-13188853.26385498,-8407673.835754395,87201538.0859375,-1318250.298500061,17658500.67138672,-57214614.86816406,-45122924.8046875,-19235698.699951172,1405400.6338119507,10549555.778503418,9281501.770019531,1912932.9919815063,2194340.705871582,27350423.81286621,-57366653.44238281,-37340389.251708984,-37101776.123046875,6981423.854827881,5197733.8790893555,8686035.15625,15248805.046081543,19805191.040039062,26425487.518310547,-29753414.154052734,-23490964.889526367,-9578211.784362793,15081349.37286377,12015721.321105957,14403994.5602417,3852079.6298980713,8312414.169311523,-586043.5962677002,-23679256.439208984,-26493816.375732422,-19011726.37939453,-1185363.2926940918,-441462.1889591217,416383.4750652313,-4335996.150970459,-6841140.7470703125,-4703817.367553711,-25276636.123657227,-25505630.493164062,-26878578.186035156,-13457186.698913574,-583878.5171508789,-8394125.938415527,-13116118.431091309,-14771258.354187012,-20220609.664916992,-31697563.17138672,-35005199.43237305,-22101907.73010254,-2576049.327850342,-20915983.200073242,-18243726.73034668,-19612024.307250977,-22509738.92211914,-21507192.611694336,-20785791.397094727,-7518645.286560059,-8052651.405334473
0.25,-28863286.9720459,-22510108.947753906,71952873.22998047,-10956048.965454102,5521341.800689697,-64621284.48486328,-53305881.50024414,-27909631.729125977,-7579205.03616333,845753.6697387695,-718689.501285553,-9170722.961425781,-8891304.969787598,18107412.338256836,-64592002.868652344,-44639335.63232422,-44564128.87573242,-705212.4738693237,-3187712.1925354004,655386.8055343628,6746356.48727417,10920204.162597656,18191036.224365234,-36457748.41308594,-28723836.89880371,-14286997.79510498,9847899.436950684,5996836.185455322,9363662.719726562,-1538901.686668396,535784.8405838013,-6333482.265472412,-27990552.90222168,-30075414.657592773,-22467351.91345215,-2671210.527420044,-286117.5239086151,77810.138463974,-7782055.854797363,-10763357.162475586,-8435427.66571045,-27387508.392333984,-27434099.197387695,-28719058.990478516,-11457025.527954102,-431148.2906341553,-5846870.422363281,-13964203.834533691,-15476570.129394531,-22719732.2845459,-32039562.225341797,-34974502.56347656,-21621147.15576172,-2402517.080307007,-19466814.041137695,-18166582.107543945,-20023283.004760742,-21891359.329223633,-21144815.44494629,-20431913.375854492,-6468886.375427246,-6778745.651245117
0.255,-38959362.0300293,-34012130.73730469,59394710.540771484,-18652971.267700195,-4321455.955505371,-70725692.74902344,-59309764.86206055,-34305137.634277344,-14663660.049438477,-8259099.006652832,-9577857.01751709,-17489843.368530273,-17151056.28967285,8841261.863708496,-70756637.57324219,-49590240.478515625,-49638957.97729492,-6062254.428863525,-9849617.004394531,-5428791.046142578,506800.0555038452,4719585.418701172,12569967.269897461,-40322257.99560547,-32721698.760986328,-17728878.021240234,6121623.0392456055,616475.0456809998,5675371.170043945,-5315093.994140625,-3675365.686416626,-10363862.037658691,-29495891.571044922,-31597970.962524414,-25202619.552612305,-4027373.790740967,-104523.4352350235,-751587.3312950134,-9166235.92376709,-12102085.11352539,-9607068.061828613,-27651912.689208984,-27687505.7220459,-28805170.0592041,-10096752.166748047,-349605.85832595825,-4738801.4793396,-12410627.365112305,-13976743.698120117,-22154249.19128418,-30529003.143310547,-33407478.33251953,-19892364.501953125,-2145809.1735839844,-17389902.114868164,-16638698.57788086,-18611595.153808594,-20059974.670410156,-19512298.583984375,-18359296.798706055,-5160305.023193359,-6539193.153381348
0.26,-34791736.6027832,-31965969.08569336,60915397.64404297,-16689601.89819336,-3609146.1181640625,-67115257.2631836,-55707305.908203125,-31531681.060791016,-12892566.680908203,-8213195.80078125,-9346428.871154785,-16295940.399169922,-16030275.344848633,9107185.363769531,-67277343.75,-45984764.099121094,-47293514.251708984,-4181326.8661499023,-9268293.380737305,-4889426.231384277,1166177.2727966309,6425455.093383789,15242267.608642578,-35471191.40625,-30096689.224243164,-16157293.319702148,6977145.195007324,-217979.02882099152,5945010.185241699,-5335919.380187988,-1141501.0690689087,-7571479.797363281,-24246444.702148438,-28087148.666381836,-24162221.908569336,-4408726.692199707,-90113.86334896088,-2290624.3801116943,-7934170.246124268,-10039219.856262207,-5734073.162078857,-23493635.177612305,-23580593.10913086,-25692737.579345703,-9946894.645690918,-303493.2613372803,-6572850.227355957,-9965611.457824707,-11486292.839050293,-17924709.32006836,-25988445.281982422,-29776477.813720703,-15893769.264221191,-2030706.8824768066,-15834637.641906738,-13693815.231323242,-15100450.51574707,-15962439.53704834,-15451850.891113281,-14270361.90032959,-3012450.2182006836,-5047478.199005127
0.265,-26846511.840820312,-23986829.75769043,68247779.8461914,-10700887.680053711,1596932.8880310059,-59115081.787109375,-48534595.48950195,-25665023.803710938,-7149926.662445068,-2427293.539047241,-3747558.59375,-11390851.974487305,-11303329.467773438,15596541.404724121,-59225067.138671875,-39489757.5378418,-42940692.90161133,483280.4203033447,-4744478.225708008,-1253396.1534500122,4540888.786315918,10999848.365783691,20773403.16772461,-27767366.409301758,-24818023.681640625,-12600298.881530762,9737462.997436523,2180914.1635894775,7878087.043762207,-4239848.613739014,2673756.3610076904,-1935516.119003296,-17656738.28125,-23421661.376953125,-21352561.950683594,-4041093.349456787,-210108.29508304596,-3832816.6007995605,-6930239.200592041,-8144172.668457031,-1248537.7788543701,-18547697.067260742,-18716875.076293945,-22238498.68774414,-10170109.748840332,-242376.83415412903,-9255167.007446289,-9629428.86352539,-10943441.390991211,-14545843.124389648,-21649913.787841797,-26756141.662597656,-12404856.68182373,-2099720.001220703,-15801902.770996094,-11730830.192565918,-12364846.229553223,-12384443.283081055,-11843094.825744629,-11018139.839172363,-1261217.8325653076,-2507379.7702789307
0.27,-26854257.583618164,-22656955.71899414,67878433.22753906,-10097917.556762695,1519278.883934021,-57552536.01074219,-47819934.8449707,-26034011.840820312,-6352150.440216064,-303484.9762916565,-1716963.291168213,-11453495.979309082,-11381443.977355957,17880926.13220215,-57493644.71435547,-39173831.939697266,-43999649.04785156,1102035.2840423584,-3067847.728729248,-462279.2601585388,4427670.955657959,10994243.621826172,21002672.19543457,-26392438.888549805,-24220325.469970703,-12215920.448303223,10096635.818481445,4234315.872192383,8149672.508239746,-4759774.684906006,1923675.8947372437,-619388.6399269104,-17144687.65258789,-22937644.958496094,-20870027.542114258,-3793379.306793213,-249089.5539522171,-4404809.474945068,-7832270.622253418,-9016386.032104492,-1220095.8728790283,-17672319.412231445,-18029628.75366211,-21977386.474609375,-10204414.367675781,-199470.77333927155,-9768857.955932617,-11400804.51965332,-12583656.311035156,-15272814.750671387,-20955524.444580078,-26628021.240234375,-12265491.485595703,-2121412.0388031006,-16589984.893798828,-12217872.619628906,-12539895.057678223,-12213465.690612793,-11686928.749084473,-11140922.546386719,-1350694.179534912,-1024023.2944488525
0.275,-31240457.53479004,-26883842.46826172,61412811.279296875,-14394203.186035156,-3182456.4933776855,-62757007.59887695,-53029140.47241211,-31504325.86669922,-10705372.81036377,-3676351.78565979,-4760160.92300415,-15684087.753295898,-15350286.483764648,13992221.83227539,-62681175.231933594,-44257205.963134766,-49227840.423583984,-2162376.4038085938,-5410602.09274292,-2788895.1301574707,1196396.7084884644,6994136.810302734,17006059.646606445,-31001565.93322754,-28495174.407958984,-15051343.91784668,7766231.536865234,4825283.050537109,6873136.043548584,-6017001.628875732,-1659597.2776412964,-3447402.000427246,-21710487.365722656,-26008939.743041992,-23229597.091674805,-4108320.2362060547,-93096.94170951843,-4096673.011779785,-9123078.346252441,-10955369.94934082,-4152390.0032043457,-20124368.66760254,-20732292.17529297,-24407602.310180664,-10371699.333190918,-223381.9216489792,-8029374.122619629,-12391266.822814941,-13633758.544921875,-17528570.1751709,-22787254.333496094,-27981084.8236084,-14066617.965698242,-1925041.675567627,-16418992.99621582,-13436532.974243164,-13864621.16241455,-14055917.739868164,-13512214.660644531,-13123158.45489502,-2419965.5055999756,-708254.2181015015
0.28,-30827110.290527344,-27154966.354370117,59864364.62402344,-16181064.60571289,-5331140.518188477,-65850730.895996094,-55735347.747802734,-33855674.743652344,-13280699.729919434,-6462648.868560791,-7430783.748626709,-17577445.98388672,-16957101.821899414,10562371.253967285,-65971939.08691406,-46645023.345947266,-51834220.88623047,-4127057.5523376465,-7707071.781158447,-4416306.018829346,-704310.2383613586,4630482.196807861,15243349.075317383,-33898811.34033203,-31585018.157958984,-16863451.00402832,5917820.453643799,4972917.556762695,6154361.248016357,-6298639.297485352,-3152947.6642608643,-5102227.210998535,-24401947.021484375,-27849685.668945312,-25205171.585083008,-4620699.882507324,115362.15245723724,-3995795.249938965,-9458256.721496582,-11603198.051452637,-5555642.127990723,-21454351.4251709,-22200487.13684082,-26119569.778442383,-10721343.994140625,-280212.6109600067,-6584468.364715576,-11556163.787841797,-12911853.790283203,-17710723.876953125,-23679882.049560547,-28105985.641479492,-14560074.806213379,-1692360.4011535645,-15160655.02166748,-13369305.610656738,-13870120.04852295,-14622210.502624512,-13905114.17388916,-13749984.741210938,-2735796.2131500244,-160059.3477487564
0.285,-28092927.932739258,-23435054.779052734,63662303.92456055,-14076442.71850586,-4564091.682434082,-63434062.95776367,-53488407.135009766,-31411050.79650879,-11720525.741577148,-5912971.973419189,-7761512.279510498,-16699695.587158203,-16064086.9140625,9815156.936645508,-63750873.56567383,-43947875.9765625,-50137672.424316406,-3199241.6381835938,-7920572.757720947,-4431265.354156494,-691020.7867622375,4643803.119659424,15716666.221618652,-32147800.44555664,-30740591.049194336,-15812046.05102539,6276157.379150391,4655525.684356689,6164132.595062256,-6652129.173278809,-2861731.767654419,-5043418.407440186,-22817161.560058594,-26952886.5814209,-24856256.48498535,-4817470.073699951,160889.99807834625,-4685750.0076293945,-10131587.028503418,-11888504.981994629,-5529177.665710449,-20406381.607055664,-21117843.627929688,-25743543.62487793,-10625367.164611816,-287000.77533721924,-7101524.829864502,-11284870.147705078,-12700763.702392578,-17100179.67224121,-23033777.236938477,-27006490.70739746,-13592758.178710938,-1704313.6358261108,-14738451.957702637,-12842868.80493164,-13423467.636108398,-13695113.182067871,-12775352.478027344,-12788328.170776367,-2629184.4844818115,119405.96252679825
0.29,-32581424.713134766,-25101360.321044922,62191574.09667969,-14074481.010437012,-7190806.865692139,-61247764.587402344,-52083892.822265625,-30582424.16381836,-10803331.37512207,-6037431.240081787,-9313166.618347168,-18363477.70690918,-17934568.405151367,6979914.665222168,-61580020.904541016,-41809638.97705078,-48753684.997558594,-2612139.2250061035,-7878516.674041748,-5234447.479248047,-1899959.2065811157,2938154.935836792,12896414.756774902,-30077552.795410156,-29373809.814453125,-14490691.184997559,7311909.198760986,2986815.6909942627,5523985.385894775,-8743389.129638672,-4659891.128540039,-7421896.457672119,-21098463.05847168,-26378675.46081543,-23965526.580810547,-4700982.570648193,37342.35838055611,-5519127.84576416,-12331929.206848145,-13680576.32446289,-7306956.768035889,-19808795.928955078,-20423278.80859375,-25258399.963378906,-10092845.916748047,-224630.83267211914,-8746796.607971191,-13198463.439941406,-14651358.604431152,-18915262.22229004,-22951225.28076172,-26662000.65612793,-13381292.343139648,-1906266.0932540894,-16001768.112182617,-13514874.458312988,-14550367.35534668,-13454895.973205566,-12578290.939331055,-12509952.545166016,-3561897.2778320312,-1419504.5232772827
0.295,-42861263.275146484,-33879741.66870117,52618862.15209961,-18294284.82055664,-13730328.559875488,-62891761.779785156,-54419578.552246094,-34208091.735839844,-13191304.206848145,-8921546.936035156,-12782755.851745605,-22856592.178344727,-22567071.91467285,1161177.2775650024,-63125892.639160156,-43524589.53857422,-50074287.41455078,-3824626.922607422,-8323862.075805664,-6904294.967651367,-4367078.78112793,-747701.2872695923,6924719.81048584,-30499368.66760254,-30380573.272705078,-15179877.281188965,7278734.20715332,981825.5305290222,4645711.421966553,-11012747.764587402,-8124386.787414551,-12079161.643981934,-22215400.69580078,-28052309.036254883,-24768575.66833496,-4567675.590515137,-69710.55269241333,-5612283.706665039,-14311812.400817871,-15872171.401977539,-10373719.215393066,-21313659.66796875,-21826335.906982422,-26409576.416015625,-10298427.58178711,-174761.3400220871,-10027734.756469727,-15297706.604003906,-16760837.55493164,-22216655.731201172,-24127948.760986328,-27603691.10107422,-14269531.25,-1993843.913078308,-17246482.849121094,-14659039.497375488,-16314697.265625,-14285068.51196289,-13684340.476989746,-13681580.543518066,-5206383.70513916,-3833923.578262329
0.3,-45994411.46850586,-38828342.43774414,46183448.791503906,-20642648.696899414,-15992162.704467773,-64095741.271972656,-55735671.99707031,-36806083.67919922,-14760366.439819336,-10058958.053588867,-13122912.406921387,-23559013.36669922,-23226505.279541016,-1158027.0528793335,-64301071.16699219,-45220745.08666992,-50851696.0144043,-4052371.025085449,-7087904.930114746,-6269898.891448975,-4167131.9007873535,-1530308.1274032593,4628654.956817627,-30816589.35546875,-31986989.974975586,-16602535.247802734,6684203.147888184,1129169.9409484863,5591070.652008057,-10407864.570617676,-8657504.081726074,-13661189.079284668,-24218132.01904297,-29975221.633911133,-26607305.5267334,-4496417.52243042,-78216.26961231232,-4980937.957763672,-13749714.851379395,-15981130.599975586,-11037910.461425781,-23252511.978149414,-23592784.881591797,-28238452.911376953,-11906758.308410645,-248327.15094089508,-10696512.222290039,-15149333.953857422,-16554595.947265625,-23403469.08569336,-25215747.833251953,-28670408.248901367,-14725777.626037598,-1896491.527557373,-17080476.760864258,-14631311.416625977,-16371637.344360352,-14754513.74053955,-14296854.972839355,-15081007.00378418,-6026756.286621094,-4785767.555236816
0.305,-37064140.31982422,-32731727.600097656,51048377.990722656,-16729406.356811523,-9581936.836242676,-61258388.51928711,-52467449.18823242,-34067615.5090332,-11906826.972961426,-5895154.4761657715,-7837376.117706299,-17848955.154418945,-17453866.958618164,3009046.792984009,-61577728.271484375,-43474834.44213867,-48544109.34448242,-1578467.1306610107,-3544933.080673218,-2560574.769973755,-276064.99195098877,2067571.8784332275,8049228.668212891,-29203866.958618164,-31810287.475585938,-16638433.456420898,6822153.568267822,3665171.3848114014,8397494.316101074,-7356867.31338501,-5492963.790893555,-10905109.405517578,-24981533.05053711,-29955718.994140625,-27338922.50061035,-4414530.277252197,-133390.8885717392,-4394374.370574951,-11519140.243530273,-14358943.939208984,-9278177.261352539,-24020055.770874023,-24150381.088256836,-28923694.610595703,-13666970.252990723,-476711.6606235504,-11232840.538024902,-13582215.309143066,-14937829.971313477,-22292377.471923828,-25743185.04333496,-29368425.369262695,-14771237.37335205,-1864605.0691604614,-16710369.110107422,-14105049.133300781,-15292570.114135742,-14927967.071533203,-14263938.903808594,-16325700.759887695,-6183890.819549561,-4695325.3746032715
0.31,-28412046.432495117,-24395235.061645508,58877563.4765625,-11794821.739196777,-2106774.8069763184,-58452629.08935547,-48953094.482421875,-30365663.528442383,-8160402.297973633,-785342.812538147,-2513826.847076416,-12746423.721313477,-12390051.84173584,6869632.244110107,-58932754.51660156,-41380302.42919922,-46027046.20361328,709361.9704246521,-1115095.615386963,181145.74253559113,2637834.5489501953,4661425.590515137,10289152.145385742,-28463703.155517578,-30982194.900512695,-15743426.322937012,7496366.024017334,5548575.878143311,10196692.46673584,-5715639.114379883,-3699375.629425049,-9605513.572692871,-25677993.774414062,-28905090.33203125,-26697124.481201172,-4433018.207550049,-345132.5297355652,-4516693.115234375,-10527933.120727539,-13669110.298156738,-9239091.873168945,-24343410.49194336,-24426128.387451172,-28348112.106323242,-13736476.89819336,-746109.7836494446,-11513040.542602539,-12915238.380432129,-14336802.48260498,-22092237.47253418,-26654962.53967285,-30193611.14501953,-15968220.710754395,-2031076.6696929932,-17631811.141967773,-14936411.85760498,-15737601.280212402,-16261396.408081055,-15304691.314697266,-18149255.752563477,-7276285.648345947,-6120919.704437256
0.315,-32272586.822509766,-26284276.962280273,57123992.919921875,-13112428.665161133,-3020467.519760132,-60678569.79370117,-50517383.57543945,-31815244.674682617,-8897437.09564209,-1237880.2299499512,-3491939.3062591553,-15054056.167602539,-14714490.89050293,3728290.08102417,-61195335.388183594,-42930450.439453125,-46977832.79418945,-318342.6856994629,-2748734.474182129,-1373422.5034713745,787766.5162086487,2134241.819381714,6331783.771514893,-30744173.049926758,-31545631.408691406,-15655396.461486816,7702118.873596191,4362486.362457275,9088786.125183105,-7327503.681182861,-6399870.3956604,-13401115.417480469,-27485715.866088867,-28723085.403442383,-26268915.1763916,-4630387.306213379,-545208.4541320801,-5394916.05758667,-11419766.426086426,-14618846.893310547,-12258800.506591797,-25160476.684570312,-25429918.28918457,-27559745.78857422,-12036814.68963623,-861315.8464431763,-10965508.460998535,-13181978.225708008,-14706608.772277832,-23840431.213378906,-27971496.58203125,-31037801.74255371,-18134536.743164062,-2196210.6227874756,-18854631.423950195,-16727594.375610352,-17969308.853149414,-18420965.19470215,-17444042.205810547,-20109617.233276367,-9461277.00805664,-9181241.035461426
0.32,-42153675.0793457,-35479110.71777344,48346065.521240234,-18426000.595092773,-9940387.725830078,-65073478.69873047,-54547542.572021484,-36326560.974121094,-12739499.09210205,-6194121.837615967,-8659147.262573242,-21045429.229736328,-20553012.84790039,-2759974.241256714,-65412414.55078125,-45800189.97192383,-49873851.77612305,-2971908.0924987793,-6327338.218688965,-4883860.5880737305,-3048261.1656188965,-1835964.560508728,996026.5755653381,-33009975.43334961,-32409809.112548828,-16152269.36340332,7675699.710845947,1602340.817451477,6887740.612030029,-9538749.694824219,-9874831.199645996,-17750709.533691406,-28606256.48498535,-29068437.576293945,-26581010.818481445,-4598894.119262695,-487903.02872657776,-6401897.90725708,-11932668.685913086,-15098216.05682373,-14579468.727111816,-25680011.749267578,-26139980.31616211,-26700574.87487793,-10255946.159362793,-731182.4560165405,-9680551.528930664,-12596655.84564209,-14101180.076599121,-25045993.80493164,-28490226.74560547,-31237806.32019043,-19160827.63671875,-2179090.976715088,-18596467.971801758,-17343185.424804688,-19524204.25415039,-19306190.490722656,-18523931.5032959,-20804006.576538086,-11154331.20727539,-11159639.358520508
0.325,-42667934.41772461,-38144588.470458984,45796642.3034668,-19342805.862426758,-12718743.324279785,-65072952.27050781,-54488933.56323242,-36895503.997802734,-13678717.613220215,-8728825.569152832,-10861116.409301758,-22241365.432739258,-21527338.0279541,-4716808.795928955,-65118087.76855469,-44851844.787597656,-50320064.544677734,-3232726.573944092,-7466284.75189209,-5792675.971984863,-3786772.9663848877,-1695350.4085540771,1030798.1967926025,-31531373.977661133,-31005224.227905273,-15368345.260620117,8556508.06427002,584474.0271568298,6476402.282714844,-9370616.912841797,-9498394.966125488,-17128820.419311523,-27129816.05529785,-28197719.57397461,-26215538.024902344,-3779942.512512207,-235502.66027450562,-6597801.685333252,-10643533.706665039,-13794023.513793945,-13525164.604187012,-24835561.752319336,-25246715.545654297,-24939620.971679688,-9633619.30847168,-499129.980802536,-8628356.93359375,-10864939.68963623,-12275484.085083008,-24126598.358154297,-27934946.060180664,-30940036.77368164,-18371168.13659668,-2115647.077560425,-17456348.419189453,-16447311.401367188,-19221710.205078125,-18428339.0045166,-17721672.05810547,-20447303.771972656,-11576975.82244873,-10921601.295471191
0.33,-34249080.657958984,-31629255.294799805,51720245.361328125,-14992213.249206543,-9080374.717712402,-60718772.888183594,-50380329.13208008,-32782810.21118164,-10540584.564208984,-6308699.607849121,-8400830.268859863,-18311101.91345215,-17543916.702270508,-2063393.8312530518,-60575035.095214844,-40470512.39013672,-47740325.927734375,-772465.4078483582,-5475796.222686768,-3688143.9685821533,-1380755.6629180908,1365481.8534851074,4707330.703735352,-27871208.19091797,-27738164.9017334,-13046957.969665527,10088848.114013672,2238505.3634643555,7910265.922546387,-7627916.33605957,-6625911.235809326,-13423848.152160645,-24426786.422729492,-25984663.009643555,-24429361.34338379,-2453706.2644958496,-118234.22461748123,-5553692.34085083,-8948569.297790527,-11989074.70703125,-11399783.13446045,-23135238.647460938,-23340913.772583008,-22404209.13696289,-9833934.783935547,-418483.04867744446,-8596632.00378418,-9497934.341430664,-10921077.728271484,-22396514.892578125,-27248853.68347168,-30787115.0970459,-17363746.643066406,-2197221.040725708,-17430534.36279297,-15725964.546203613,-18351633.071899414,-17512794.494628906,-16686729.431152344,-20596870.42236328,-11380167.961120605,-10201660.15625
0.335,-33847599.029541016,-29331726.07421875,53243572.23510742,-14145366.668701172,-7427084.445953369,-58565307.6171875,-49033748.626708984,-30834451.67541504,-8825188.636779785,-3844735.1455688477,-6522408.008575439,-16766344.07043457,-16153854.370117188,-1045316.3385391235,-58442859.6496582,-38321647.64404297,-46110214.23339844,757341.5637016296,-3672059.7743988037,-2063034.5344543457,8119.2441284656525,2014175.6534576416,5716006.755828857,-26676933.28857422,-25947610.85510254,-11493997.573852539,10386344.909667969,4608200.550079346,8944422.721862793,-6962548.732757568,-5605455.39855957,-12149609.565734863,-23337503.43322754,-24370321.27380371,-23009960.174560547,-1784883.6183547974,-272063.85135650635,-3967111.349105835,-8619496.34552002,-11109271.049499512,-11082261.085510254,-22037204.74243164,-22144180.297851562,-20863649.368286133,-10071984.29107666,-563778.0427932739,-9270188.331604004,-9235004.425048828,-10746845.245361328,-21146202.087402344,-26869506.8359375,-30733259.201049805,-17294786.45324707,-2334184.408187866,-18694578.170776367,-15833074.569702148,-17918594.360351562,-17609632.49206543,-16718349.45678711,-21303695.678710938,-10898725.509643555,-10229590.41595459
0.34,-45895343.78051758,-37025737.76245117,45811317.443847656,-20233503.341674805,-11239238.739013672,-60860755.920410156,-52645271.30126953,-34268077.8503418,-11490017.890930176,-4964378.356933594,-7815835.952758789,-19427026.748657227,-18966308.59375,-1935229.1822433472,-60833271.02661133,-40563522.33886719,-47617057.80029297,-395768.2251930237,-3860857.0098876953,-2299453.2585144043,-643036.1270904541,382343.3518409729,4472346.305847168,-28794042.587280273,-27163074.493408203,-12420157.432556152,8837209.701538086,6100986.957550049,8785790.44342041,-7415276.527404785,-6288101.1962890625,-13351186.752319336,-24373088.836669922,-24787031.173706055,-23993560.791015625,-2379594.8028564453,-434339.9703502655,-2990243.911743164,-9121844.291687012,-10556950.569152832,-11466649.055480957,-22396175.384521484,-22550918.579101562,-21752880.096435547,-10335501.670837402,-739586.353302002,-9633326.530456543,-9283571.243286133,-10756907.46307373,-20017253.875732422,-26816574.096679688,-30757520.67565918,-17901174.545288086,-2320634.8419189453,-19812978.744506836,-15789239.883422852,-17608139.038085938,-18262163.162231445,-17486595.153808594,-21328895.568847656,-10054668.426513672,-10552686.69128418
0.345,-46356460.57128906,-35806983.947753906,48834411.62109375,-21719541.549682617,-9107967.376708984,-60562541.96166992,-53069904.32739258,-36139736.17553711,-12833645.820617676,-5315806.865692139,-6768874.645233154,-16821620.94116211,-16349470.138549805,3958116.054534912,-60535015.10620117,-41825298.30932617,-48824161.529541016,-1042158.7228775024,-3544265.5086517334,-1315772.7718353271,1062220.3350067139,3272827.625274658,8557014.465332031,-30097696.30432129,-28659803.39050293,-14177673.33984375,7839245.796203613,7224935.531616211,9273283.958435059,-6341073.989868164,-4105460.1669311523,-11672413.82598877,-25664953.231811523,-26295759.201049805,-26416551.58996582,-3312329.2922973633,-308405.2503108978,-2808729.410171509,-8592474.937438965,-9087356.567382812,-9992966.651916504,-24108442.306518555,-24230770.111083984,-24168737.411499023,-11043391.227722168,-717856.7051887512,-9177523.612976074,-9099091.529846191,-10416150.093078613,-19070856.09436035,-28136987.686157227,-32003627.77709961,-19403158.18786621,-2188338.5181427,-20610898.971557617,-15550993.919372559,-17715364.456176758,-19687599.182128906,-19009851.455688477,-21295185.089111328,-9956393.241882324,-11681727.409362793
0.35,-9335622.787475586,-2048664.8082733154,84859474.1821289,-4849549.293518066,12090291.023254395,-50078277.587890625,-41217723.84643555,-27923263.549804688,-5352871.894836426,1778869.867324829,2996797.0848083496,-384515.4047012329,161291.76318645477,22497495.651245117,-50021732.330322266,-35977672.5769043,-44945701.599121094,2703943.967819214,326111.8233203888,3910482.64503479,8732380.867004395,14667183.876037598,21586460.11352539,-27120010.375976562,-26869245.529174805,-13548061.37084961,10114598.274230957,8943073.272705078,12102042.198181152,-2398904.323577881,2735153.913497925,-4719707.489013672,-25889240.264892578,-26778985.97717285,-27175678.253173828,-3234354.019165039,24652.65989303589,-2420579.9102783203,-6478065.967559814,-6915349.48348999,-7197595.119476318,-26484319.68688965,-26358371.73461914,-25789838.790893555,-12214838.981628418,-505484.58099365234,-8473788.261413574,-9175395.011901855,-10470363.61694336,-19661710.739135742,-31780382.15637207,-35265224.45678711,-22729568.481445312,-2149330.8544158936,-22340517.044067383,-16611024.856567383,-19405015.94543457,-23007984.161376953,-22224338.53149414,-23680809.020996094,-12338591.575622559,-15521818.161010742
0.355,54330074.310302734,57383518.21899414,145202545.16601562,26027042.388916016,46755676.26953125,-32473335.26611328,-20144090.65246582,-11980069.160461426,9210266.11328125,15118126.86920166,18807588.577270508,23838670.73059082,24319910.049438477,46370807.64770508,-32552280.42602539,-24805858.612060547,-36679626.46484375,9750113.487243652,6658714.771270752,11668030.738830566,19397886.276245117,29008316.040039062,36791221.618652344,-21678464.889526367,-22363729.47692871,-10205721.855163574,14759490.966796875,10887947.082519531,16305305.480957031,2380526.065826416,9973438.262939453,2921082.2582244873,-25842155.45654297,-25798513.412475586,-25386590.9576416,-2210029.8404693604,228433.17687511444,-1098044.8722839355,-4089031.219482422,-5442757.129669189,-6099671.363830566,-28747234.344482422,-28320997.23815918,-25894496.91772461,-13576972.007751465,-312230.8552265167,-8393385.887145996,-9945975.303649902,-11445154.190063477,-22286491.39404297,-36287792.20581055,-39073570.251464844,-27312496.185302734,-2269843.339920044,-25074701.3092041,-19478128.43322754,-22584074.020385742,-27760135.650634766,-26788761.138916016,-28938955.307006836,-17011457.443237305,-22063396.453857422
0.36,100638420.10498047,103922943.11523438,190412139.89257812,49299263.00048828,72067680.35888672,-20033195.49560547,-4158701.4198303223,-301514.02950286865,20395092.010498047,25730527.877807617,30558902.740478516,39662902.83203125,39932952.880859375,60812667.84667969,-20382499.69482422,-16907150.268554688,-30112319.946289062,14995430.946350098,11424587.24975586,17296846.389770508,26288005.828857422,36667785.64453125,44042533.87451172,-18898685.455322266,-19633489.60876465,-7627288.341522217,17881505.966186523,12337488.174438477,19436574.935913086,5050079.822540283,12475587.844848633,5155840.873718262,-27171932.220458984,-25341190.338134766,-23882659.912109375,-1586907.7444076538,165927.9465675354,455793.8575744629,-2940537.929534912,-5567409.515380859,-8163218.4982299805,-30611619.94934082,-30093826.293945312,-26274038.314819336,-15083156.58569336,-287645.161151886,-9093602.180480957,-11269309.043884277,-12975095.748901367,-25559267.044067383,-38994750.9765625,-41277812.95776367,-30891445.15991211,-2429070.234298706,-27254489.89868164,-22586639.404296875,-25608341.217041016,-31519664.764404297,-30517635.345458984,-34161628.72314453,-21634805.67932129,-28222755.432128906
0.365,98446846.00830078,106352615.35644531,190043991.0888672,49214485.16845703,71779106.14013672,-21322753.90625,-4038556.0989379883,-756130.7549476624,20981224.060058594,27294750.213623047,31775094.985961914,38223857.87963867,38338420.86791992,58462413.7878418,-21790355.682373047,-17933820.724487305,-29523836.135864258,15611502.647399902,12734188.079833984,18592578.887939453,26286359.786987305,34268207.55004883,40504852.294921875,-21381263.732910156,-21447263.717651367,-8547681.80847168,17474128.72314453,13781462.669372559,20447103.50036621,4990805.149078369,10201056.480407715,1302631.139755249,-30027782.440185547,-26891294.479370117,-25132200.241088867,-1977301.2399673462,45754.846185445786,862419.605255127,-3314077.615737915,-6870018.005371094,-11624927.520751953,-32053863.525390625,-31717777.252197266,-28225791.931152344,-16639730.453491211,-367256.85000419617,-10105901.718139648,-12863998.413085938,-14578369.140625,-27815334.32006836,-39232444.763183594,-41683601.37939453,-31972869.873046875,-2535277.1282196045,-27916435.24169922,-24155096.05407715,-27233709.33532715,-32548225.40283203,-31702518.463134766,-36408954.62036133,-24083366.39404297,-30909982.681274414
0.37,60175720.21484375,71432266.23535156,152478561.4013672,31550476.07421875,51843109.130859375,-32647174.835205078,-16469594.955444336,-9258879.661560059,14243795.394897461,22269184.112548828,25215305.32836914,25676002.502441406,25849260.330200195,45054935.455322266,-32929210.662841797,-24668764.114379883,-32833587.646484375,13790611.267089844,12280077.934265137,17257757.18688965,22183824.53918457,26770290.37475586,31960660.934448242,-26285917.282104492,-25187713.623046875,-11166345.596313477,15744160.652160645,15828098.29711914,20212644.577026367,3757325.4108428955,7064854.145050049,-3876811.742782593,-32206752.77709961,-28719320.29724121,-27510824.20349121,-2415413.3796691895,97776.10749006271,-287649.7507095337,-4423937.3207092285,-8195050.239562988,-13324710.845947266,-32326091.766357422,-32282901.763916016,-29991840.362548828,-17606918.334960938,-389340.49010276794,-11075057.983398438,-14166818.618774414,-15753738.403320312,-28143186.569213867,-38104000.091552734,-41158588.40942383,-30708053.588867188,-2577999.5918273926,-27475490.57006836,-23607637.405395508,-27109497.0703125,-30990976.333618164,-30321029.663085938,-35349163.05541992,-23610652.923583984,-29379499.435424805
0.375,21070873.260498047,30302228.927612305,110005699.15771484,13187317.848205566,29872453.689575195,-43605934.143066406,-29725494.384765625,-17008478.16467285,7789321.8994140625,16573642.73071289,17242799.758911133,13176864.624023438,13553577.423095703,31000543.59436035,-43616184.23461914,-29975332.260131836,-35441703.79638672,12706627.84576416,11783695.220947266,15357373.237609863,17848066.329956055,20217229.84313965,25120641.708374023,-28661394.119262695,-26341285.705566406,-11736956.596374512,15624791.145324707,17301465.98815918,19590078.353881836,2425589.7998809814,5337297.439575195,-5991728.782653809,-31234542.846679688,-27882478.713989258,-27762212.7532959,-1943983.9124679565,258088.20128440857,-1961241.7221069336,-5606034.755706787,-8930246.353149414,-11695849.418640137,-30336679.458618164,-30498172.760009766,-29020923.614501953,-17308805.465698242,-316579.04386520386,-11940042.495727539,-14359096.52709961,-15808744.430541992,-26222181.32019043,-35843978.88183594,-39349815.368652344,-27556045.532226562,-2521617.1741485596,-26360506.057739258,-21275138.85498047,-24966377.25830078,-27572988.510131836,-26968448.638916016,-32248813.62915039,-20383750.915527344,-24667270.66040039
0.38,-821221.4708328247,3637607.3360443115,83115356.4453125,2078526.496887207,15265232.08618164,-49145801.54418945,-37247303.0090332,-21505596.160888672,3774328.9470672607,11867441.177368164,10362645.149230957,4486790.180206299,5002011.775970459,20861164.093017578,-49086315.1550293,-31803226.470947266,-36629882.8125,11984481.811523438,10390924.453735352,12637454.03289795,13708346.366882324,15362598.419189453,21016027.450561523,-27618345.260620117,-24826822.28088379,-10221846.580505371,16581138.610839844,16385644.912719727,18299112.31994629,389412.13488578796,3376978.874206543,-5868144.0353393555,-28022043.228149414,-24995067.596435547,-26217464.447021484,-1158215.9996032715,276426.8219470978,-2702540.874481201,-7076067.924499512,-9934205.055236816,-8866797.44720459,-27098194.122314453,-27307670.59326172,-26316768.646240234,-16098985.67199707,-285837.1436595917,-12468353.271484375,-13775072.09777832,-15095398.902893066,-23374752.044677734,-32574512.481689453,-36214992.52319336,-23595325.469970703,-2370640.277862549,-25014879.22668457,-18628242.49267578,-21825756.072998047,-23616254.806518555,-22964700.69885254,-28943811.416625977,-16248853.68347168,-19410497.665405273
0.385,-12600306.510925293,-9829380.03540039,69300041.19873047,-5983347.8927612305,5588563.919067383,-52816867.82836914,-41855842.59033203,-26473588.943481445,-1077021.837234497,6253689.765930176,3693292.3793792725,-3301058.530807495,-2841739.1777038574,13063130.378723145,-52868175.5065918,-34186859.130859375,-39284107.20825195,9181917.190551758,6875925.540924072,8349632.263183594,8296942.710876465,9569541.931152344,16465417.861938477,-27516761.779785156,-25071125.030517578,-10527571.678161621,15690649.98626709,13777585.02960205,16104354.858398438,-2984145.402908325,-906984.9252700806,-7988654.613494873,-26998439.78881836,-24271871.56677246,-26508901.596069336,-1351174.8313903809,73509.87941026688,-1999824.2855072021,-9250032.424926758,-12501224.517822266,-9246648.788452148,-26014980.31616211,-26202224.731445312,-25786977.767944336,-15277788.162231445,-411915.8089160919,-12243472.0993042,-14181305.885314941,-15423850.059509277,-22827367.782592773,-30862928.39050293,-34592235.56518555,-21655612.94555664,-2279629.4689178467,-24868928.909301758,-18218805.31311035,-20924711.227416992,-21912858.963012695,-21161174.774169922,-28007719.039916992,-14970152.854919434,-17577836.990356445
0.39,-23364871.978759766,-17593582.153320312,60136749.267578125,-14768899.917602539,-2222567.7967071533,-58744571.685791016,-47735595.703125,-33363693.237304688,-7895109.176635742,44821.616262197495,-2147238.7313842773,-10896034.240722656,-10632500.648498535,6822681.427001953,-58861598.96850586,-39737277.98461914,-44178218.841552734,4347625.732421875,2531286.2396240234,3931767.702102661,2463465.929031372,2898222.2080230713,10487492.561340332,-31738767.623901367,-29328907.012939453,-14639540.672302246,12067591.667175293,12435084.342956543,13989677.429199219,-6426222.801208496,-6038099.28894043,-13934352.87475586,-30638023.376464844,-27551549.911499023,-29871440.887451172,-2762844.5625305176,-131124.42195415497,-836473.6437797546,-11267974.853515625,-15687079.429626465,-14013401.985168457,-28539308.547973633,-28766036.987304688,-28599630.35583496,-15694550.514221191,-578614.2349243164,-11166262.62664795,-15733730.31616211,-17065135.955810547,-25694011.688232422,-33087528.228759766,-37015792.84667969,-23583379.7454834,-2345973.491668701,-26572673.797607422,-20663787.841796875,-23821165.084838867,-24062131.881713867,-23230564.11743164,-30537420.27282715,-18190212.24975586,-20463214.874267578
0.395,-30604852.6763916,-21305335.998535156,54457626.34277344,-20997760.772705078,-6248396.396636963,-64881370.544433594,-53507579.8034668,-38492706.298828125,-13133875.846862793,-3721039.056777954,-4828903.1982421875,-14727993.01147461,-14644667.625427246,4386140.823364258,-64968811.03515625,-45065601.34887695,-48158378.60107422,362191.67709350586,-300734.13252830505,1775888.442993164,-651284.6946716309,-827351.2721061707,6707653.999328613,-37263202.66723633,-33959739.685058594,-19343711.853027344,8131308.555603027,13250018.119812012,13076849.937438965,-7703115.940093994,-8117712.97454834,-19016143.798828125,-35154716.49169922,-30953762.05444336,-32777416.229248047,-4516169.07119751,-101519.34623718262,-932507.0977210999,-11207789.421081543,-16122795.104980469,-17986722.946166992,-30976615.90576172,-31332632.064819336,-30890584.94567871,-16754756.927490234,-527127.8619766235,-9565918.922424316,-15148231.506347656,-16683078.76586914,-27598331.451416016,-36168121.337890625,-40305843.353271484,-26193851.470947266,-2352898.359298706,-27392168.045043945,-22133245.46813965,-26310199.737548828,-26699872.970581055,-25863214.49279785,-32959983.825683594,-21441423.416137695,-23059518.814086914
0.4,-31226264.95361328,-21819400.787353516,52864627.838134766,-21658912.658691406,-5796418.190002441,-66852569.580078125,-55653537.75024414,-39382080.078125,-14287113.189697266,-4374179.363250732,-4634141.92199707,-13487217.903137207,-13453779.220581055,5969692.707061768,-66974716.18652344,-45876792.907714844,-49034103.39355469,-1234021.9020843506,-1690191.7457580566,1808621.883392334,42454.36564087868,589209.3777656555,8393136.978149414,-38407745.361328125,-34500267.028808594,-20649456.024169922,6308722.972869873,13154220.581054688,12848265.647888184,-6554049.968719482,-5836040.019989014,-17584897.994995117,-34753391.26586914,-30054763.793945312,-31894216.537475586,-5893304.824829102,78826.06983184814,-3005716.08543396,-8690093.040466309,-12320086.479187012,-15326157.569885254,-28713119.506835938,-29185489.654541016,-28992565.155029297,-17110424.041748047,-209772.10998535156,-7905170.440673828,-9976436.614990234,-11552034.378051758,-23544897.079467773,-33890781.40258789,-38177158.35571289,-23979219.436645508,-2027428.8654327393,-23770624.1607666,-18354034.423828125,-22783536.911010742,-24356840.133666992,-23566576.00402832,-29806772.232055664,-18376518.24951172,-19020408.630371094
0.405,-32028274.536132812,-24490219.116210938,50913173.67553711,-20765048.98071289,-5733511.447906494,-65611038.20800781,-55324356.07910156,-39293437.95776367,-14025821.685791016,-5211281.299591064,-5278769.969940186,-11539752.006530762,-11426239.967346191,7153998.851776123,-65872268.67675781,-43831474.30419922,-49132556.9152832,-2163183.9275360107,-3766061.544418335,1347962.3794555664,1561871.4094161987,3912955.7609558105,13066498.756408691,-35137527.46582031,-32204284.66796875,-19296175.003051758,6271636.009216309,9435431.480407715,11697874.069213867,-5498740.673065186,-2583611.7267608643,-10971950.53100586,-29780052.185058594,-26435182.571411133,-29029941.55883789,-6769184.589385986,97209.23006534576,-5720014.0953063965,-6433096.408843994,-7999026.775360107,-7979878.902435303,-23050889.96887207,-23532516.479492188,-24880167.00744629,-16192913.055419922,66487.08134889603,-6777839.660644531,-3838842.6303863525,-5151281.356811523,-15977282.524108887,-26029911.041259766,-30452032.0892334,-17042253.494262695,-1544503.8080215454,-17187692.642211914,-11344486.236572266,-14921116.828918457,-17283472.061157227,-16518835.067749023,-21418382.64465332,-9741144.180297852,-9947257.041931152
0.41,-40312793.73168945,-32442771.911621094,45022834.77783203,-23814085.006713867,-10055780.410766602,-66490493.77441406,-57050434.11254883,-42271087.646484375,-15978529.930114746,-8352240.562438965,-8723877.906799316,-13002881.050109863,-12771697.044372559,4683039.665222168,-66807952.880859375,-44315715.78979492,-51474178.314208984,-4080028.0570983887,-6844598.293304443,-986729.621887207,754300.7731437683,4499013.423919678,15159113.883972168,-33367565.155029297,-32086872.100830078,-19048393.24951172,6208284.854888916,4435738.086700439,9477581.024169922,-6687721.252441406,-2203778.7437438965,-6526632.785797119,-26720214.84375,-25474695.205688477,-28561035.15625,-7048048.01940918,-150630.98073005676,-6883114.814758301,-7400079.250335693,-8178012.847900391,-3986783.504486084,-20157394.409179688,-20581018.447875977,-23625703.811645508,-14870437.622070312,-19460.732117295265,-6905703.544616699,-3261765.480041504,-4229510.78414917,-12852183.34197998,-20132886.88659668,-24791254.0435791,-12161557.1975708,-1407169.9380874634,-13792211.532592773,-8108735.084533691,-10880530.35736084,-12320964.813232422,-11579989.433288574,-15141791.343688965,-3744415.283203125,-4659474.3728637695
0.415,-50564331.0546875,-39577823.638916016,39918979.64477539,-28837858.200073242,-14685870.170593262,-70633979.79736328,-61095893.85986328,-46276821.13647461,-18819114.685058594,-10802975.65460205,-11463476.181030273,-15238552.09350586,-14953079.223632812,2240011.45362854,-70809669.4946289,-48039886.474609375,-54441284.1796875,-5403171.062469482,-8183473.587036133,-2799862.3847961426,-1061364.6507263184,2893887.0429992676,13840853.691101074,-35978954.31518555,-35200901.03149414,-20666263.580322266,5536750.793457031,3283679.723739624,8370395.660400391,-8650494.575500488,-3765862.226486206,-7885441.303253174,-29046285.62927246,-28365226.74560547,-31157840.728759766,-6629867.5537109375,-378938.2874965668,-5830756.664276123,-10558625.221252441,-12126950.26397705,-6499783.992767334,-22656101.22680664,-23057729.721069336,-26407287.59765625,-14521082.878112793,-384417.47426986694,-8350742.340087891,-8733240.127563477,-9553265.571594238,-16612426.7578125,-21451887.130737305,-26654739.379882812,-13788453.102111816,-1735456.943511963,-16363786.697387695,-11297304.153442383,-14207271.575927734,-13861292.839050293,-13249667.167663574,-16176216.125488281,-5522841.453552246,-7472648.143768311
0.42,-49926254.27246094,-36790084.83886719,43380802.154541016,-28461067.19970703,-11949744.22454834,-72165069.58007812,-61863346.099853516,-45452114.10522461,-18046699.52392578,-8362136.8408203125,-8679143.905639648,-12174364.08996582,-11926751.136779785,5938301.563262939,-72161994.93408203,-49338703.15551758,-53687870.025634766,-3552073.4786987305,-5728789.806365967,-858285.8443260193,289921.5817451477,4090430.25970459,14269548.416137695,-38098556.51855469,-36913696.2890625,-21026824.951171875,5206002.235412598,7230709.552764893,10338167.190551758,-7921039.581298828,-2965766.9067382812,-10322173.118591309,-32264968.872070312,-30483934.40246582,-33066982.26928711,-5929911.136627197,-291045.75514793396,-4118128.776550293,-11684559.82208252,-13793447.494506836,-9593817.710876465,-26097198.486328125,-26519050.59814453,-29209115.982055664,-15516645.431518555,-647037.0292663574,-9886414.527893066,-13247820.854187012,-14096046.447753906,-20588293.075561523,-25712278.366088867,-31872253.41796875,-18001682.28149414,-2054865.1218414307,-20180959.701538086,-15399435.043334961,-18821739.196777344,-17948862.075805664,-17547004.69970703,-20701757.431030273,-10553337.097167969,-12537244.79675293
0.425,-36454288.482666016,-24368566.513061523,54633914.947509766,-20926233.291625977,-1859783.8878631592,-66649772.64404297,-56187934.87548828,-39033016.204833984,-13192339.897155762,-2247032.1655273438,-1426220.0593948364,-3562113.5234832764,-3394199.1329193115,14824614.524841309,-66631484.98535156,-44545326.232910156,-49015346.52709961,536433.3987236023,-1619749.7844696045,4132180.690765381,5606276.512145996,9759988.784790039,19566919.326782227,-34642444.6105957,-34064029.693603516,-18639516.830444336,5820379.734039307,11867317.199707031,14263980.865478516,-3971144.199371338,1325768.1131362915,-8197218.894958496,-30869405.74645996,-28615953.44543457,-31783075.3326416,-5646139.621734619,-12842.308729887009,-3582135.9157562256,-8997607.231140137,-10241415.977478027,-7543574.810028076,-25693946.838378906,-26096622.467041016,-28787527.084350586,-16813926.696777344,-641695.3206062317,-10138401.03149414,-11648666.381835938,-12524101.257324219,-19049541.473388672,-25999292.373657227,-33062915.802001953,-18686651.2298584,-1997915.9832000732,-19709146.49963379,-14749778.747558594,-18171993.255615234,-18568426.13220215,-18228271.484375,-21702262.87841797,-11655343.055725098,-12919527.053833008
0.43,-25132141.11328125,-14230683.326721191,62831909.1796875,-14569737.434387207,5592542.64831543,-59428073.88305664,-50101753.23486328,-34180278.77807617,-9878204.345703125,1116349.9355316162,3180739.8796081543,3122385.5018615723,3227918.863296509,20960649.490356445,-59502914.42871094,-38649425.5065918,-46014457.70263672,2449998.8555908203,-284825.5932331085,7512380.123138428,10254094.123840332,14929167.747497559,25569805.145263672,-29255519.86694336,-30416732.788085938,-16735267.639160156,6541718.95980835,12598554.611206055,16833375.930786133,-490322.0534324646,4990088.939666748,-3230880.4988861084,-26866334.915161133,-25960689.544677734,-29710960.388183594,-5948459.625244141,66395.3647017479,-4326658.725738525,-5701725.482940674,-5970191.478729248,-3185502.767562866,-23127101.89819336,-23472694.396972656,-26948547.36328125,-17215244.29321289,-585714.3402099609,-9443483.352661133,-7373142.242431641,-8271223.068237305,-15386374.473571777,-22869085.31188965,-29898992.53845215,-16154113.76953125,-1838134.4079971313,-16277971.267700195,-11323391.914367676,-14459968.566894531,-16151723.861694336,-15602602.005004883,-18596340.17944336,-8635391.235351562,-10043950.080871582
0.435,-30989278.79333496,-17211147.30834961,59464298.248291016,-17859319.68688965,2509508.6097717285,-60549339.294433594,-52590141.29638672,-37371570.5871582,-12667969.703674316,-1897488.7132644653,674913.8832092285,2333441.4958953857,2387843.8472747803,20577499.389648438,-60632564.544677734,-39680511.474609375,-49091407.775878906,-228149.78659152985,-3010275.6023406982,6329075.813293457,10112918.853759766,15017751.693725586,27303485.870361328,-30418237.686157227,-31920097.35107422,-18734432.220458984,6200731.7543029785,10030456.54296875,16551731.10961914,-457571.23827934265,4771692.752838135,-925696.1941719055,-26931604.385375977,-27368701.934814453,-30724199.295043945,-6437097.072601318,-155335.24751663208,-5043167.591094971,-5277678.966522217,-6225376.129150391,-2480749.8455047607,-23426301.956176758,-23810277.938842773,-27372604.370117188,-16865531.92138672,-663266.0627365112,-9456101.417541504,-6665503.025054932,-7697448.253631592,-15801441.192626953,-22240409.85107422,-28070873.260498047,-15277024.269104004,-1988621.5925216675,-15252162.93334961,-10665524.48272705,-14001633.644104004,-15508179.664611816,-14715846.061706543,-16598363.876342773,-6618483.543395996,-9380246.16241455
0.44,-48829971.31347656,-29129638.671875,50130916.595458984,-27223686.21826172,-5374465.465545654,-71553451.53808594,-63083621.978759766,-45347885.13183594,-18212779.998779297,-6744674.205780029,-4224780.559539795,-1234646.6779708862,-1261883.1396102905,20069919.58618164,-71558853.14941406,-47807964.32495117,-55236095.4284668,-4321232.318878174,-6137552.261352539,3380661.964416504,7508769.512176514,13128358.840942383,27371469.497680664,-39386177.06298828,-38260272.97973633,-22817932.12890625,4915302.276611328,8423778.533935547,15673941.612243652,-1775215.8641815186,3561279.058456421,-1388416.1710739136,-32514400.482177734,-32088253.021240234,-34762954.71191406,-6860373.020172119,-358417.8388118744,-4741485.595703125,-6307154.178619385,-9183773.040771484,-4685306.072235107,-27218164.443969727,-27820039.749145508,-30222003.936767578,-17005313.873291016,-704509.3774795532,-10529150.96282959,-9350575.44708252,-10591806.411743164,-19251733.779907227,-25527812.957763672,-29994630.813598633,-17374912.26196289,-2272238.254547119,-17623365.40222168,-13089172.36328125,-17038642.88330078,-17729701.99584961,-16971158.981323242,-18271604.537963867,-7537631.988525391,-11064008.712768555
0.445,-56970993.04199219,-33646133.42285156,49446685.791015625,-30237127.30407715,-4851358.890533447,-82095680.2368164,-70487480.16357422,-48618999.48120117,-19085403.442382812,-6178517.3416137695,-3346016.6454315186,1299263.834953308,1178929.5673370361,26797050.47607422,-82130767.82226562,-54452690.12451172,-57570960.998535156,-4869614.601135254,-5762776.3748168945,3508894.443511963,7957513.809204102,15720589.637756348,32084457.397460938,-47522079.46777344,-42853977.20336914,-24049522.399902344,3937731.7428588867,9903659.82055664,17015562.057495117,-373720.7353115082,6190547.943115234,333314.7168159485,-37636573.791503906,-34654674.5300293,-37857139.587402344,-7235198.497772217,-276900.7086753845,-3673783.06388855,-4856528.759002686,-8932818.412780762,-4010316.3719177246,-29952344.89440918,-30829353.33251953,-32053085.327148438,-18035749.435424805,-486651.80802345276,-10833135.604858398,-9968078.61328125,-11316763.877868652,-19644317.626953125,-27873731.61315918,-31982955.932617188,-18865343.09387207,-2164883.3751678467,-19054862.97607422,-13914177.894592285,-18090332.03125,-19132457.733154297,-18598373.413085938,-20677423.47717285,-8488703.727722168,-10855251.31225586
0.45,-45341976.165771484,-23115657.806396484,61389587.40234375,-22820976.25732422,5826816.082000732,-82703231.81152344,-67632331.84814453,-44403724.670410156,-14600986.48071289,-801162.1236801147,2823202.610015869,9160883.903503418,9026352.882385254,36980102.5390625,-82931922.91259766,-53621726.989746094,-54712280.2734375,-2164578.914642334,-3434810.6384277344,6298727.989196777,11444329.261779785,21986223.220825195,40201145.17211914,-47511310.57739258,-41711891.174316406,-21516525.268554688,3657364.3684387207,11886903.762817383,19539319.99206543,3151023.3879089355,11397141.456604004,5139542.579650879,-37293327.33154297,-32428661.346435547,-37392688.7512207,-7463071.823120117,-59264.250099658966,-2929375.410079956,-1055428.7433624268,-4697947.025299072,615307.867527008,-28518566.131591797,-29505950.927734375,-30560558.319091797,-18540241.241455078,-165437.08741664886,-8993865.013122559,-6521277.904510498,-7805242.538452148,-15742652.893066406,-26064586.639404297,-30752079.010009766,-17323287.963867188,-1632296.2045669556,-16839096.069335938,-11221261.024475098,-14955834.38873291,-17474597.930908203,-16968950.271606445,-20723508.834838867,-7528170.585632324,-8030276.298522949
0.455,-32555095.672607422,-12279318.809509277,69947097.77832031,-17284894.943237305,11370848.655700684,-77335647.58300781,-62082698.822021484,-41423748.01635742,-13305157.661437988,161172.64330387115,4034594.5358276367,10795419.692993164,10766611.099243164,39147453.30810547,-77708106.9946289,-50147571.5637207,-53088859.55810547,-2142754.316329956,-4741322.5173950195,5874519.348144531,11432797.4319458,23448806.762695312,42587150.57373047,-43006015.77758789,-38961540.22216797,-20146945.95336914,2577225.685119629,10612582.206726074,19223520.278930664,3576818.2277679443,12549429.893493652,7246976.852416992,-34144622.802734375,-29156538.009643555,-35503765.10620117,-7523258.209228516,-10022.511705756187,-3480622.5299835205,387299.71647262573,-2196166.753768921,3694370.0313568115,-25323638.916015625,-26178440.09399414,-27541456.22253418,-17011442.184448242,-109351.15814208984,-6480444.431304932,-3103543.758392334,-4251343.250274658,-12670104.026794434,-22987077.713012695,-28066463.470458984,-14542566.299438477,-1225711.2264633179,-13418400.764465332,-8395355.224609375,-11574796.676635742,-14768331.527709961,-13989354.133605957,-19018955.23071289,-6183063.03024292,-6242662.9066467285
0.46,-43009346.00830078,-20612646.102905273,58852039.3371582,-26311367.03491211,-257837.71276474,-77910690.30761719,-66246612.548828125,-48053394.31762695,-21254171.37145996,-8396183.967590332,-5264734.745025635,388191.3125514984,494127.39276885986,30193771.362304688,-78186119.07958984,-52884464.263916016,-58016941.07055664,-8090636.253356934,-11179236.41204834,-264464.94460105896,4770721.912384033,16283143.997192383,35484054.56542969,-43393238.06762695,-41269725.79956055,-24012987.13684082,-527836.5612030029,6343231.678009033,15005592.346191406,-1157225.0127792358,7165781.497955322,2874184.6084594727,-34694969.177246094,-30118234.634399414,-36207294.46411133,-7803201.198577881,-161749.66096878052,-5177573.680877686,-2862974.166870117,-5093536.376953125,1464721.6796875,-24982717.514038086,-25584802.627563477,-26724462.509155273,-14201575.27923584,-363310.3668689728,-5907452.583312988,-3321796.417236328,-4387879.848480225,-13911265.37322998,-23106924.057006836,-27648488.998413086,-13369173.049926758,-1310409.1882705688,-12199831.96258545,-8656143.188476562,-11732233.047485352,-13785701.751708984,-12781928.062438965,-17835968.017578125,-6027830.123901367,-7395625.114440918
0.465,-68219970.703125,-40266208.64868164,39906593.322753906,-41832721.71020508,-16616697.311401367,-86988006.59179688,-78309837.3413086,-58711051.94091797,-31019927.978515625,-17546249.389648438,-15000883.102416992,-10161520.004272461,-10015621.185302734,21829195.022583008,-87035629.27246094,-61633041.38183594,-65123001.09863281,-14343389.511108398,-16040077.209472656,-5492416.3818359375,-1426597.3567962646,8786082.26776123,27765281.677246094,-51142242.431640625,-48553283.69140625,-30057014.46533203,-3615409.1358184814,3809087.038040161,11675938.606262207,-5556307.315826416,1395901.4415740967,-3557768.1064605713,-41077896.11816406,-35607166.2902832,-39950641.63208008,-8344057.083129883,-293904.48331832886,-6359848.0224609375,-6555236.339569092,-9548150.062561035,-3431328.535079956,-29110696.79260254,-29480157.85217285,-29482543.9453125,-12605598.449707031,-571567.3565864563,-7451939.105987549,-5401690.0062561035,-6512001.991271973,-17475475.311279297,-27426866.53137207,-30760040.283203125,-15087482.452392578,-1631090.9986495972,-13491837.501525879,-11320799.827575684,-14864294.052124023,-15541538.23852539,-14652699.47052002,-18790721.893310547,-7033077.239990234,-10318237.3046875
0.47,-67563461.30371094,-35903236.389160156,47800296.783447266,-40089229.583740234,-11299706.45904541,-91973762.51220703,-81069252.01416016,-58296245.57495117,-28406011.5814209,-13138240.814208984,-9884545.32623291,-3607852.6973724365,-3520056.4861297607,27150096.893310547,-91924339.2944336,-65799522.399902344,-64561408.99658203,-11891092.300415039,-11632908.821105957,-1307413.935661316,2463972.0916748047,11759757.995605469,29835195.541381836,-58562633.5144043,-53321559.90600586,-31049509.048461914,-2452167.749404907,6881734.371185303,14576879.501342773,-2970090.15083313,2322958.23097229,-5645898.342132568,-48976253.509521484,-40621562.95776367,-42518539.42871094,-7985637.664794922,-265158.9512825012,-5186475.2769470215,-5075832.366943359,-9726510.047912598,-7086584.091186523,-35286769.86694336,-35443183.89892578,-33177307.12890625,-13341006.2789917,-480784.68441963196,-8597706.79473877,-5668099.403381348,-6966979.503631592,-20669843.673706055,-34143268.58520508,-36174568.17626953,-20176469.802856445,-1788196.8021392822,-15953129.768371582,-14538586.616516113,-19077598.571777344,-20448358.5357666,-19832473.754882812,-23178890.228271484,-9902160.64453125,-15271694.18334961
0.475,-17246675.491333008,12843394.27947998,97805877.68554688,-10960680.00793457,22338489.532470703,-79764396.66748047,-62858936.30981445,-40841361.99951172,-10307978.630065918,5860958.576202393,10355068.20678711,19712123.87084961,19743011.474609375,44135486.6027832,-79820648.19335938,-57109931.94580078,-53426567.07763672,151573.19605350494,397717.6547050476,10941908.836364746,15496055.603027344,24106811.5234375,39323204.040527344,-57130573.27270508,-49375267.028808594,-24157724.380493164,4277764.320373535,13679511.070251465,22447843.551635742,5407786.3693237305,8663422.584533691,-3930603.9810180664,-52580493.92700195,-40299049.377441406,-39843742.37060547,-5473540.306091309,-111741.52046442032,-1929689.884185791,930911.8390083313,-5849999.42779541,-9549437.522888184,-39576015.47241211,-39484245.30029297,-33658119.201660156,-14641119.956970215,-246786.08775138855,-7660097.599029541,-4021556.3774108887,-5558105.945587158,-23728712.08190918,-40792957.3059082,-41763134.00268555,-27969177.24609375,-1762676.477432251,-19083311.080932617,-18145389.556884766,-24026281.356811523,-28067499.1607666,-27526206.970214844,-31024545.669555664,-15948149.681091309,-23878538.131713867
0.48,53671520.2331543,78479347.2290039,158734802.24609375,26526569.366455078,58778373.71826172,-53321483.61206055,-33281116.485595703,-17835342.407226562,10122204.780578613,24391040.802001953,28826429.36706543,39694610.595703125,39716423.03466797,57022815.7043457,-53524333.95385742,-39623065.94848633,-39708141.3269043,12763628.005981445,10151337.623596191,20596611.02294922,26129003.524780273,33440074.920654297,43889450.07324219,-46627437.591552734,-38588806.15234375,-13940248.489379883,12494139.671325684,18619625.091552734,28418254.852294922,11513486.862182617,12565018.653869629,-4343579.7691345215,-49658897.399902344,-34408321.380615234,-32743671.417236328,-1472442.2693252563,119993.77608299255,694510.5195045471,5097878.932952881,-3581054.925918579,-12662714.004516602,-39243091.58325195,-38946788.7878418,-29283151.626586914,-14178360.939025879,-121139.295399189,-6137267.589569092,-3592991.352081299,-5216044.4259643555,-27162227.630615234,-44284198.76098633,-44761051.177978516,-34757034.30175781,-1741070.27053833,-22412223.81591797,-22076694.48852539,-29021770.477294922,-34867801.666259766,-34168926.23901367,-38699867.248535156,-23326715.46936035,-33615116.119384766
0.485,90893280.02929688,110155166.62597656,181706909.1796875,44443954.46777344,67940010.07080078,-29318309.783935547,-12766246.795654297,-5114974.021911621,18501377.10571289,28766530.990600586,31288545.608520508,39143875.12207031,39154006.95800781,53025028.228759766,-29574607.849121094,-24751756.66809082,-32532428.741455078,17761688.232421875,11403112.411499023,20571563.720703125,25755348.205566406,30601222.99194336,36631366.72973633,-34003463.74511719,-28087024.688720703,-6563664.91317749,16966253.28063965,19091306.686401367,28221141.815185547,10087580.680847168,9271377.563476562,-9667107.582092285,-42286968.23120117,-26657316.207885742,-25799512.86315918,1715739.369392395,423096.9846248627,303824.0969181061,3111217.260360718,-6587054.252624512,-16134607.315063477,-34305007.93457031,-34029144.287109375,-22430246.353149414,-12023434.63897705,-63189.87160921097,-6730547.904968262,-6297294.139862061,-7772896.766662598,-29491312.02697754,-41931251.525878906,-42842128.75366211,-35662513.732910156,-1706847.906112671,-24419334.411621094,-24630762.100219727,-31652339.935302734,-35876544.95239258,-35021907.806396484,-40770812.98828125,-27042856.216430664,-37829254.150390625
0.49,72752197.265625,87630119.32373047,151776535.0341797,35502483.36791992,47066013.33618164,-21114873.8861084,-10734088.897705078,-6468411.922454834,14036591.529846191,20931596.755981445,20794399.26147461,21295410.15625,21264509.201049805,33578960.41870117,-21370586.395263672,-19440803.52783203,-32522151.947021484,16214164.733886719,7906880.855560303,14620186.805725098,17218797.68371582,18443105.697631836,22450450.897216797,-25977237.701416016,-22890815.73486328,-3746025.800704956,16872167.587280273,17776298.52294922,24448684.692382812,3875533.103942871,1371943.5930252075,-17038225.173950195,-34571010.58959961,-20922628.40270996,-22339099.884033203,2670350.3131866455,715781.4502716064,-2481502.7713775635,-2727372.884750366,-12752471.923828125,-18568593.978881836,-27668910.98022461,-27661361.694335938,-17148759.841918945,-10285998.344421387,126893.7885761261,-9763188.362121582,-10716968.536376953,-11982789.993286133,-29744522.094726562,-34770919.79980469,-36886096.9543457,-30158950.805664062,-1509085.774421692,-24272237.77770996,-24393577.575683594,-30609582.901000977,-30420326.232910156,-29519464.49279785,-36048191.07055664,-24765678.40576172,-33639266.96777344
0.495,26098684.310913086,37420925.14038086,98422477.72216797,14759104.72869873,17400171.279907227,-27965679.168701172,-20174610.137939453,-14450197.219848633,5474657.5355529785,11422589.302062988,9010842.323303223,1291623.592376709,1254037.618637085,9807847.023010254,-28237697.60131836,-22202713.012695312,-34708976.74560547,13682027.816772461,5701359.748840332,9648396.492004395,8175568.580627441,5487729.072570801,9349804.878234863,-24464586.25793457,-22978065.490722656,-3683246.13571167,15121987.342834473,17671466.827392578,21585115.432739258,-1547226.1905670166,-6096004.009246826,-23139795.303344727,-29873748.779296875,-18672103.881835938,-21968225.479125977,2024530.4107666016,854992.8665161133,-4992018.699645996,-7327870.3689575195,-17728836.059570312,-20072456.35986328,-23080875.396728516,-23339607.23876953,-15531567.573547363,-10232876.777648926,418969.0351486206,-12702038.764953613,-14014813.423156738,-15203600.883483887,-29226552.963256836,-27801471.710205078,-31119981.76574707,-23289007.18688965,-1189625.62084198,-23235181.80847168,-22277400.970458984,-27738660.81237793,-23580869.674682617,-22674610.137939453,-29396728.515625,-19916448.59313965,-25824510.57434082
