time,Fp1,Fpz,Fp2,AF3,AF4,F7,F5,F3,F1,Fz,F2,F4,F6,F8,FT7,FC5,FC3,FC1,FCz,FC2,FC4,FC6,FT8,T7,C5,C3,C1,Cz,C2,C4,C6,T8,TP7,CP5,CP3,CP1,CPz,CP2,CP4,CP6,TP8,P7,P5,P3,P1,Pz,P2,P4,P6,P8,PO7,PO5,PO3,POz,PO4,PO6,PO8,CB1,O1,Oz,O2,CB2
0.0,2942703.96232605,4316976.070404053,3379258.871078491,1576124.906539917,2062049.388885498,552915.8711433411,618876.039981842,635223.388671875,1639074.8023986816,2127534.866333008,1945167.1838760376,1447461.2474441528,1436868.9060211182,263316.9889450073,-2007175.9223937988,-280651.5395641327,957598.7458229065,949853.777885437,1941881.6566467285,1934482.455253601,1305990.9343719482,1072117.805480957,272857.9342365265,-1633057.713508606,-146746.05429172516,293547.3024845123,882268.2499885559,1370473.2656478882,2644180.5362701416,716851.7112731934,578168.3325767517,237399.81651306152,-2015924.9305725098,-975017.6072120667,146158.50150585175,621245.6226348877,-42917.635291814804,-543844.7594642639,-245624.5720386505,-809652.0304679871,-832800.2691268921,-2626558.303833008,-1872003.5552978516,-1840759.27734375,-1297481.1792373657,-1941706.5382003784,-1319027.5430679321,-2023807.2872161865,-2025002.7179718018,-2044299.602508545,-3011298.656463623,-3003139.9726867676,-2851075.8876800537,-1980698.585510254,-2075477.8385162354,-2080089.0922546387,-2061218.023300171,-3658364.5343780518,-3267223.119735718,-2975319.8623657227,-2079622.745513916,-3854978.7998199463
0.005,2553127.2888183594,494004.5475959778,-148710.4296684265,-3218947.172164917,-2302024.8413085938,1146178.8415908813,961073.637008667,603920.3405380249,-3477057.695388794,-2336089.1342163086,-2315226.5548706055,-3158035.7551574707,-3279813.528060913,-10225563.049316406,-7444011.688232422,5379649.639129639,-650516.2119865417,-2307203.2928466797,-1717770.9341049194,-3351358.413696289,-4521881.580352783,-2424546.957015991,-10656537.055969238,12271840.09552002,2370211.124420166,7635977.268218994,637275.0997543335,-3453492.1646118164,843845.546245575,-841701.4479637146,-3619393.1102752686,-9859785.079956055,8902984.619140625,4663617.6109313965,7016112.327575684,1474449.3961334229,-763094.6636199951,177534.7739458084,-1277452.826499939,-6620365.619659424,-7506320.476531982,5169737.815856934,5653643.1312561035,6490188.5986328125,6373343.944549561,5923244.476318359,112449.42992925644,4625344.276428223,4664094.4480896,3859384.775161743,6859077.453613281,5840882.778167725,6100594.997406006,5976631.641387939,5316329.9560546875,6322861.194610596,4738199.234008789,-4293839.931488037,2255180.1204681396,8248994.827270508,4447044.372558594,-2182057.3806762695
0.01,3801059.7229003906,881793.6182022095,851852.7746200562,-3300216.1979675293,-2350165.1287078857,3014155.387878418,2591012.716293335,2162642.240524292,-4103572.8454589844,-1862599.1344451904,-2068550.5867004395,-2986945.629119873,-3158141.613006592,-13167576.789855957,-8628777.503967285,9255911.827087402,-349249.80998039246,-1913591.5040969849,-1147370.1000213623,-3480904.8175811768,-4563058.853149414,-2254554.9869537354,-13775256.156921387,18215990.06652832,3887456.4170837402,12519715.309143066,1726141.4527893066,-4887140.274047852,461131.66213035583,-291798.74062538147,-4301671.504974365,-12838489.532470703,13762504.577636719,7865137.100219727,11420515.060424805,3876472.7115631104,-1009465.9328460693,1257282.3762893677,-1211034.5363616943,-8818442.344665527,-10021854.400634766,7811068.058013916,9313685.417175293,10556385.99395752,9728460.311889648,8570655.822753906,565115.0345802307,7296432.971954346,7360004.901885986,6146044.731140137,10272209.167480469,8896332.740783691,9389182.090759277,8619107.246398926,8227309.226989746,9759264.945983887,7462162.494659424,-5500651.3595581055,4442945.48034668,12084657.669067383,7000525.951385498,-2926412.582397461
0.015,3851593.9712524414,1551148.6530303955,2792527.198791504,-778262.0787620544,-770038.4855270386,4511809.349060059,3944587.230682373,3775028.2287597656,-2873543.7393188477,152070.90973854065,-539340.8536911011,-584997.296333313,-675033.1521034241,-9954412.460327148,-5974988.4605407715,10511898.9944458,-472488.1052970886,-771561.0265731812,360008.8655948639,-1882509.1123580933,-1944820.1656341553,-85667.25999116898,-10442217.826843262,18120529.174804688,3661048.173904419,13078325.271606445,2371405.601501465,-4881854.057312012,-722684.0257644653,885981.8577766418,-2900205.135345459,-9925927.16217041,14349395.751953125,9140040.397644043,12701391.220092773,6123690.605163574,-931469.738483429,3352320.909500122,-93533.53828191757,-7234506.607055664,-8265122.413635254,8304646.4920043945,10557796.478271484,11823275.566101074,10390979.766845703,8658714.294433594,1432619.571685791,8661554.336547852,8642008.781433105,7466556.072235107,10758484.840393066,9626124.382019043,10206576.347351074,8659614.562988281,9404427.528381348,11014228.820800781,8789653.778076172,-3260314.2261505127,6918485.641479492,12875967.979431152,8308386.80267334,-1912537.4555587769
0.02,-968361.4373207092,-4023718.83392334,-1095034.8377227783,-1326441.5264129639,-3456240.8924102783,3362186.6703033447,2787755.012512207,2971082.2105407715,-5203398.22769165,-2860100.269317627,-3891918.182373047,-2125045.06111145,-2055078.9833068848,-7869573.593139648,-2925618.886947632,10191129.684448242,-3784055.709838867,-3769842.8630828857,-3058016.300201416,-5246651.649475098,-3878875.970840454,-467648.446559906,-8115537.643432617,19727891.92199707,2544404.5066833496,10176406.860351562,467716.7534828186,-7207143.783569336,-5309030.532836914,-289113.96861076355,-3412571.907043457,-7910838.1271362305,16643419.26574707,10923393.249511719,12374518.394470215,5967767.715454102,-925319.0755844116,6428456.3064575195,932630.5389404297,-4651366.233825684,-5459593.772888184,13029998.779296875,13462808.609008789,14642383.575439453,12832788.467407227,12369691.848754883,4240957.736968994,13427998.542785645,13204637.52746582,12262193.67980957,15966499.328613281,15063384.056091309,15327525.13885498,12424657.821655273,14030012.130737305,15640772.819519043,13528821.94519043,5693563.938140869,14773363.11340332,19533134.46044922,13130604.74395752,6011940.956115723
0.025,-7703509.330749512,-12918022.155761719,-8908125.877380371,-5198613.64364624,-9756513.595581055,1048033.7142944336,497724.59268569946,880666.8519973755,-10099304.19921875,-9774786.949157715,-10936786.651611328,-7596128.463745117,-7488687.038421631,-9661413.192749023,-954570.8298683167,10845006.942749023,-7647300.720214844,-9250809.669494629,-10066295.623779297,-12470523.834228516,-10151055.335998535,-3781782.627105713,-9748753.547668457,25347530.364990234,3067458.6296081543,7997827.053070068,-2181978.225708008,-10932305.335998535,-10855175.971984863,-3238490.581512451,-6140053.272247314,-9434377.670288086,21875848.7701416,14209733.009338379,12734276.77154541,4710868.835449219,-971494.1382408142,9169684.410095215,1125310.1825714111,-3252609.0145111084,-4011944.29397583,21504673.00415039,18405696.868896484,19527774.810791016,17282640.45715332,19541055.67932129,7284856.796264648,19936475.75378418,19585405.349731445,18761112.213134766,25316116.333007812,24287071.228027344,24112903.594970703,19778230.667114258,20683477.4017334,22380887.985229492,20118238.44909668,16639760.971069336,25223522.186279297,30738679.885864258,19779109.954833984,17417367.935180664
0.03,-6716434.001922607,-12302553.176879883,-8584351.539611816,-5313479.900360107,-10803511.619567871,2251424.3125915527,1620124.8168945312,1992401.4806747437,-10459200.859069824,-12032777.786254883,-13136252.403259277,-9017587.661743164,-9095436.096191406,-10064578.05633545,1369271.3975906372,14034789.085388184,-6681471.824645996,-10501811.027526855,-13032625.198364258,-15196471.214294434,-12260107.040405273,-4547521.114349365,-10197659.492492676,29726238.250732422,6331195.35446167,9918148.040771484,-1824528.3365249634,-11631283.7600708,-11453389.167785645,-3418337.345123291,-6676095.008850098,-9645112.037658691,25526243.209838867,17257923.126220703,14629626.274108887,5321869.850158691,-811484.5752716064,10433670.043945312,1376211.2855911255,-2477958.6791992188,-3261182.5466156006,26393518.447875977,21502260.208129883,22559520.721435547,19515953.063964844,23472488.403320312,7324556.350708008,21932905.197143555,21721937.17956543,20804550.170898438,30309679.03137207,29092630.38635254,28850019.454956055,23862762.451171875,22883882.522583008,24621923.446655273,22305828.094482422,20591688.15612793,29893024.444580078,35926891.3269043,21904178.619384766,22420953.75061035
0.035,8773795.127868652,6943356.513977051,9462333.679199219,4437982.559204102,675181.4484596252,9147230.14831543,8383881.568908691,8637886.047363281,-2502201.795578003,-4618700.02746582,-5186540.603637695,-344.9193900451064,-283028.9304256439,-3549442.0528411865,4384590.625762939,18106374.740600586,-531154.3941497803,-5152593.13583374,-8095970.153808594,-9073345.184326172,-4855601.3107299805,1851041.1977767944,-3925082.4451446533,28091110.229492188,9506540.298461914,14057574.272155762,1731228.8284301758,-7984008.312225342,-5061023.235321045,1876656.5322875977,-1946923.7327575684,-3357906.5799713135,23731626.510620117,17405918.12133789,16468231.201171875,7460116.863250732,-548153.281211853,10556551.933288574,2962800.0259399414,-990230.7391166687,-1795620.7990646362,22808427.810668945,19632534.02709961,20633152.00805664,17030170.440673828,20161262.51220703,4070062.6373291016,17444931.030273438,17519464.49279785,16431303.024291992,25903812.408447266,24848804.473876953,24916746.139526367,20523447.036743164,18338996.88720703,20003374.099731445,17973184.58557129,14474061.965942383,25200611.114501953,29899057.388305664,17433780.670166016,16114891.052246094
0.04,34005813.59863281,38836975.09765625,40420452.11791992,21127237.31994629,21058383.94165039,17970741.271972656,17238962.173461914,17378667.8314209,9181097.984313965,7881352.90145874,8439228.057861328,15765225.410461426,15530405.99822998,7782079.219818115,5299515.724182129,19619197.845458984,5293453.216552734,1815156.9366455078,396501.45173072815,787748.5752105713,6835661.888122559,12817089.080810547,7123785.018920898,21759372.71118164,8670580.863952637,15481718.063354492,4817310.810089111,-3324358.7017059326,3529430.389404297,9249719.619750977,5149131.298065186,7493735.790252686,17092479.705810547,13726321.22039795,15925646.781921387,7842440.605163574,-539253.0560493469,10341532.707214355,5181125.164031982,428654.9985408783,-462218.9700603485,13294861.793518066,13696230.8883667,14722839.35546875,12028658.866882324,13165649.4140625,516079.24699783325,10885655.403137207,11051934.242248535,9883531.57043457,15843502.99835205,15217319.48852539,15556980.13305664,13378934.860229492,11440487.8616333,13054294.58618164,11317475.318908691,3439830.780029297,15554859.161376953,18869039.53552246,10716368.675231934,3361124.277114868
0.045,55497409.82055664,66766059.87548828,68343696.59423828,35144882.20214844,38828269.958496094,22693504.333496094,22239513.397216797,22317718.505859375,17234979.6295166,17440769.19555664,19043998.71826172,28381231.3079834,28377059.936523438,16732387.54272461,1874133.7060928345,17483604.431152344,6717121.601104736,5222868.4425354,6219979.763031006,6933487.892150879,13837474.822998047,21330869.674682617,15956413.269042969,15098848.342895508,4205027.103424072,12968476.295471191,5256551.742553711,-739419.1026687622,8077099.800109863,12932190.895080566,9187807.083129883,16124608.993530273,8937589.645385742,8235566.139221191,12843460.083007812,5545714.378356934,-779312.3126029968,9605635.643005371,5803119.659423828,-189656.70466423035,-1213903.9039611816,3754390.9549713135,7175580.024719238,8271925.926208496,7859617.233276367,8208008.766174316,-1269009.5901489258,6492140.769958496,6433118.3433532715,5316372.871398926,6703961.372375488,6306319.713592529,6681014.537811279,8347994.804382324,6677486.896514893,8351845.741271973,6537735.939025879,-6171024.799346924,6856029.033660889,10991429.328918457,6017560.005187988,-7923343.181610107
0.05,62886360.16845703,78212593.07861328,80654991.14990234,39809020.99609375,45993797.302246094,21276762.008666992,21150564.193725586,21243535.9954834,19109109.87854004,21019554.138183594,22789535.522460938,32650897.979736328,32706111.907958984,19674224.853515625,-3809890.031814575,14490794.18182373,5496583.461761475,5577100.75378418,8013153.076171875,7917024.612426758,14363699.913024902,24099884.033203125,18989385.6048584,10419642.448425293,873345.4942703247,10719397.54486084,4945112.228393555,-23942.342028021812,7267117.977142334,11781501.770019531,8890702.247619629,19066537.857055664,2668664.4554138184,4464652.538299561,9644934.65423584,3539772.9873657227,-889071.0473060608,8038399.696350098,4339798.927307129,-2542361.9747161865,-3622470.8557128906,-2125837.0876312256,3154971.5995788574,4245784.759521484,5245313.1675720215,6501661.777496338,-2372583.1508636475,4064222.812652588,3723398.447036743,2726790.9049987793,1353697.657585144,753275.454044342,1112382.0543289185,6701768.398284912,4098242.2828674316,5828995.227813721,3732200.3841400146,-12283034.324645996,1202967.882156372,7125940.322875977,3320989.6087646484,-14332817.077636719
0.055,57150772.09472656,73750106.81152344,77756660.46142578,36694671.630859375,44208389.28222656,16835857.391357422,16846136.09313965,17043394.088745117,17354845.04699707,20917528.15246582,22235061.645507812,31854124.069213867,31666839.599609375,19378507.614135742,-7838769.435882568,13630132.675170898,5006717.205047607,5906438.35067749,8167016.983032227,7279611.587524414,13884323.120117188,23931484.22241211,18830869.674682617,7109432.697296143,1438496.470451355,11967970.848083496,6015557.289123535,143935.32276153564,4555592.5369262695,9851014.137268066,7704086.780548096,18941596.98486328,42925.264686346054,3904554.3670654297,8192417.144775391,3902438.8790130615,-732249.3195533752,6784070.014953613,3030946.4931488037,-3914266.82472229,-4963736.057281494,-4239719.867706299,2250115.6330108643,3246358.1562042236,2916797.876358032,5245336.055755615,-4501986.026763916,1808216.0949707031,1433595.4189300537,563336.6107940674,-1039980.0539016724,-2014481.0676574707,-1593257.4272155762,5481616.497039795,1955580.5921554565,3630482.1968078613,1485945.463180542,-15890774.726867676,-2085354.5665740967,3451370.95451355,1064944.7441101074,-17185405.731201172
0.06,47286735.53466797,63044994.35424805,69123870.84960938,31768407.821655273,39918922.424316406,13172546.38671875,13135844.230651855,13485671.043395996,14875148.77319336,19741392.135620117,21024408.3404541,31046638.48876953,30622756.958007812,19596452.713012695,-9790732.383728027,14021443.367004395,4953637.12310791,6222647.666931152,8181865.692138672,7295546.531677246,15881112.098693848,24093099.59411621,19094213.485717773,3639165.4014587402,2773368.8354492188,13811302.185058594,7131042.003631592,-11124.05490130186,3180838.108062744,10093635.559082031,8276310.920715332,19342081.06994629,-402950.257062912,4028746.1280822754,7300756.931304932,4543357.372283936,-600076.4966011047,7490364.551544189,3569176.9123077393,-3060555.4580688477,-4111662.8646850586,-4795225.143432617,2258800.268173218,3154721.49848938,244346.55904769897,2588737.0109558105,-7084956.169128418,-279285.9375476837,-453640.6397819519,-1223300.4570007324,-2272607.5649261475,-3438209.295272827,-2971196.8898773193,2718069.7917938232,90756.17790222168,1684303.5221099854,-211675.55451393127,-18107608.795166016,-4072649.0020751953,-1420940.1607513428,-741866.8866157532,-18591279.983520508
0.065,40203762.05444336,54257179.260253906,62405540.466308594,28356105.80444336,36412246.70410156,10902978.897094727,10831847.190856934,11292892.456054688,12306176.18560791,17852102.279663086,19836507.79724121,30516901.01623535,30165254.592895508,20163520.81298828,-12623589.515686035,12424942.970275879,2893554.6875,4248158.931732178,7423724.174499512,6896569.25201416,17434558.868408203,23860874.17602539,19675085.067749023,-501040.57788848877,648074.9845504761,11524166.107177734,5731649.398803711,-545024.3949890137,3094653.367996216,10772010.803222656,9350758.55255127,20057857.513427734,-2078663.8259887695,1533945.4412460327,4934718.132019043,2776005.983352661,-688768.744468689,9993531.227111816,4664393.424987793,-2003650.426864624,-3073700.428009033,-6098585.605621338,762353.1818389893,1583697.4382400513,-1665267.3482894897,85897.97466993332,-7977815.628051758,-1175744.2951202393,-1168263.0777359009,-1896925.2109527588,-3438074.3503570557,-4575921.058654785,-4082834.243774414,93156.28558397293,-681761.1455917358,942467.2722816467,-764363.5869026184,-19201833.724975586,-5388340.473175049,-5263819.217681885,-1364452.9581069946,-19187879.56237793
0.07,35254505.1574707,47994602.20336914,57532619.47631836,25073684.692382812,32218353.271484375,8306513.786315918,8306418.418884277,8796497.344970703,9249190.330505371,14759553.909301758,17389308.92944336,27559951.782226562,27439640.045166016,18368928.909301758,-17571247.100830078,8175541.877746582,-973789.1554832458,-49774.15129542351,5132364.273071289,4849826.335906982,14928221.702575684,21083034.51538086,17959356.3079834,-4331192.493438721,-3758998.394012451,6194002.628326416,2413804.054260254,-945133.626461029,2631217.9565429688,9333453.178405762,8579267.501831055,18313148.498535156,-6008080.959320068,-2785168.409347534,1864482.1643829346,-65874.07737970352,-806694.0903663635,12328190.803527832,4282110.214233398,-3149416.208267212,-4091279.5066833496,-8442837.715148926,-1508494.0195083618,-748226.6426086426,-962256.8488121033,472758.56137275696,-6244730.472564697,-917586.088180542,-904080.5101394653,-1677014.708518982,-4362410.068511963,-5421841.144561768,-4735508.918762207,522795.31955718994,-476784.70611572266,1257964.849472046,-545756.1016082764,-19074312.210083008,-5898066.997528076,-6269800.186157227,-1120343.565940857,-19046285.62927246
0.075,28017993.927001953,40117916.107177734,50086940.76538086,19332990.646362305,25423196.79260254,4162109.851837158,4254465.103149414,4759046.55456543,5638130.187988281,10560748.100280762,13182984.352111816,21754674.911499023,21659332.275390625,12782224.655151367,-22447938.919067383,3910578.0124664307,-3906625.509262085,-4057789.3257141113,1697842.1211242676,2019711.0176086426,9872168.54095459,16147464.752197266,12445248.6038208,-6757832.5271606445,-5869341.850280762,3562219.6197509766,327990.3531074524,-1178884.744644165,1327488.0647659302,6665076.732635498,5670598.030090332,12591198.921203613,-9591295.24230957,-5022975.921630859,614861.7267608643,-377272.90391921997,-747583.5680961609,13138898.849487305,2742855.0720214844,-6438932.418823242,-7118487.358093262,-10479509.353637695,-1659564.8527145386,-899755.4779052734,3018450.975418091,4253558.158874512,-3119423.6278533936,-578556.4184188843,-681249.9165534973,-1552403.6884307861,-4325942.9931640625,-5299215.316772461,-4206674.098968506,4414031.505584717,-279187.32166290283,1505616.1880493164,-511234.1642379761,-18290332.794189453,-5137892.723083496,-5422212.600708008,-1027413.010597229,-19387708.66394043
0.08,17457578.659057617,28905242.919921875,38611476.89819336,11313381.19506836,17165105.81970215,-1214461.088180542,-1063057.1842193604,-482768.80383491516,1759397.1490859985,6069485.664367676,8437857.627868652,15732199.668884277,15432021.141052246,4716141.700744629,-25790185.928344727,1162108.6597442627,-4955699.443817139,-6234723.091125488,-1536472.0821380615,51120.89216709137,6424463.272094727,11277225.494384766,4320508.4800720215,-8718173.98071289,-5339496.13571167,5242738.723754883,631507.7543258667,-1940516.471862793,192883.4766149521,5141611.576080322,1793266.4155960083,4292495.7275390625,-11416708.946228027,-4471048.831939697,943733.5133552551,2300308.7043762207,-627110.0640296936,12919150.352478027,1865647.792816162,-10229734.420776367,-10797457.695007324,-12289993.286132812,225950.77753067017,1075204.1339874268,8102539.0625,8668262.481689453,-515742.7787780762,-1162245.3927993774,-1396040.5588150024,-2336607.9330444336,-4276074.409484863,-5082890.510559082,-3602181.4346313477,8714674.949645996,-992588.0432128906,753386.5571022034,-1343273.0436325073,-18898576.736450195,-4313956.260681152,-5251129.150390625,-1801909.4467163086,-22401855.46875
0.085,7330231.666564941,17861579.89501953,27210693.359375,3946853.3992767334,10454791.069030762,-6833844.184875488,-6567918.77746582,-5903872.489929199,-1998271.107673645,2460007.1907043457,4797022.342681885,11727353.0960083,11343370.43762207,-2560399.5323181152,-29355205.535888672,-1780875.6828308105,-6192785.263061523,-7596490.859985352,-3038768.529891968,-736407.6375961304,5579473.01864624,7686282.634735107,-3079207.8971862793,-12524846.076965332,-7014594.078063965,5985402.1072387695,1082295.4177856445,-3122060.2989196777,-198272.04942703247,4631018.161773682,-1937892.9138183594,-3048202.9914855957,-14115360.260009766,-5287324.905395508,-367223.3521938324,4502392.292022705,-640167.1767234802,12736301.42211914,2151861.1907958984,-13149302.48260498,-13924921.035766602,-15915105.819702148,-19924.44135248661,893314.9576187134,10143127.44140625,10046197.891235352,576244.5330619812,-2848650.6938934326,-3178802.251815796,-4109293.4608459473,-6755272.86529541,-7375529.766082764,-5740993.022918701,9717769.622802734,-2810094.3565368652,-1085215.0917053223,-3121469.259262085,-22574165.34423828,-6118132.591247559,-7275498.867034912,-3494569.778442383,-28236148.834228516
0.09,1038732.8863143921,11206713.676452637,20950208.66394043,-305413.1865501404,7064432.621002197,-11707740.783691406,-11213416.09954834,-10587989.807128906,-5179430.4847717285,552709.7582817078,2783980.369567871,10082253.456115723,9924742.698669434,-5129712.5816345215,-34275707.24487305,-6088675.975799561,-9030014.991760254,-9241822.242736816,-2422894.7162628174,-1338272.6907730103,5232416.62979126,5966402.053833008,-5649406.433105469,-17692720.413208008,-13070339.20288086,1690108.7760925293,-406250.2980232239,-3594938.7550354004,-745914.1612052917,3659075.2601623535,-3821084.73777771,-5398058.891296387,-19103675.842285156,-9759968.757629395,-4216811.656951904,3544686.3174438477,-736972.6896286011,12974516.868591309,2906942.844390869,-13744562.149047852,-14824461.936950684,-20931491.85180664,-4334424.97253418,-3500277.7576446533,7018514.156341553,7640803.337097168,371484.4584465027,-4230397.2244262695,-4590460.777282715,-5457759.380340576,-11590309.143066406,-12173859.596252441,-10644869.804382324,7052466.39251709,-4346343.994140625,-2568629.9800872803,-4545019.149780273,-26811935.424804688,-10223958.015441895,-10024136.543273926,-4833717.823028564,-32466358.184814453
0.095,-1749215.3644561768,9338690.757751465,20814519.88220215,-1412969.2316055298,6966961.38381958,-14744108.200073242,-14029202.461242676,-13572323.7991333,-7137711.048126221,309192.62766838074,2146117.4488067627,11098856.925964355,11228920.936584473,-725482.8810691833,-37710914.611816406,-9245876.31225586,-11553790.092468262,-10366088.8671875,-1137315.8693313599,-2211747.646331787,4865573.406219482,7709403.038024902,-1113560.0805282593,-19881824.493408203,-18592864.990234375,-4098109.722137451,-2814858.6750030518,-3030348.777770996,-2299355.2684783936,3115643.5012817383,-1630371.5705871582,-732763.409614563,-22177305.221557617,-13709028.244018555,-7063768.8636779785,604159.951210022,-767469.1081047058,13568928.718566895,4167692.184448242,-10550352.096557617,-11706189.155578613,-22755165.100097656,-8386526.107788086,-7673546.79107666,1364922.4042892456,4523365.9744262695,-441514.4920349121,-3041463.851928711,-3335076.8089294434,-4138327.5985717773,-14231909.75189209,-14924929.61883545,-13715106.010437012,4111766.3383483887,-3230883.5983276367,-1414191.0076141357,-3380943.0599212646,-26174137.115478516,-11724024.772644043,-10089602.47039795,-3676664.113998413,-29870590.209960938
0.1,-2560603.8570404053,10235538.482666016,24159214.01977539,-709208.4288597107,9743368.148803711,-15308642.387390137,-14536496.16241455,-14208277.702331543,-7246447.0863342285,1204258.2035064697,3097689.390182495,15447490.692138672,15613130.569458008,8388181.686401367,-36804561.614990234,-8689459.800720215,-11350502.967834473,-9903170.585632324,-1052905.3211212158,-2366505.8612823486,6392267.227172852,13511948.585510254,8075145.721435547,-16806554.794311523,-18307462.692260742,-5585833.549499512,-3937051.53465271,-2577221.8704223633,-3830118.6561584473,5103144.16885376,4315834.999084473,8376197.814941406,-19495845.794677734,-12506470.680236816,-6416275.0244140625,-1709422.23072052,-761923.3727455139,14510989.18914795,6245937.824249268,-4715498.447418213,-5715964.317321777,-18972167.96875,-7591317.653656006,-6857631.206512451,-2086189.0316009521,3957784.414291382,-1253139.615058899,764137.0296478271,589059.4124794006,-167875.37932395935,-11704607.963562012,-12457920.07446289,-11648256.301879883,3956269.9794769287,695024.4307518005,2433786.630630493,469477.0574569702,-19777093.8873291,-7655721.187591553,-6369716.167449951,82925.52083730698,-21935312.271118164
0.105,-1053798.1986999512,13222610.473632812,28540969.848632812,927238.7623786926,14719505.310058594,-14196524.620056152,-13500433.921813965,-13122981.071472168,-5610453.6056518555,2815175.0564575195,5894771.099090576,21705532.07397461,21702983.856201172,16105182.647705078,-34042980.1940918,-6645124.435424805,-9560650.825500488,-8847733.497619629,-2407425.1651763916,-996209.442615509,9826677.322387695,19992954.25415039,15715436.935424805,-13004343.98651123,-14460556.030273438,-3570205.9268951416,-3825932.502746582,-3194934.844970703,-3389029.5028686523,8432056.427001953,9727111.81640625,15875953.674316406,-15110467.910766602,-8735809.326171875,-5297443.389892578,-2772470.9510803223,-865016.520023346,15716689.109802246,8039182.662963867,-589038.7296676636,-1462804.0790557861,-14538901.329040527,-4337885.856628418,-3489716.053009033,-1390383.6011886597,5840809.8220825195,-1386062.6220703125,3818420.41015625,3707276.8211364746,2981640.100479126,-7835633.277893066,-8542447.090148926,-7849349.021911621,5980333.8050842285,3973568.4394836426,5541397.0947265625,3588738.6798858643,-14191740.989685059,-2453412.0559692383,-2318146.7056274414,3146501.302719116,-16889328.002929688
0.11,3221387.6247406006,18407770.15686035,32988883.97216797,3293483.257293701,19822376.251220703,-12902154.922485352,-12258002.281188965,-11736098.289489746,-3453404.9034118652,4576666.831970215,9159930.229187012,25946561.813354492,25851808.547973633,18180025.100708008,-34099563.59863281,-7206060.886383057,-9395883.560180664,-9146084.785461426,-3925130.844116211,599268.7344551086,11752230.644226074,22336093.90258789,17689926.147460938,-14199580.192565918,-13189457.893371582,-3443102.8366088867,-4231821.537017822,-4475439.071655273,-950479.5074462891,9140053.749084473,10734557.151794434,17862964.630126953,-15724712.371826172,-8305714.6072387695,-7382160.186767578,-3351711.9884490967,-1084609.3893051147,16979415.893554688,8207371.711730957,-873745.7394599915,-1785194.5161819458,-15372735.023498535,-3971872.8065490723,-3129570.960998535,1972743.034362793,8060781.478881836,-16640.65569639206,3525550.127029419,3391311.4070892334,2667513.370513916,-7872657.775878906,-8614734.649658203,-7471474.170684814,7927642.345428467,3782301.425933838,5200472.354888916,3277107.4771881104,-14839779.8538208,-1909243.4644699097,-1666227.5791168213,2840711.3552093506,-19285448.07434082
0.115,7525202.751159668,23144958.49609375,36009239.196777344,5747750.759124756,22023061.752319336,-11809206.96258545,-11143630.027770996,-10567268.371582031,-2379547.595977783,5325342.178344727,10207518.577575684,25599388.122558594,25581714.630126953,16413307.189941406,-36212635.0402832,-9476550.102233887,-11075887.680053711,-10719295.501708984,-4805169.582366943,132177.56152153015,10036515.235900879,20151165.008544922,15931659.698486328,-18333278.65600586,-14934991.836547852,-5841063.499450684,-5261482.238769531,-5609385.013580322,973919.4512367249,6280858.516693115,8675271.034240723,16280357.360839844,-19573848.724365234,-10623252.868652344,-10095204.35333252,-3180160.9992980957,-1274743.914604187,18191078.186035156,7647428.9894104,-2783843.517303467,-3789634.4661712646,-18834115.982055664,-5545460.7009887695,-4843908.309936523,6379540.44342041,10210650.444030762,2932499.1703033447,2151312.828063965,1993781.8050384521,1224941.2536621094,-9911767.959594727,-10854780.197143555,-9053525.924682617,9788019.180297852,2320161.5810394287,3677566.0514831543,1865214.5862579346,-17756130.21850586,-3899809.8373413086,-2892944.812774658,1368027.5678634644,-23336742.401123047
0.12,8133376.121520996,23522035.598754883,35830165.86303711,7275932.312011719,20396585.46447754,-9935422.897338867,-9271602.630615234,-8753185.272216797,-2491052.1507263184,4633334.159851074,8446379.661560059,22672098.15979004,22726890.563964844,15543104.17175293,-34697940.826416016,-8178740.501403809,-10953305.2444458,-11062470.436096191,-5058819.770812988,-2172598.123550415,7528805.255889893,17886295.318603516,15129429.817199707,-17788063.049316406,-14037511.825561523,-5403546.333312988,-4799713.611602783,-6179850.5783081055,384975.5525588989,3647280.216217041,7804449.081420898,15605560.302734375,-18323501.586914062,-9208321.571350098,-7727190.971374512,-1335581.5410614014,-1320667.028427124,19000881.19506836,8221041.679382324,-2102653.980255127,-3133944.511413574,-17107864.379882812,-3136939.525604248,-2479376.792907715,11058348.655700684,13196477.890014648,5755542.755126953,3507017.135620117,3389016.628265381,2554332.2563171387,-7742368.221282959,-8810408.592224121,-6920454.978942871,12868406.295776367,3571349.1439819336,4929681.301116943,3333930.253982544,-15541099.548339844,-1635914.8025512695,-1431739.9263381958,2662580.2516937256,-21270177.841186523
0.125,5783095.359802246,20296676.635742188,33619995.1171875,7907595.634460449,17839597.702026367,-6993161.201477051,-6395613.670349121,-5883356.57119751,-1699316.143989563,4464858.055114746,7175784.111022949,21339267.73071289,21323081.970214844,16851911.544799805,-28336572.647094727,-2123116.7316436768,-6877128.601074219,-8299052.2384643555,-3974143.5050964355,-2794944.0479278564,8461583.137512207,18632823.944091797,16451648.712158203,-11344983.100891113,-8498009.68170166,-79448.72975349426,-1889734.7450256348,-5579821.586608887,-1447899.6992111206,4240225.315093994,9035403.25164795,16831817.626953125,-10967746.73461914,-2944054.365158081,-1074509.859085083,1320569.0383911133,-1229876.8758773804,18605846.405029297,9159807.205200195,166395.6344127655,-836483.8361740112,-10093147.277832031,3288995.0275421143,4108415.126800537,13688782.691955566,15408710.479736328,5806179.046630859,6226134.777069092,6136893.749237061,5287423.133850098,-1958997.368812561,-2856333.017349243,-1618567.705154419,15457798.957824707,6325654.983520508,7686314.105987549,6289054.870605469,-9707930.564880371,4273169.994354248,2576996.8032836914,5502404.689788818,-15551903.72467041
0.13,5298558.712005615,19239139.556884766,33408840.17944336,8866063.117980957,17967052.459716797,-4763350.486755371,-4187757.4920654297,-3535722.7325439453,1777563.214302063,7333036.422729492,9767965.316772461,22749229.431152344,22604598.999023438,17228479.385375977,-24111427.307128906,2543632.745742798,-2054605.0071716309,-3757348.2990264893,-459630.54895401,823793.5304641724,12605901.718139648,20329940.795898438,16778629.302978516,-7616509.437561035,-4330424.3087768555,4290256.023406982,1189883.9473724365,-3210484.266281128,-1552869.439125061,6130362.510681152,9228207.5881958,16930679.321289062,-7290752.88772583,318807.6913356781,1913396.0008621216,2322650.194168091,-1092463.6125564575,16877628.326416016,7633406.639099121,-886432.5881004333,-1871830.8210372925,-7369661.331176758,5645029.544830322,6655790.328979492,10790298.461914062,12956545.82977295,2094618.0820465088,4658544.540405273,4481773.376464844,3722334.623336792,-1020888.8053894043,-1637301.3257980347,-1017103.4336090088,13238273.620605469,4866863.250732422,6198888.301849365,4833188.533782959,-9768262.86315918,4822137.832641602,3045822.6203918457,4146737.0986938477,-16074937.82043457
0.135,8725763.320922852,23250778.198242188,36763374.32861328,10632990.837097168,20610137.939453125,-5334834.575653076,-4639409.065246582,-3840197.5631713867,6268992.900848389,12182086.944580078,14643698.692321777,24200345.993041992,24030788.42163086,14532490.730285645,-28146327.97241211,365295.79758644104,-1280483.2458496094,-723670.4230308533,4287542.343139648,6250229.358673096,15888686.180114746,19720094.680786133,14027926.445007324,-13265673.637390137,-7148775.577545166,2103375.6732940674,1538546.9198226929,-76815.73182344437,716736.1974716187,6025214.195251465,6809857.368469238,14081824.30267334,-13764441.49017334,-5110489.368438721,-2986683.130264282,683307.409286499,-1026549.6969223022,15385830.879211426,3452911.138534546,-6266505.241394043,-7252876.758575439,-14545450.210571289,-666781.9023132324,401490.86713790894,2576422.929763794,5461945.533752441,-3513196.7067718506,-2672351.360321045,-3015470.9815979004,-3614108.085632324,-8851743.698120117,-9431031.227111816,-8718042.373657227,5628737.926483154,-2442887.306213379,-1157925.009727478,-2623920.9175109863,-19193540.573120117,-3961568.832397461,-3669831.5143585205,-3104300.2605438232,-25535036.087036133
0.14,12527310.371398926,27995344.161987305,40238285.064697266,12160231.590270996,22474689.483642578,-8072547.912597656,-7185420.989990234,-6430651.664733887,7988416.67175293,14649009.704589844,16850248.336791992,23591293.334960938,23539875.030517578,11015846.252441406,-36406074.52392578,-5475634.574890137,-4423476.696014404,-821770.4892158508,6742752.0751953125,8490843.772888184,16208257.675170898,17434869.76623535,10470185.279846191,-22858575.82092285,-13521232.604980469,-3532559.1564178467,-624145.6866264343,1372500.8964538574,2674187.183380127,4259839.057922363,4440636.157989502,10666084.289550781,-23270090.103149414,-13562633.514404297,-9730912.208557129,-1723578.691482544,-1089434.3852996826,15800395.965576172,169854.49194908142,-10982204.43725586,-11966806.411743164,-24320081.71081543,-8972871.780395508,-7910069.942474365,-5074296.474456787,-1200900.912284851,-8216435.432434082,-9816186.904907227,-10244541.16821289,-10734763.145446777,-17877420.42541504,-18659572.60131836,-17515882.49206543,-1289218.3065414429,-9680357.933044434,-8407912.254333496,-9938714.981079102,-29432668.685913086,-13734298.706054688,-12719269.752502441,-10327092.170715332,-34867603.30200195
0.145,12830321.311950684,27827907.56225586,39918418.884277344,12314131.736755371,21795057.29675293,-10114695.54901123,-9114478.11126709,-8579703.330993652,5649432.65914917,12423480.987548828,14425393.104553223,22121532.440185547,22247207.641601562,9727568.626403809,-39699398.040771484,-7669140.338897705,-6916175.365447998,-2810158.0142974854,4934130.1918029785,5903064.250946045,15328730.583190918,16293390.274047852,9161795.616149902,-26008758.544921875,-15644465.446472168,-5404448.03237915,-2557944.5362091064,7451.964076608419,1507530.3316116333,3294555.6640625,4469864.368438721,9566405.296325684,-25098731.994628906,-15517349.243164062,-10160228.729248047,-2714886.6653442383,-1191148.8771438599,17351261.138916016,201454.38611507416,-11140613.555908203,-12130548.477172852,-26298625.946044922,-10155498.504638672,-9052837.371826172,-6370230.197906494,-881886.36302948,-10526218.41430664,-10840377.807617188,-11176128.387451172,-11723394.393920898,-18964141.845703125,-19850242.614746094,-18725318.908691406,-1069313.406944275,-10790711.402893066,-9442152.02331543,-10958137.512207031,-31190597.534179688,-14744145.393371582,-16284696.578979492,-11386425.971984863,-35501621.24633789
0.15,10085532.188415527,22998729.705810547,36310207.36694336,11026859.283447266,19884654.998779297,-10388905.52520752,-9394379.615783691,-9025673.866271973,1992474.6751785278,8188455.581665039,10364109.03930664,21487411.499023438,21749729.15649414,9770756.721496582,-36429939.27001953,-5312575.340270996,-6510730.743408203,-4848994.731903076,930391.3712501526,1606495.0227737427,14819459.915161133,16354135.513305664,9251525.87890625,-21742992.401123047,-12567686.080932617,-2704701.6620635986,-2805456.6383361816,-2423828.8402557373,-2405201.9119262695,3320430.5171966553,5059235.572814941,9705209.732055664,-20187349.319458008,-10918434.143066406,-5153120.040893555,-2545082.3307037354,-1168025.7320404053,17668380.737304688,1655919.909477234,-9111756.324768066,-10144470.21484375,-21148235.321044922,-5179435.729980469,-4037051.200866699,-2250091.314315796,5295765.8767700195,-10145073.890686035,-7238882.541656494,-7369354.248046875,-8115676.8798828125,-13755420.684814453,-14503403.663635254,-13807382.583618164,5222316.265106201,-7155818.939208984,-5681087.017059326,-7223051.071166992,-26220973.96850586,-8893923.75946045,-13089080.810546875,-7673595.428466797,-30197439.193725586
0.155,6687143.802642822,18006092.071533203,32693572.998046875,8674958.229064941,18064886.09313965,-11163758.277893066,-10200617.790222168,-9785794.258117676,121931.17290735245,5773506.641387939,7881841.659545898,20865171.432495117,21160531.997680664,8059131.622314453,-34280803.68041992,-4500051.498413086,-5866165.637969971,-6528950.214385986,-1814149.6181488037,-826555.073261261,13638499.25994873,15183052.062988281,7653507.232666016,-18909284.591674805,-10992180.824279785,-1204263.687133789,-2479028.7017822266,-3514620.304107666,-5821360.5880737305,2864074.468612671,3692394.733428955,7991656.78024292,-18437534.33227539,-8211015.701293945,-2428680.419921875,-2813105.821609497,-995018.2437896729,16487346.649169922,1974273.2048034668,-8954521.179199219,-10068514.823913574,-18184467.315673828,-2503269.1955566406,-1379565.2389526367,1425077.4383544922,10359910.96496582,-7039714.813232422,-4754034.042358398,-4710593.223571777,-5632783.889770508,-11105578.422546387,-11724690.437316895,-11103268.62335205,10449949.264526367,-4526868.3433532715,-3028573.751449585,-4679016.590118408,-22957660.675048828,-5643919.467926025,-8814120.292663574,-5104284.763336182,-27374681.47277832
0.16,3117300.033569336,15220876.693725586,30655664.443969727,5574846.267700195,15968301.773071289,-14191716.194152832,-13207475.662231445,-12635542.869567871,8107.5141206383705,5412998.199462891,6776152.610778809,19011669.158935547,19218469.619750977,4944958.686828613,-38160968.78051758,-8193822.860717773,-7299142.837524414,-8062386.512756348,-2393733.263015747,-869834.6018791199,11301932.334899902,12759657.859802246,4610272.8843688965,-22434089.66064453,-14609802.24609375,-3596940.517425537,-2713207.721710205,-3090394.2584991455,-5906032.562255859,2559850.2159118652,2249837.3985290527,4837199.2111206055,-23040401.458740234,-11143576.622009277,-5001635.0746154785,-3615080.5950164795,-836832.1657180786,16486495.971679688,2156351.5663146973,-9897428.512573242,-11076549.530029297,-21072401.04675293,-5063217.1630859375,-3959124.803543091,1610705.9717178345,10229784.965515137,-2208599.328994751,-5138717.6513671875,-5057599.5445251465,-5987406.253814697,-13814292.907714844,-14538840.293884277,-13405223.846435547,10361530.303955078,-4763904.094696045,-3450570.3449249268,-5149363.040924072,-24093393.325805664,-7941151.6189575195,-7916313.171386719,-5616394.519805908,-28961729.049682617
0.165,-310912.01305389404,14136973.38104248,30122104.64477539,3018772.840499878,14167052.268981934,-16886289.596557617,-15864030.838012695,-15239818.572998047,-63524.29836988449,5168256.759643555,6051634.311676025,17866201.400756836,17906141.28112793,4767042.16003418,-42440803.52783203,-11210069.65637207,-8632768.630981445,-8765505.79071045,-2124336.2426757812,303964.0188217163,10406323.432922363,12591137.886047363,4350281.715393066,-26267223.358154297,-18440355.30090332,-5818682.1937561035,-2875818.967819214,-2665570.9743499756,-2773899.555206299,4503584.384918213,4857197.284698486,4569184.303283691,-26161039.352416992,-13815733.909606934,-7879343.9865112305,-3632095.3369140625,-835341.5727615356,19353874.20654297,4512618.064880371,-8142430.305480957,-9290566.444396973,-23488164.9017334,-6971977.710723877,-5868655.681610107,701940.1788711548,7854610.443115234,1472688.5557174683,-4967552.185058594,-5005871.295928955,-5805138.58795166,-15740981.101989746,-16653182.983398438,-15133462.905883789,7860509.872436523,-4549158.096313477,-3507030.248641968,-5108446.5980529785,-24476516.723632812,-9479120.254516602,-8862841.606140137,-5685524.463653564,-29558258.056640625
0.17,-863572.7763175964,14853702.545166016,31683523.178100586,3214679.002761841,15296056.747436523,-15048919.677734375,-14065051.078796387,-13550267.219543457,-256839.69259262085,5184088.706970215,7038966.655731201,20712947.845458984,20594804.763793945,9870994.567871094,-39041019.439697266,-8012929.916381836,-6958514.69039917,-7787380.218505859,-1550664.3056869507,2326057.6725006104,13343465.805053711,16752737.045288086,9256967.544555664,-22953065.872192383,-16540914.535522461,-4430031.299591064,-2166423.0823516846,-2851062.536239624,1036455.9888839722,8146767.616271973,11429917.335510254,9522439.956665039,-21400211.334228516,-10591378.211975098,-6739950.656890869,-2780464.6492004395,-922018.6471939087,22974821.090698242,8130143.165588379,-3280740.737915039,-4288697.242736816,-19751424.78942871,-3693585.3958129883,-2687321.186065674,1278149.127960205,7894150.257110596,1501578.0925750732,-1736464.1427993774,-1988959.4316482544,-2664417.505264282,-12099159.240722656,-12997181.89239502,-11826492.309570312,7684353.351593018,-1391793.966293335,-450469.61307525635,-1968311.1906051636,-20062345.504760742,-5493321.895599365,-8048836.708068848,-2550557.3749542236,-25717247.009277344
0.175,3115519.5236206055,17623414.993286133,35173507.69042969,6462604.999542236,19941545.486450195,-9062825.202941895,-8225231.170654297,-7822802.0668029785,530548.5725402832,7163869.857788086,10905535.697937012,26697330.474853516,26496789.932250977,16646472.930908203,-29350170.135498047,-1082854.151725769,-3727876.1863708496,-5817479.610443115,-40465.67901968956,5193568.706512451,18248136.520385742,22392770.767211914,15872635.841369629,-14634669.303894043,-10783289.909362793,-2065286.1595153809,-1261376.6193389893,-2777613.1629943848,3240103.9600372314,10476720.809936523,17078172.68371582,16173948.287963867,-12922438.621520996,-4481684.684753418,-3860259.771347046,-2622049.8085021973,-914403.9154052734,24296474.45678711,10000148.77319336,1101197.2427368164,219648.00357818604,-12916798.59161377,1238908.7677001953,2033694.2672729492,1941163.3014678955,10300884.246826172,-1038227.5581359863,2643898.4870910645,2206027.030944824,1582871.7947006226,-6125796.794891357,-6811725.13961792,-6383665.561676025,9924280.166625977,2888340.711593628,3992565.155029297,2354715.8241271973,-13248082.160949707,623939.2161369324,-5048851.013183594,1942558.765411377,-20260059.356689453
0.18,7863792.419433594,19937791.82434082,37377071.380615234,9589608.192443848,23839944.83947754,-4296648.979187012,-3637181.7588806152,-3201306.5814971924,2086440.5632019043,10256598.472595215,14991925.239562988,30451141.357421875,30250291.82434082,19629100.799560547,-22524139.404296875,2846947.9084014893,-2443547.9640960693,-4558825.492858887,1998929.500579834,7767995.357513428,21068161.010742188,25055652.618408203,18855894.088745117,-9550477.027893066,-7477807.521820068,-2253561.496734619,-1018860.5785369873,-1828967.571258545,3805221.7960357666,10726480.484008789,18411306.381225586,19164182.662963867,-8575127.601623535,-1757904.291152954,-2817414.2837524414,-3611527.442932129,-731170.8331108093,23511453.62854004,9776187.896728516,2688818.93157959,1764897.9425430298,-9246586.799621582,2456228.9714813232,3139739.2749786377,293150.81238746643,11388369.5602417,-2535331.0108184814,4856380.939483643,4360146.045684814,3791800.7373809814,-3352756.7386627197,-3897437.810897827,-3876378.297805786,11000922.203063965,5052964.210510254,6413695.335388184,4535976.886749268,-8619229.316711426,3338578.939437866,-2226556.7779541016,4294399.738311768,-17097715.377807617
0.185,7871798.992156982,18599281.311035156,35165550.231933594,9240208.625793457,22488956.451416016,-4450074.195861816,-3900658.8459014893,-3347667.694091797,2721728.563308716,10921528.816223145,15111470.222473145,28497920.989990234,28345369.338989258,17954067.23022461,-23185455.322265625,2236526.9660949707,-3096979.3796539307,-4633102.4169921875,2681411.027908325,8418730.735778809,20708438.873291016,23875940.322875977,17360860.82458496,-10643628.120422363,-8062657.356262207,-3300496.5782165527,-892733.8123321533,-665397.1076011658,4153848.648071289,11391688.346862793,17193712.23449707,17615287.78076172,-9408432.006835938,-2839485.8837127686,-2419454.81300354,-3978892.8031921387,-470363.0208969116,23290779.11376953,9949233.055114746,2612482.786178589,1496003.9854049683,-9540432.929992676,541354.3581962585,1355651.4978408813,-2620873.212814331,9513154.983520508,-1538259.1485977173,3908396.4824676514,3456867.456436157,3016240.119934082,-4159134.3879699707,-4801077.365875244,-4708550.930023193,9262007.713317871,4076287.269592285,5579514.026641846,3608937.5019073486,-7650454.998016357,2369379.2819976807,-1203320.1456069946,3363536.3578796387,-16377563.4765625
0.19,3641748.9051818848,14958511.352539062,30563705.444335938,6272311.687469482,17358472.82409668,-7063989.639282227,-6548435.688018799,-5963594.436645508,1786200.0465393066,7826838.493347168,11226600.646972656,23561901.092529297,23458164.21508789,15150371.551513672,-26369018.5546875,1516099.5721817017,-2826371.908187866,-5093423.843383789,1181580.0666809082,6864235.877990723,19368637.084960938,21526477.813720703,14823453.903198242,-13175811.767578125,-8425275.802612305,-1717736.1249923706,-59321.8207359314,-206136.8227005005,4758918.762207031,13338800.430297852,16421253.204345703,14939471.244812012,-10884105.682373047,-3586313.009262085,-163555.23467063904,-2516833.3053588867,-330412.03022003174,24532539.36767578,11155646.324157715,1970934.7486495972,709083.1398963928,-10265632.629394531,-592183.8283538818,392814.2488002777,-3827495.0981140137,6696805.000305176,-573665.1420593262,927633.3451271057,503398.00119400024,212636.70921325684,-5510852.813720703,-6383601.188659668,-6160988.330841064,6620532.512664795,1025196.3138580322,2522789.716720581,693222.1055030823,-9341705.322265625,800211.4295959473,-1806707.0245742798,328928.94744873047,-16556344.985961914
0.195,1369963.6459350586,13701409.339904785,28585798.263549805,4821002.960205078,14007593.154907227,-7194589.138031006,-6740506.649017334,-6236120.700836182,642629.3849945068,4148598.6709594727,7733868.598937988,20647205.352783203,20545492.17224121,13463526.725769043,-25270257.9498291,3626803.6365509033,-1072360.634803772,-4904266.357421875,-820824.0866661072,4313495.15914917,18396755.21850586,20110315.322875977,13313193.321228027,-12438705.444335938,-6325167.179107666,1445898.7712860107,894450.7241249084,-512747.8241920471,4372848.033905029,13505693.435668945,15791598.320007324,13304284.09576416,-10589014.053344727,-2619458.1985473633,2046661.138534546,-786936.7003440857,-456155.7471752167,25268306.732177734,10913381.576538086,-27926.2512922287,-1257949.3522644043,-9860726.356506348,-325245.32079696655,602507.7104568481,-2941023.826599121,5159409.523010254,-2190907.7167510986,-2382931.709289551,-2856790.30418396,-3083001.8520355225,-6341535.568237305,-7384362.697601318,-7235611.438751221,5191730.02243042,-2326291.32270813,-915192.9020881653,-2559887.409210205,-12398820.877075195,-138396.36743068695,-3211558.1035614014,-2994991.0640716553,-17480585.0982666
0.2,4866052.627563477,16212369.918823242,30302974.700927734,7341137.886047363,14825489.044189453,-3274356.6036224365,-3001625.7762908936,-2553975.5821228027,1006052.3748397827,3739204.168319702,7885297.2984313965,20938718.795776367,20791063.30871582,11760030.746459961,-19166549.682617188,6802011.966705322,141260.16199588776,-3735919.713973999,-1059592.4854278564,2255959.5108032227,16974426.26953125,19370658.87451172,11558938.026428223,-8571293.830871582,-3964816.3318634033,2594907.04536438,1000062.9425048828,-937535.4647636414,2187195.062637329,9779189.109802246,13576837.539672852,11599523.544311523,-9367679.595947266,-1882799.0293502808,931548.1185913086,-850140.631198883,-777778.4466743469,23849628.448486328,8099582.672119141,-3030011.1770629883,-4132598.876953125,-9141051.292419434,-572714.0307426453,151355.11755943298,-2271533.0123901367,4823333.263397217,-5148414.611816406,-4098333.8356018066,-4611598.491668701,-4897965.908050537,-7147112.3695373535,-8220930.099487305,-8237279.891967773,4868983.268737793,-3915384.05418396,-2635171.413421631,-4249545.574188232,-14564569.473266602,-733876.2879371643,-4312027.931213379,-4672812.938690186,-18872022.62878418
0.205,11414190.292358398,18917913.43688965,31925802.23083496,12205072.402954102,17015056.610107422,2331922.5311279297,2350864.6488189697,2843379.7359466553,3118527.65083313,6537486.0763549805,10248702.049255371,21782592.7734375,21625179.290771484,9159976.0055542,-11965438.842773438,8802300.453186035,494057.68513679504,-1712034.9407196045,545753.4790039062,1525088.0718231201,14995329.856872559,18475986.48071289,8743573.188781738,-3620602.84614563,-2826886.4154815674,1794080.6150436401,618443.1910514832,-984190.821647644,-419230.192899704,5102969.646453857,10699943.542480469,8996562.957763672,-7101583.957672119,-1522052.526473999,-1731724.2622375488,-2189245.7008361816,-1003587.8419876099,21149040.22216797,5389390.468597412,-4119521.6178894043,-5126686.096191406,-7451593.399047852,-766005.0988197327,-93659.75111722946,-2873188.257217407,4889160.15625,-6282660.961151123,-2925486.8030548096,-3362355.947494507,-3783019.0658569336,-6670228.004455566,-7662534.236907959,-7825875.282287598,4879037.380218506,-2490295.886993408,-1332903.6235809326,-3054244.9951171875,-12765638.35144043,80101.6315817833,-3743205.3089141846,-3442604.0649414062,-18381465.911865234
0.21,16531440.734863281,19229064.94140625,31248321.533203125,16255699.157714844,17798982.620239258,6799732.208251953,6642827.033996582,7200341.701507568,5734267.234802246,9214725.494384766,11465492.248535156,21324630.737304688,21280447.006225586,7290435.314178467,-6888057.231903076,9706789.016723633,1594797.6112365723,234910.47322750092,1822885.0364685059,1945425.3911972046,14067626.953125,17336076.736450195,6720891.952514648,1197021.8420028687,-1263413.3100509644,1840747.9524612427,429714.29228782654,-846563.5180473328,-1484231.8296432495,3648467.540740967,9635793.685913086,7130253.314971924,-3074020.6241607666,238292.8878068924,-1423434.0190887451,-2875750.3032684326,-891832.5901031494,19003694.534301758,5287963.390350342,-1957013.6070251465,-2888398.4088897705,-3496885.5381011963,1256734.848022461,2077072.6203918457,-3173302.65045166,5792256.3552856445,-4816453.456878662,-35133.931785821915,-333491.7426109314,-882831.3946723938,-3493720.531463623,-4326313.018798828,-4646414.279937744,5700731.27746582,523461.9975090027,1693875.9088516235,-123022.53395318985,-6907157.421112061,3230209.1121673584,-1282941.5798187256,-459634.9596977234,-14396701.81274414
0.215,19092176.43737793,19133228.302001953,30736862.182617188,17903541.564941406,17996435.165405273,8567400.932312012,8411093.711853027,8979444.50378418,7298628.330230713,9423694.610595703,10610299.110412598,20410848.61755371,20550737.380981445,7184511.184692383,-5500844.0017700195,9190152.168273926,2664481.4014434814,179248.1541633606,1000622.9877471924,2454471.1112976074,14646825.790405273,15833231.925964355,6645993.232727051,3710438.9667510986,740789.2942428589,2192174.6730804443,-329529.2258262634,-1161733.5081100464,-1080797.4338531494,4937922.00088501,10078972.816467285,7022551.0597229,-206896.6031074524,2059855.9379577637,1147296.3094711304,-2830944.776535034,-541111.4692687988,18141778.94592285,6217236.518859863,-62924.86935853958,-880562.8418922424,77871.43439054489,3947287.5595092773,4878561.973571777,-1877823.5912322998,8104090.690612793,-2745192.527770996,1241579.4134140015,972034.752368927,362499.4456768036,-282446.56324386597,-915840.8045768738,-1289479.8517227173,7960381.507873535,1637534.3799591064,3004390.9549713135,1201427.5789260864,-2115894.317626953,6157624.244689941,950087.6665115356,922597.9447364807,-10015823.364257812
0.22,19791145.32470703,20627702.713012695,32214736.938476562,17107347.48840332,18986289.978027344,6796673.774719238,6791354.179382324,7372907.638549805,7011361.122131348,7818962.097167969,9314914.70336914,19882701.873779297,20100114.822387695,6444102.764129639,-9024078.369140625,5247581.958770752,582111.8950843811,-2876491.069793701,-1271722.674369812,1994224.6675491333,14553875.923156738,13302804.946899414,5999205.112457275,740726.4113426208,-735136.9857788086,-550111.2341880798,-2515303.373336792,-2207429.6474456787,-1014365.6730651855,5085580.348968506,8863739.013671875,6298948.764801025,-3302445.17326355,-166617.7362203598,419309.49687957764,-3443150.520324707,-271535.4263782501,18350633.62121582,5121639.728546143,-2821298.837661743,-3543069.362640381,-2023416.7575836182,2852459.43069458,3744858.980178833,76527.1857380867,10629852.294921875,-1549881.5774917603,-1041941.5235519409,-1448478.2218933105,-2034991.979598999,-1826578.6170959473,-2330287.6949310303,-2394102.5733947754,10495972.633361816,-923485.9347343445,650064.2895698547,-1034345.3884124756,-3995330.0952911377,4870060.443878174,344657.3615074158,-1368609.90524292,-10871315.956115723
0.225,18027931.213378906,21298364.639282227,32608211.517333984,14311953.5446167,19291547.775268555,1999831.0804367065,2209978.8188934326,2850868.9403533936,5363359.451293945,6260980.129241943,8773020.74432373,18551763.5345459,18652139.66369629,2079161.6439819336,-16561246.871948242,-1787513.1368637085,-4287922.8591918945,-6826722.145080566,-2886553.7643432617,624196.6485977173,11890744.20928955,9479121.208190918,1642364.263534546,-7046156.406402588,-7315262.317657471,-5647733.211517334,-4546261.787414551,-3367782.3543548584,-2222794.2943573,2642992.0196533203,4496010.303497314,2005153.8944244385,-11589814.186096191,-6316651.821136475,-4793953.895568848,-4294881.343841553,-209132.98428058624,19261474.609375,2193233.7284088135,-9404305.458068848,-10133238.792419434,-10176355.361938477,-2289440.393447876,-1434566.1401748657,1320544.6004867554,11270358.085632324,-786836.9817733765,-5206904.411315918,-5750636.577606201,-6293384.552001953,-8060118.675231934,-8642450.332641602,-8061297.416687012,11151039.123535156,-5191616.058349609,-3614399.9099731445,-5144627.571105957,-11847408.294677734,-456678.03287506104,-3012308.359146118,-5716864.109039307,-18241567.611694336
0.23,13317975.044250488,17781858.444213867,28383762.35961914,10687370.300292969,16826641.082763672,-3016381.26373291,-2613553.285598755,-1968093.0376052856,3577816.7247772217,5412489.414215088,8337761.878967285,15250762.939453125,15178791.046142578,-4710203.647613525,-23268827.438354492,-7334491.25289917,-6945919.990539551,-8311786.651611328,-3025866.0316467285,-760344.7437286377,7960788.726806641,5374448.299407959,-5166190.624237061,-13262557.983398438,-13566845.893859863,-7578702.449798584,-4013960.361480713,-3826189.0411376953,-3933034.658432007,-26287.643238902092,-448330.70039749146,-4685353.2791137695,-17570106.506347656,-10227335.929870605,-8548725.128173828,-3326422.2145080566,-172727.03349590302,20147037.506103516,366560.4591369629,-14415516.85333252,-15204504.013061523,-17263925.552368164,-5804232.597351074,-4880035.877227783,1797733.3068847656,9641270.637512207,32413.69128227234,-8106256.484985352,-8598198.890686035,-9164772.033691406,-12741009.712219238,-13613383.293151855,-12555101.39465332,9434058.18939209,-7981568.813323975,-6570771.217346191,-8006492.614746094,-18906684.87548828,-4819037.437438965,-6154598.712921143,-8810944.557189941,-26237300.872802734
0.235,8220595.359802246,11764659.881591797,21963018.4173584,8472977.638244629,13110442.161560059,-4959920.883178711,-4491526.126861572,-3984660.6254577637,2351624.4888305664,4692089.557647705,7181410.789489746,11753448.486328125,11660479.545593262,-8753402.709960938,-23746324.53918457,-7635263.919830322,-4786981.105804443,-7160825.252532959,-3106615.0665283203,-1706206.4409255981,5901561.260223389,3026346.445083618,-9123020.17211914,-12007771.492004395,-13032589.91241455,-4267053.127288818,-1799269.676208496,-3763806.5814971924,-5279550.075531006,-598395.049571991,-2007884.5024108887,-8690207.481384277,-15477966.30859375,-7483402.729034424,-6669326.7822265625,-798514.8429870605,-14491.932466626167,20180715.560913086,1221909.523010254,-13964021.682739258,-14762272.834777832,-16145009.994506836,-3402067.184448242,-2427296.6384887695,1808426.1417388916,7810599.803924561,464286.11874580383,-8089276.313781738,-8375084.87701416,-9035151.481628418,-10661463.737487793,-11822669.982910156,-10940454.483032227,7428360.462188721,-7856767.654418945,-6556893.825531006,-8023983.001708984,-19368825.912475586,-3880002.26020813,-6248901.3671875,-8780304.908752441,-27188333.51135254
0.24,7064217.090606689,9212243.08013916,20061183.92944336,9737212.181091309,12609846.115112305,-2955188.751220703,-2627844.0952301025,-2289143.5623168945,1840096.354484558,4096682.071685791,6285170.078277588,11918778.419494629,11969978.332519531,-6146411.418914795,-17554037.09411621,-4377435.207366943,-1374451.756477356,-6492057.800292969,-4353724.002838135,-2161760.5686187744,7309933.662414551,4423143.8636779785,-6386490.345001221,-4467062.473297119,-6732690.811157227,-442930.31096458435,-1384839.0579223633,-4060603.141784668,-6049724.102020264,1006607.0556640625,1474200.3679275513,-6143472.194671631,-7740059.852600098,-1196237.9217147827,-2772519.111633301,161695.25682926178,159256.66689872742,19662672.04284668,3834794.521331787,-8824749.946594238,-9610350.608825684,-7633929.72946167,2315047.025680542,3193817.8539276123,1177395.9398269653,8191214.561462402,634894.6690559387,-5093492.9847717285,-5224101.543426514,-5951090.335845947,-3603140.8309936523,-4800812.244415283,-4636999.130249023,7739156.246185303,-4878532.886505127,-3538871.2882995605,-5140139.102935791,-13574807.167053223,1740034.818649292,-2961112.2608184814,-5581740.379333496,-19590476.989746094
0.245,11472663.879394531,13477157.592773438,25745019.912719727,14379699.70703125,17485778.80859375,1410483.717918396,1452252.3880004883,1753873.586654663,2639565.2294158936,4752980.709075928,7544551.849365234,17294412.61291504,17465415.954589844,1840213.2987976074,-9199197.769165039,-1555849.9097824097,-274117.1717643738,-7706049.919128418,-5569170.951843262,-1607014.2984390259,11011805.534362793,9794778.823852539,1582729.3395996094,3416182.279586792,-987818.4199333191,143002.82299518585,-3382647.2759246826,-4726934.909820557,-5829525.470733643,3994455.337524414,8428266.525268555,1768177.3900985718,-578815.4006004333,3154252.052307129,-1563783.5264205933,-1568292.6177978516,225179.7467470169,19916301.727294922,6992223.262786865,-2074885.1299285889,-2914468.765258789,1471279.8595428467,6348339.080810547,7076410.77041626,619490.8022880554,11153912.544250488,1744423.0318069458,359318.5245990753,239759.95182991028,-465555.01222610474,2892436.5043640137,1922376.8711090088,1405885.934829712,10877843.856811523,571296.6322898865,1967159.2712402344,212463.00637722015,-6070394.039154053,8290710.44921875,2066499.7100830078,61229.80639338493,-9519531.25
0.25,18087682.723999023,21010147.094726562,34453205.10864258,19334938.049316406,24212450.02746582,5925415.0390625,5738195.896148682,6078954.219818115,5034601.68838501,6725192.070007324,10521358.489990234,24034931.182861328,24151208.877563477,9685882.568359375,-3245090.0077819824,-215736.38916015625,509658.0982208252,-8343828.201293945,-5028845.310211182,33705.934882164,14111642.837524414,15940712.928771973,9258082.389831543,7948552.60848999,1421979.7849655151,654909.7299575806,-4114351.272583008,-4786137.580871582,-4378998.279571533,7087856.292724609,14898902.893066406,9633563.995361328,3400767.8031921387,5026703.357696533,-1124083.2805633545,-2658856.6303253174,268065.7207965851,20964872.360229492,9705762.86315918,3318238.2583618164,2417330.9803009033,6311474.323272705,7982780.933380127,8677895.545959473,2037340.4026031494,14730340.003967285,3788948.0590820312,6083671.569824219,5948314.189910889,5305096.626281738,6108029.365539551,5384404.65927124,4614838.600158691,14720394.134521484,6485015.392303467,7817696.571350098,5954318.523406982,-899750.5307197571,12767404.556274414,6465937.614440918,5898620.60546875,-4465742.111206055
0.255,21036441.802978516,24585050.582885742,38520397.1862793,20328775.40588379,26534877.77709961,8247354.507446289,8039769.172668457,8334506.034851074,7062007.427215576,7510227.203369141,11607474.327087402,25771705.627441406,25715408.325195312,11944661.140441895,-1519473.1950759888,461190.6707286835,3809660.1963043213,-6492053.508758545,-3744008.5411071777,928749.8593330383,14026645.66040039,17744560.24169922,11412570.95336914,9203700.065612793,2598026.990890503,4811933.0406188965,-1336917.757987976,-4083398.8189697266,-3141626.5964508057,7688763.618469238,16442413.330078125,11994054.794311523,4992777.347564697,6815442.085266113,2486397.5048065186,-249358.71362686157,369850.60572624207,20543733.596801758,9950159.072875977,4608939.647674561,3776279.6878814697,6994781.494140625,9343411.445617676,10140625.0,5530454.158782959,16201375.961303711,4309280.872344971,7707104.682922363,7641674.518585205,7041403.293609619,6865606.784820557,6199914.455413818,5461323.261260986,16246496.200561523,8419015.884399414,9605416.297912598,7716633.7966918945,299182.80243873596,13899591.445922852,7668073.654174805,7671734.33303833,-6637621.879577637
0.26,17002819.061279297,20317089.080810547,34546073.91357422,15615140.914916992,21973743.438720703,6132134.914398193,6075191.020965576,6279793.739318848,5793169.021606445,4946224.689483643,8348599.433898926,20607265.47241211,20427297.592163086,7675454.139709473,-4233045.1011657715,-946380.3172111511,6643821.239471436,-4416096.210479736,-4133908.271789551,-694049.7756004333,10997251.510620117,13516424.179077148,7237471.580505371,7193122.386932373,2706154.3464660645,8722650.527954102,1654095.17288208,-3861634.0160369873,-4127097.6066589355,4173051.8341064453,11770326.614379883,7791760.444641113,3709343.671798706,7264133.453369141,6348489.284515381,2950325.0122070312,361747.3244667053,17017478.942871094,6201793.193817139,576166.6893959045,-116835.0875377655,4983606.338500977,9590573.31085205,10488887.786865234,7511305.332183838,14091861.724853516,1215448.3795166016,2575474.739074707,2591397.0470428467,2037286.5200042725,5597253.322601318,4847319.602966309,4090591.9075012207,13950813.293457031,3451215.2671813965,4519780.63583374,2735074.520111084,-2289796.3523864746,11410374.641418457,4236500.263214111,2711357.1166992188,-12327743.530273438
0.265,8625718.116760254,11402340.88897705,26069606.78100586,8446925.163269043,14722589.492797852,-52747.2123503685,84144.60718631744,328000.2176761627,1889657.974243164,1366190.791130066,3829358.5777282715,14012872.695922852,13839009.284973145,1428480.5059432983,-10433353.424072266,-6530924.320220947,4161304.473876953,-4925529.003143311,-5389074.325561523,-2895881.175994873,8801538.467407227,7962186.336517334,1156857.4905395508,1314179.1820526123,-1527671.5755462646,5731544.494628906,658371.1504936218,-4613890.171051025,-6460120.20111084,-469035.5360507965,5147832.870483398,1519818.7828063965,-1735959.4106674194,2761945.4860687256,3756056.308746338,2088031.530380249,70578.84335517883,12378803.253173828,747176.2299537659,-5886306.285858154,-6602345.4666137695,490576.5950679779,5596734.523773193,6467946.529388428,4457608.222961426,9324013.710021973,-3967050.790786743,-5832580.089569092,-5848924.160003662,-6326379.299163818,1538447.380065918,718836.6055488586,-154610.81266403198,9078162.19329834,-5086972.713470459,-4056442.2607421875,-5620668.888092041,-6974604.606628418,6391342.1630859375,-2025171.5183258057,-5730762.481689453,-16701559.066772461
0.27,2839267.7307128906,5327476.501464844,20003473.28186035,4708564.281463623,11297113.418579102,-5637715.816497803,-5323471.546173096,-4998982.906341553,303378.99923324585,1812396.2879180908,3810938.1198883057,12851103.782653809,12761684.41772461,-940034.3298912048,-16705186.84387207,-13812335.968017578,-1629375.4577636719,-6381002.902984619,-3620595.2167510986,-1465636.0149383545,10991708.755493164,7230402.946472168,-1146707.29637146,-5940655.23147583,-9487441.062927246,-2361898.66065979,-2904064.655303955,-4705132.007598877,-6451983.451843262,-893843.7104225159,2806452.512741089,-900352.954864502,-8870276.45111084,-5084240.436553955,-4528438.568115234,-2385577.917098999,-298983.69312286377,10358543.395996094,-1632620.6922531128,-9252774.238586426,-10213555.335998535,-5378348.827362061,-1580056.6673278809,-877673.0298995972,-1886169.43359375,4690873.622894287,-7481358.051300049,-10431398.391723633,-10542522.430419922,-10976767.539978027,-3989528.179168701,-4837138.1759643555,-5712566.375732422,4649588.108062744,-9954810.14251709,-8885980.606079102,-10252845.764160156,-10735258.102416992,1828980.9226989746,-6572278.022766113,-10633149.147033691,-17983148.5748291
0.275,4607990.741729736,7040385.723114014,20703844.07043457,7014952.659606934,13633135.795593262,-5608520.030975342,-5169910.907745361,-5068798.065185547,3830848.6938476562,6889177.322387695,8923672.676086426,17329160.690307617,17319314.95666504,2046977.0431518555,-18325233.459472656,-16719062.805175781,-3719340.0859832764,-5287383.079528809,1718216.7768478394,3690309.524536133,16008741.37878418,11462162.971496582,1805383.6822509766,-8859346.389770508,-14001227.378845215,-6367191.314697266,-4127645.492553711,-2786821.3653564453,-2818984.031677246,3565345.7641601562,6077804.5654296875,2072458.9824676514,-11851263.999938965,-8958065.9866333,-9517291.069030762,-4936992.645263672,-354906.5887928009,11842725.75378418,569623.3510971069,-7154267.78793335,-8326242.446899414,-8724143.028259277,-5610109.329223633,-5105620.384216309,-5816848.7548828125,2860809.326171875,-7619546.413421631,-8135366.439819336,-8250698.089599609,-8733315.467834473,-6635798.931121826,-7532718.658447266,-8226221.084594727,3124604.2251586914,-7776380.53894043,-6624187.469482422,-7969198.703765869,-10595887.184143066,1098794.8179244995,-5977255.821228027,-8580576.89666748,-16784984.588623047
0.28,11581335.067749023,14160255.432128906,26384082.794189453,11694745.063781738,17496265.411376953,-909345.0307846069,-495028.64480018616,-977505.087852478,8039226.531982422,10370342.254638672,12808244.705200195,21205125.80871582,21236095.428466797,6460771.083831787,-14100442.886352539,-13238269.805908203,-689926.028251648,-2724079.370498657,4940673.828125,6826523.303985596,18211889.266967773,14905775.07019043,6189336.776733398,-4902718.544006348,-10445975.303649902,-2731966.495513916,-2215501.546859741,-572970.1519012451,416304.0816783905,7395593.643188477,10007112.503051758,6480169.296264648,-8219229.698181152,-5168054.580688477,-6345963.001251221,-2848428.726196289,-69050.33439397812,14042370.796203613,3595836.400985718,-3085535.5262756348,-4185021.8772888184,-6226480.484008789,-2590736.3891601562,-2147608.757019043,-4697951.793670654,4270075.32119751,-6105971.813201904,-2830257.1773529053,-2864223.2418060303,-3403992.176055908,-3594277.3818969727,-4529258.728027344,-5068823.81439209,4591537.952423096,-2334243.059158325,-1126567.006111145,-2609038.3529663086,-6054881.572723389,4879266.262054443,-1272641.5395736694,-3134383.9168548584,-13703221.321105957
0.285,15924628.257751465,18959594.7265625,30593435.287475586,12775828.36151123,17793888.092041016,1888841.8674468994,2107236.623764038,1168638.825416565,6390868.186950684,6755699.157714844,10121912.002563477,19831871.032714844,19877264.02282715,7718359.94720459,-8840732.57446289,-8787335.395812988,935793.6382293701,-3610132.6942443848,1075556.0398101807,3711219.549179077,14848257.064819336,13515913.009643555,7451121.3302612305,895194.5304870605,-4522163.867950439,1161148.190498352,-1561144.3519592285,-990578.9494514465,-1083616.4951324463,6209444.999694824,9739267.349243164,7696550.8460998535,-2655229.5684814453,611932.4564933777,-1239807.9633712769,93702.49509811401,154086.1874818802,14378337.860107422,3561503.8871765137,-1936905.3840637207,-2760779.857635498,-209123.00050258636,3047705.65032959,3627897.5009918213,-2249686.9564056396,6659606.456756592,-5364048.957824707,-225867.42043495178,-268209.69581604004,-748984.5156669617,1951426.0292053223,1084273.4575271606,505768.5375213623,6810983.180999756,464372.54548072815,1644328.8326263428,14911.571517586708,-394938.3795261383,9571905.136108398,2918219.566345215,-179267.0339345932,-9796383.85772705
0.29,12302260.398864746,15683349.609375,27984148.025512695,8493694.305419922,13986519.813537598,-1601064.8012161255,-1565342.5455093384,-2350196.599960327,-717993.9150810242,-1171300.6496429443,3546533.1077575684,15159775.733947754,15215237.617492676,5228471.755981445,-8602315.902709961,-9718461.990356445,-3349956.750869751,-9274160.385131836,-6775267.601013184,-2234697.5803375244,9553363.800048828,9464764.595031738,4962523.937225342,1221838.7126922607,-5408614.635467529,-2268528.938293457,-4850775.241851807,-4048181.5338134766,-5868537.425994873,2415354.7286987305,6189565.658569336,5169384.002685547,-1637369.155883789,474881.76822662354,-2426403.284072876,-519212.7227783203,32747.46611714363,13354829.788208008,1400311.827659607,-4214754.581451416,-4852635.383605957,2770755.2909851074,3682495.8324432373,4466943.740844727,-3195066.213607788,7301882.266998291,-5735985.279083252,-1587241.291999817,-1796602.0107269287,-2144065.8569335938,3647463.321685791,2912681.5795898438,2224750.04196167,7392632.961273193,-906384.7064971924,230351.62687301636,-1483310.9378814697,1592153.787612915,10142090.797424316,2790767.192840576,-1457910.0608825684,-7830810.070037842
0.295,4373041.152954102,7226191.520690918,20573152.542114258,3049498.5580444336,9966375.350952148,-7895747.184753418,-7852978.229522705,-8056103.706359863,-6187283.039093018,-6022216.320037842,-284409.1057777405,12073317.527770996,12145792.007446289,2165163.278579712,-13196016.311645508,-15162038.803100586,-9118049.621582031,-14943447.11303711,-11356081.008911133,-4778252.601623535,7181461.811065674,7251354.694366455,1898377.4185180664,-4236576.080322266,-12788823.127746582,-9801544.189453125,-9023885.726928711,-6902965.068817139,-8819194.793701172,1011725.664138794,3868148.5652923584,2127824.306488037,-5499573.230743408,-5074799.060821533,-8466414.451599121,-3404316.9021606445,-256432.9206943512,12862949.37133789,735391.37840271,-6301463.603973389,-6987877.368927002,-111173.16782474518,-1496829.628944397,-610836.7443084717,-6542563.438415527,6052142.62008667,-5726630.210876465,-3697902.9178619385,-4064549.446105957,-4377083.301544189,-267308.95042419434,-967402.458190918,-1650922.0600128174,6318284.98840332,-3237146.6159820557,-2037112.7128601074,-3826984.8823547363,-1568955.1830291748,5613718.032836914,-1058720.4694747925,-3881119.966506958,-9813219.07043457
0.3,3478669.4049835205,5442616.4627075195,19124757.766723633,2788813.1141662598,10690934.181213379,-9118192.672729492,-9037765.502929688,-8918060.302734375,-5332540.988922119,-5294782.1617126465,645338.7141227722,13069569.58770752,13160844.802856445,2345185.9951019287,-15332607.26928711,-17830642.700195312,-9391542.434692383,-16091972.351074219,-11040071.487426758,-3467216.4916992188,7869209.289550781,8542999.267578125,2088480.4725646973,-7909507.274627686,-16731210.708618164,-12116409.301757812,-9941627.502441406,-8026554.107666016,-8315997.123718262,2632645.1301574707,5157942.295074463,2348911.762237549,-8300493.240356445,-7930410.861968994,-10948615.074157715,-4136084.0797424316,-412087.3510837555,13289865.493774414,2699338.19770813,-5204493.522644043,-6040349.960327148,-3770754.814147949,-5328253.746032715,-4449174.404144287,-7064566.135406494,5555984.4970703125,-4022067.5468444824,-3235099.7924804688,-3572370.2907562256,-3991899.7287750244,-4293897.1519470215,-5088261.127471924,-5706407.54699707,5975856.781005859,-2953701.972961426,-1602875.7095336914,-3470271.8257904053,-5988410.472869873,923177.3614883423,-4215188.980102539,-3741299.1523742676,-13340109.825134277
0.305,20058622.360229492,23081617.35534668,35953220.36743164,11582834.243774414,19776060.104370117,-993529.200553894,-1208424.44896698,-1424512.8631591797,-432546.79441452026,-2607308.3877563477,3436602.1156311035,18307161.331176758,18403106.689453125,7873558.521270752,-8550281.524658203,-12527995.109558105,-4062386.989593506,-13799688.339233398,-10624539.375305176,-2736866.7125701904,8937650.680541992,12563091.278076172,7580948.352813721,-3729182.9586029053,-11081194.877624512,-6649859.428405762,-8073823.928833008,-8788397.789001465,-7575817.584991455,4228113.651275635,8845361.709594727,7838912.9638671875,-5651117.324829102,-3415500.6408691406,-6633816.719055176,-1964529.9911499023,-424389.511346817,13670708.656311035,5305499.076843262,-1352507.9488754272,-2216533.660888672,-1804872.5128173828,-2138674.49760437,-1279088.2587432861,-2892005.9204101562,7807260.513305664,-877181.351184845,218089.32721614838,46083.91597867012,-472531.4676761627,-2508621.6926574707,-3362789.6308898926,-3998004.674911499,8149607.6583862305,546010.3750228882,1978634.8342895508,125891.47686958313,-6872403.144836426,1482600.450515747,-3021494.150161743,-280400.3655910492,-13795338.63067627
0.31,54026546.478271484,61701656.341552734,72667724.609375,28492851.25732422,37538043.97583008,13694397.926330566,12806077.95715332,11918395.99609375,4812204.360961914,13797.244988381863,7044138.431549072,27550437.927246094,27634447.09777832,17648307.80029297,4982139.110565186,-1746243.5960769653,1479108.0951690674,-11402093.887329102,-12349083.90045166,-3622172.1172332764,10319135.665893555,18488050.46081543,17202011.108398438,5209424.4956970215,-1258696.9137191772,75819.44018602371,-6709308.14743042,-10119709.968566895,-8778023.719787598,4580658.912658691,12606245.040893555,17459255.21850586,-375679.1651248932,3765533.924102783,-1075413.5847091675,-382020.5330848694,-455351.7997264862,13443373.680114746,6726781.368255615,2430548.4294891357,1731369.4953918457,3982244.0147399902,4821750.164031982,5636195.659637451,1540779.2329788208,11003794.67010498,1756267.4283981323,4179957.866668701,4122465.133666992,3613429.307937622,3291786.4322662354,2521705.389022827,1876807.9280853271,11190998.077392578,4656463.146209717,6041603.088378906,4328099.250793457,-5092934.608459473,5904402.256011963,900232.73229599,3873576.4026641846,-11305036.544799805
0.315,92117713.92822266,106192451.47705078,114562026.97753906,47789443.96972656,58604648.59008789,28526742.935180664,27009422.302246094,25778079.986572266,10706297.874450684,5368818.759918213,13752678.871154785,38782791.13769531,38867614.74609375,27052272.79663086,16671390.533447266,7765949.249267578,4652542.1142578125,-8959583.282470703,-11959737.777709961,-2087139.60647583,14105802.536010742,24867942.810058594,26372604.370117188,11101155.281066895,4071740.15045166,2402744.2932128906,-6521514.415740967,-10299754.14276123,-9831898.68927002,5205841.541290283,14728096.961975098,26645429.611206055,1565003.2758712769,6458940.505981445,216797.90318012238,-1383355.8559417725,-501677.15549468994,12568727.493286133,6880085.468292236,3522343.635559082,3042905.569076538,5249889.373779297,8077053.070068359,8744754.791259766,1582447.88646698,11335745.811462402,1652052.402496338,5376520.63369751,5306565.284729004,4815120.697021484,5735948.085784912,5080345.153808594,4634823.322296143,11509970.664978027,5840282.917022705,7170133.113861084,5610414.505004883,-6179869.651794434,7351390.361785889,1981562.852859497,5098526.477813721,-11354989.051818848
0.32,116317695.61767578,134125244.140625,140253234.86328125,61706905.364990234,73202262.87841797,38858875.2746582,37135330.20019531,36233798.98071289,18546743.392944336,14689176.559448242,23027011.87133789,46936172.48535156,47053127.28881836,31326828.002929688,21733726.501464844,12690787.315368652,7815098.762512207,-4563591.003417969,-6205594.539642334,3330042.3622131348,19474863.052368164,28846544.26574707,30462612.15209961,12176254.272460938,4761546.1349487305,2246273.5176086426,-5204511.1656188965,-7963422.775268555,-8586102.485656738,6552581.310272217,14602018.356323242,30717670.440673828,-209395.73645591736,4811273.097991943,-877088.189125061,-2641905.5461883545,-444735.3482246399,10769076.347351074,6432603.359222412,2076050.5199432373,1682680.606842041,-558584.0344429016,6266960.620880127,6773885.726928711,-1036691.427230835,8159731.864929199,-1034391.1647796631,3412427.4253845215,3296330.690383911,2706135.034561157,2607532.262802124,1935242.8913116455,1761763.8111114502,8382212.6388549805,3671213.8652801514,5023066.997528076,3528303.861618042,-11019820.213317871,3650979.518890381,-1742139.9354934692,2981306.314468384,-15509924.88861084
0.325,117045059.20410156,133148437.5,138625183.10546875,65110137.939453125,74009292.60253906,43783187.86621094,42169090.270996094,42032695.77026367,25410209.65576172,22633171.08154297,28817617.416381836,47541515.3503418,47678180.69458008,30550039.291381836,24328243.255615234,15671753.883361816,12544220.924377441,596459.4483375549,505232.45334625244,7482181.549072266,22165157.318115234,28789340.97290039,29633794.7845459,14920113.563537598,7791827.67868042,4147389.8887634277,-1971138.4773254395,-5348450.183868408,-6824237.823486328,7112442.0166015625,13569917.678833008,29851228.713989258,996519.2675590515,5508215.427398682,947979.3906211853,-1359906.554222107,-351317.49510765076,8253608.703613281,6247557.640075684,1721747.636795044,1257348.656654358,-4511766.43371582,5848565.578460693,6373609.0660095215,-545375.1087188721,5514415.740966797,-2923140.048980713,2737551.9275665283,2660024.881362915,1912523.865699768,1295234.0841293335,498642.1763896942,195833.83202552795,5653452.396392822,2865393.1617736816,4222126.007080078,2723878.6220550537,-11413634.300231934,2290275.5737304688,-3994084.119796753,2279696.7029571533,-15785223.007202148
0.33,98420600.89111328,108777069.09179688,115283737.18261719,58209335.32714844,61973423.00415039,43991802.21557617,42467777.252197266,42980110.16845703,26135103.225708008,22682374.954223633,26072544.09790039,41286838.53149414,41366615.295410156,29159994.12536621,30363180.16052246,20047655.10559082,16130725.860595703,2514683.246612549,1423908.9488983154,5339125.633239746,19862094.87915039,26472614.288330078,28312965.393066406,24357952.117919922,15874106.407165527,7808733.4632873535,627812.2067451477,-5827709.197998047,-7328598.0224609375,6517536.640167236,14236858.367919922,28597465.51513672,10200275.421142578,12121649.742126465,6259724.6170043945,1568649.411201477,-438790.1723384857,6647363.662719727,7409288.8832092285,6136402.606964111,5608665.943145752,2951086.5211486816,11833400.72631836,12533752.44140625,4680201.053619385,7078945.159912109,-976095.2591896057,8477475.1663208,8531212.80670166,7724529.74319458,9365968.704223633,8485444.068908691,7449945.92666626,7090290.069580078,8750836.372375488,10004879.95147705,8487586.02142334,497986.8531227112,11240325.927734375,3102874.279022217,8267113.68560791,-3890074.2530822754
0.335,71042121.88720703,75126335.14404297,82960998.53515625,44720146.17919922,43985347.747802734,39447441.10107422,37934059.143066406,38604892.73071289,19700160.98022461,15227944.374084473,17059272.76611328,32594367.98095703,32566806.79321289,29408817.291259766,38057651.51977539,24360811.233520508,15287687.301635742,-206555.38141727448,-3239598.274230957,-878103.3754348755,15081515.312194824,24391456.604003906,28714086.532592773,36293556.213378906,23173816.680908203,9167796.13494873,123424.76099729538,-9107367.515563965,-9287144.660949707,6403133.869171143,17157341.00341797,29211805.34362793,23431388.85498047,20417375.564575195,10460341.453552246,3009592.294692993,-724012.7325057983,7492120.742797852,10111824.035644531,14124629.974365234,13660851.47857666,18992507.934570312,20847929.000854492,21617815.017700195,9814742.088317871,11377699.851989746,3371967.077255249,19512088.775634766,19683139.80102539,18955820.083618164,23877862.93029785,23002239.227294922,21059198.3795166,11482214.92767334,20052795.41015625,21190694.80895996,19641878.128051758,20646913.528442383,27448759.078979492,18226634.979248047,19588386.53564453,16289823.532104492
0.34,42511722.564697266,41788692.474365234,50043674.46899414,28696903.228759766,26095792.770385742,30495962.142944336,29104999.542236328,29543472.290039062,10602155.685424805,6680321.69342041,8319641.11328125,24430797.576904297,24366308.212280273,28197244.64416504,40384067.53540039,24680250.16784668,11033514.022827148,-4255676.26953125,-7060884.952545166,-5042410.373687744,11368528.366088867,22105377.197265625,27709699.630737305,42936367.03491211,23999248.504638672,7235128.879547119,-2466763.734817505,-11497379.302978516,-9842391.014099121,7355843.067169189,19277908.325195312,28374881.744384766,32446689.60571289,24798740.38696289,10884469.985961914,2023096.5614318848,-930905.3421020508,9808905.601501465,12680785.179138184,20049896.240234375,19675945.281982422,31980323.791503906,26295419.692993164,26908458.709716797,10530714.03503418,14117238.998413086,5604477.882385254,28380619.049072266,28530118.942260742,27929315.5670166,34961334.228515625,34083679.19921875,31638681.411743164,14540616.989135742,28994155.883789062,30129852.294921875,28560937.881469727,36772640.228271484,40067153.93066406,31234785.079956055,28496677.39868164,32109420.776367188
0.345,16220617.294311523,11767863.273620605,20090467.45300293,13704782.485961914,10932643.89038086,20198930.740356445,19067247.39074707,19307058.334350586,3625435.8291625977,1563880.0859451294,3191044.569015503,16942575.454711914,16969427.10876465,22477869.033813477,35831996.91772461,21019395.82824707,7462976.932525635,-6066894.054412842,-6534178.733825684,-5299634.4566345215,9156762.12310791,17771879.196166992,22204954.147338867,43283428.19213867,20821428.298950195,5432653.903961182,-4153884.8876953125,-10918668.746948242,-8915363.311767578,7687004.566192627,17754423.141479492,22766410.82763672,34986961.364746094,25595785.14099121,10265137.672424316,691478.967666626,-838216.8412208557,10894862.174987793,13255345.344543457,20411224.365234375,19998771.66748047,36441329.95605469,27342901.2298584,27777692.794799805,8785197.257995605,14109995.84197998,3962933.7787628174,29901241.302490234,29892847.061157227,29376245.498657227,38498859.40551758,37530681.61010742,35047092.43774414,14789236.068725586,30355606.079101562,31546209.33532715,30026428.22265625,43278194.427490234,44173633.57543945,35490356.4453125,29852205.276489258,37735507.96508789
0.35,-4948631.286621094,-12898227.69165039,-3366551.8760681152,2614752.0542144775,-398856.9676876068,12690811.157226562,11731739.044189453,12107258.796691895,-742809.7128868103,-1369508.3856582642,-97160.15309095383,10144997.596740723,10270628.929138184,14693992.614746094,30777797.69897461,17608137.130737305,6266266.345977783,-6232721.80557251,-5066463.470458984,-5184103.488922119,6844135.284423828,12077489.852905273,14586098.670959473,42774002.07519531,19652088.165283203,5635939.598083496,-4088993.549346924,-9359579.086303711,-9248456.954956055,6215502.738952637,14065082.550048828,14842130.661010742,35817077.63671875,26523019.790649414,11763944.625854492,741079.3900489807,-551411.2710952759,9983129.501342773,12249810.218811035,17901500.701904297,17386159.896850586,37596881.86645508,28337532.04345703,28779100.41809082,9085533.142089844,14277423.858642578,1797914.3857955933,27365886.688232422,27237091.064453125,26722215.65246582,39440299.98779297,38336368.560791016,35874038.69628906,15000074.38659668,27729703.903198242,28896759.033203125,27453889.846801758,45935165.40527344,45144947.05200195,35220054.626464844,27218851.08947754,39363212.58544922
0.355,-19171201.705932617,-30244131.088256836,-18121204.376220703,-4511636.257171631,-7996104.717254639,8331772.804260254,7350085.735321045,8088882.4462890625,-5244484.901428223,-5482141.971588135,-4284540.176391602,4661276.817321777,4730282.306671143,9226394.653320312,29469520.568847656,16319963.455200195,4776012.897491455,-7796183.5861206055,-7184612.274169922,-7594800.94909668,3939823.1506347656,7555584.43069458,9227047.92022705,43487449.645996094,20556665.420532227,4929721.832275391,-4442730.42678833,-9648022.651672363,-11788939.476013184,4090560.4362487793,11680809.97467041,9307867.050170898,37698257.44628906,27402673.721313477,13733565.330505371,1266848.6833572388,-329191.8933391571,9297513.961791992,11532530.784606934,16827386.8560791,16349882.125854492,40312534.33227539,30505144.119262695,31054323.196411133,11302062.034606934,16613431.930541992,2645948.886871338,27027982.711791992,26980894.088745117,26369388.580322266,41890285.49194336,40728328.704833984,38100307.46459961,17336956.024169922,27578771.591186523,28670770.6451416,27197206.497192383,50127094.26879883,48090408.32519531,37244968.41430664,26968702.31628418,43080478.66821289
0.36,-28811594.009399414,-42046222.68676758,-27498334.884643555,-11050219.535827637,-14380197.525024414,3127988.10005188,2107921.838760376,3113522.0527648926,-11686837.196350098,-11653196.334838867,-9842480.659484863,-93165.41999578476,-210427.6716709137,5804806.232452393,27512653.350830078,13799595.832824707,67163.67602348328,-11632185.935974121,-12493050.575256348,-11399859.428405762,1215486.4072799683,4581379.8904418945,5896056.175231934,40934192.6574707,17996702.194213867,359347.6116657257,-7145145.416259766,-11755194.664001465,-14014486.312866211,2786695.957183838,10716210.36529541,6122176.647186279,36852325.439453125,24325824.737548828,12219103.813171387,411031.24618530273,-264861.73272132874,10638637.54272461,11482415.199279785,16826692.581176758,16539394.37866211,41030014.03808594,29675445.556640625,30246425.62866211,11203945.15991211,19053852.081298828,5220663.547515869,28901250.8392334,29058996.200561523,28297201.15661621,42398071.2890625,41344848.6328125,38539905.5480957,19879936.21826172,29720310.21118164,30815601.348876953,29216085.43395996,51690483.09326172,49710063.93432617,40024448.39477539,28960958.48083496,45075157.165527344
0.365,-37570312.5,-51775886.53564453,-36571735.38208008,-19204366.68395996,-21762767.791748047,-5001318.93157959,-5874541.282653809,-4864578.723907471,-18355195.999145508,-17696445.46508789,-15145296.096801758,-5161057.472229004,-5402491.569519043,980886.697769165,19513027.19116211,7388722.4197387695,-6396563.529968262,-15382225.036621094,-17016473.7701416,-14082852.363586426,-959329.2474746704,1286438.4651184082,1146907.925605774,32221614.837646484,10255546.569824219,-5776106.834411621,-11012845.039367676,-13463734.62677002,-13516372.680664062,2127993.8220977783,8276150.703430176,1645615.4584884644,29781963.348388672,16913221.35925293,7236539.363861084,-1915308.5947036743,-261612.23649978638,12462681.770324707,10622406.005859375,14345901.489257812,14166481.018066406,34740882.873535156,23532770.15686035,24050951.00402832,7504190.444946289,18663860.321044922,5569746.971130371,27435146.33178711,27671880.7220459,26826320.64819336,36553325.65307617,35739936.82861328,33011631.01196289,19539566.040039062,28269176.483154297,29413454.055786133,27834743.49975586,44579212.1887207,44754173.278808594,36713226.318359375,27475196.838378906,39047485.3515625
0.37,-44199268.34106445,-58209827.4230957,-44104015.3503418,-25725870.13244629,-27644903.1829834,-11934988.021850586,-12507589.340209961,-11664979.934692383,-21379035.94970703,-20667108.5357666,-17864173.889160156,-9184554.100036621,-9384616.85180664,-5135892.868041992,8709801.67388916,512944.5195198059,-9878499.031066895,-16622686.386108398,-18257747.650146484,-14845248.222351074,-2684195.2800750732,-2541161.060333252,-4971248.626708984,22029157.638549805,3191954.6127319336,-8419596.672058105,-12924206.733703613,-13439374.923706055,-11098864.555358887,1339698.5530853271,3811308.3839416504,-4388060.092926025,20056497.57385254,10578341.484069824,3297064.781188965,-3941287.9943847656,-221450.99937915802,11948094.367980957,8184461.59362793,8902918.815612793,8609925.270080566,24466716.766357422,16482583.999633789,16997789.38293457,4092391.4909362793,15809593.200683594,2842229.6047210693,20467399.59716797,20580375.67138672,19788135.528564453,27355873.107910156,26761560.440063477,24366401.67236328,16475709.915161133,21061462.40234375,22119581.22253418,20851566.314697266,32365020.751953125,35505413.05541992,26908105.850219727,20392641.067504883,27740047.454833984
0.375,-43826229.095458984,-56625629.42504883,-44036533.35571289,-25729454.040527344,-27192468.643188477,-12539676.666259766,-12827444.076538086,-12179422.378540039,-18915765.7623291,-19398799.896240234,-16618213.653564453,-9420392.036437988,-9509324.073791504,-8538218.49822998,3024477.005004883,-1557340.8603668213,-8244839.668273926,-15611984.252929688,-16999773.025512695,-14298271.179199219,-3605262.9947662354,-4648087.024688721,-8485915.184020996,16677463.53149414,2395711.1835479736,-6609442.710876465,-11549864.768981934,-12275031.089782715,-9198426.246643066,553888.4997367859,444975.1079082489,-8046611.785888672,14129936.218261719,9583434.104919434,3399987.4591827393,-4254601.955413818,-115822.64304161072,9069183.349609375,5399468.898773193,4104452.133178711,3640214.204788208,17930286.407470703,14158621.788024902,14714369.773864746,4153636.4555358887,13347870.826721191,187914.25228118896,12852602.005004883,12842283.248901367,12161801.3381958,21848556.518554688,21315246.58203125,19321262.35961914,13641597.747802734,13274567.604064941,14092439.651489258,13189466.47644043,24888475.41809082,29153347.01538086,18729614.2578125,12730915.069580078,19984207.153320312
0.38,-36523670.1965332,-47806667.32788086,-36043491.36352539,-20341123.580932617,-21048488.61694336,-8349448.204040527,-8483328.819274902,-7992086.887359619,-13909236.907958984,-15898952.48413086,-12910565.376281738,-6477437.496185303,-6498393.535614014,-7829807.758331299,3794147.9682922363,809146.5830802917,-4873764.514923096,-14462616.920471191,-15389019.012451172,-13361872.673034668,-3529236.7935180664,-4205851.5548706055,-7930482.864379883,15970780.372619629,5676614.284515381,-4500821.590423584,-8894673.347473145,-11167920.112609863,-8972888.946533203,-5246.198270469904,75409.22611951828,-7629035.949707031,13041870.1171875,11518003.463745117,5414495.468139648,-3181449.6517181396,65873.10880422592,6627634.048461914,3789519.0715789795,2542277.0977020264,2082922.4586486816,17415582.65686035,16077501.29699707,16625022.888183594,5794942.378997803,13046164.512634277,275130.12290000916,10242006.301879883,10278826.713562012,9663698.196411133,21834253.311157227,21224905.014038086,19557514.190673828,13106515.884399414,10749167.442321777,11405254.364013672,10566886.901855469,25372417.449951172,28199527.740478516,18446571.350097656,10211592.674255371,18831226.348876953
0.385,-29406959.533691406,-39966880.798339844,-28299789.428710938,-16264041.900634766,-16289501.190185547,-5848585.605621338,-6005155.086517334,-5582454.204559326,-11397021.293640137,-13928169.250488281,-10591664.31427002,-4779726.982116699,-4759207.725524902,-6361862.1826171875,4819799.900054932,2560803.4133911133,-4337659.83581543,-14424690.246582031,-14877056.121826172,-13233016.967773438,-3473883.628845215,-3565828.0849456787,-6527686.595916748,15224411.010742188,6877521.991729736,-5299302.101135254,-7784080.028533936,-10754768.371582031,-10060257.911682129,-1013108.7303161621,493805.2296638489,-6203911.304473877,12722866.05834961,11533009.52911377,5715148.92578125,-1938017.725944519,276211.11273765564,6321012.496948242,3487142.324447632,3022948.2650756836,2755893.9456939697,18534036.63635254,17364383.697509766,17856811.5234375,5784201.145172119,14413849.830627441,2303114.891052246,12697184.562683105,12843990.325927734,12273914.337158203,22998245.239257812,22319812.774658203,20883996.963500977,14502324.104309082,13376996.994018555,14116270.065307617,13051412.582397461,27654058.4564209,28918813.705444336,23172727.584838867,12835927.963256836,19561218.26171875
0.39,-27935808.181762695,-38742492.67578125,-27049074.172973633,-17095878.60107422,-17473171.23413086,-7789495.944976807,-8129237.174987793,-7634765.148162842,-12789784.43145752,-15118987.083435059,-11735470.77178955,-6815001.487731934,-6744620.323181152,-6914932.727813721,1947043.4188842773,1227492.4516677856,-6698867.321014404,-14853436.470031738,-15581516.26586914,-14715861.320495605,-4681641.578674316,-4781770.2293396,-6998003.4828186035,12556094.1696167,4289389.610290527,-7534076.21383667,-8738825.798034668,-11059241.29486084,-11777854.919433594,-2867383.0032348633,-969441.5330886841,-6602401.256561279,10595806.121826172,8921638.488769531,3755233.7646484375,-1322936.1772537231,341570.8541870117,6702618.598937988,3708949.8043060303,3269817.590713501,3213486.1946105957,17503747.940063477,15569616.317749023,15996970.176696777,4513764.381408691,16039522.171020508,3945723.77204895,16016710.28137207,16162197.11303711,15686257.362365723,21835409.16442871,21172441.482543945,19931911.46850586,16260442.733764648,16720575.332641602,17638854.98046875,16431097.030639648,25978282.928466797,27980594.635009766,25788238.525390625,16309045.791625977,18505086.89880371
0.395,-29026556.01501465,-39682029.724121094,-28431056.97631836,-19070262.908935547,-20522285.46142578,-10398638.725280762,-10908812.522888184,-10280838.966369629,-14241722.106933594,-16792098.999023438,-13650219.917297363,-9638248.443603516,-9577149.391174316,-8266727.447509766,-2465780.258178711,-839829.8025131226,-7900803.089141846,-14417988.777160645,-16238786.697387695,-16503286.361694336,-6695930.480957031,-6745523.452758789,-8199953.079223633,9594453.811645508,1375271.201133728,-8351309.776306152,-9862270.35522461,-11481731.414794922,-13004131.317138672,-4517953.395843506,-3591280.460357666,-7838989.734649658,7436293.601989746,6194384.574890137,1425698.6379623413,-1301999.568939209,109766.61741733551,5577924.728393555,3649085.04486084,2453143.1198120117,2499112.606048584,14415703.773498535,12088270.18737793,12379105.567932129,4215859.413146973,16301279.067993164,4091320.514678955,16543096.542358398,16625003.814697266,16235017.776489258,18528541.564941406,17909160.614013672,16934583.66394043,16574249.267578125,17117963.790893555,18051382.064819336,17034408.569335938,21025207.51953125,25130104.064941406,22938034.057617188,16883710.861206055,16656820.297241211
0.4,-25790014.266967773,-34635128.021240234,-24722951.889038086,-16999141.693115234,-18650562.286376953,-9482457.160949707,-9880475.997924805,-9276104.927062988,-11495993.614196777,-14846436.500549316,-11800110.816955566,-9025876.998901367,-9079086.303710938,-8392331.12335205,-5190258.979797363,-1155102.014541626,-5181481.838226318,-12388867.378234863,-14801318.168640137,-15493906.97479248,-7498578.071594238,-7220099.449157715,-8270074.844360352,6803816.795349121,653346.7173576355,-7536135.673522949,-9188618.659973145,-10792950.630187988,-11873274.803161621,-4615417.003631592,-4976241.111755371,-8002179.145812988,3763873.1002807617,4069232.940673828,-62348.71968626976,-1202763.4382247925,-304129.958152771,2960142.6124572754,2606705.904006958,499139.36853408813,532669.6634292603,10046858.787536621,8308050.155639648,8350580.215454102,4407643.3181762695,13619014.739990234,2799796.8196868896,13243300.437927246,13344861.98425293,12931884.765625,13680197.715759277,13086480.140686035,12520836.83013916,13847765.922546387,13656970.024108887,14418021.202087402,13757509.231567383,15314835.548400879,19987934.112548828,16184803.009033203,13455643.653869629,14159404.754638672
0.405,-16331493.377685547,-22442167.282104492,-14957821.8460083,-10987483.024597168,-11402937.889099121,-5442265.033721924,-5397101.402282715,-5074666.500091553,-4920853.137969971,-8595998.764038086,-5343098.163604736,-4982994.079589844,-5130752.086639404,-7528875.827789307,-6672385.215759277,-238613.65020275116,-88459.22350883484,-8797816.276550293,-10124157.905578613,-10086671.829223633,-5752850.532531738,-5973204.612731934,-7533540.725708008,2986210.1078033447,932002.067565918,-6449682.712554932,-6459020.137786865,-8061431.884765625,-7397677.898406982,-3258688.21144104,-4722947.120666504,-7270506.381988525,-935874.8197555542,1353213.6678695679,-635971.2481498718,-165146.69358730316,-571504.7121047974,561544.8951721191,297194.30208206177,-2512043.4761047363,-2537208.318710327,4562849.998474121,4265108.585357666,4109583.3778381348,2693147.897720337,7919689.178466797,231964.64776992798,7252200.603485107,7398784.637451172,6922864.4371032715,7119146.823883057,6599185.466766357,6493258.476257324,8081114.768981934,7498106.956481934,8094470.977783203,7635259.628295898,8717766.761779785,11645390.510559082,8524406.433105469,7206149.578094482,8166965.484619141
0.41,-5360809.326171875,-9796500.205993652,-5181033.134460449,-5248028.27835083,-4387398.719787598,-1160243.272781372,-671019.9117660522,-685520.0529098511,1214617.9676055908,-1839232.2063446045,1678190.5889511108,-1030286.9081497192,-1109883.427619934,-6372757.434844971,-7811582.088470459,686702.0130157471,3963130.474090576,-4490956.3064575195,-3783804.416656494,-2775607.5859069824,-2391406.536102295,-4302353.382110596,-6593375.682830811,-707282.0067405701,736052.9899597168,-5119872.093200684,-3039132.595062256,-4140916.347503662,-1665579.5574188232,-1650604.8440933228,-4187620.6398010254,-6269719.60067749,-5009894.371032715,-1163819.3130493164,-67070.80453634262,1945641.9944763184,-518021.3451385498,-657264.4114494324,-2304026.1268615723,-5211354.2556762695,-5248765.94543457,143371.01578712463,1050739.2883300781,951799.2734909058,-661067.4262046814,1944514.7514343262,-2832804.2030334473,1567435.2645874023,1598924.160003662,1195878.3864974976,920500.5168914795,574720.3826904297,743322.0744132996,2035799.503326416,1632295.7277297974,2181243.896484375,1698559.1650009155,1826259.0169906616,2760987.2817993164,2798808.813095093,1338562.6077651978,-741632.5211524963
0.415,1004533.2908630371,-3439541.1014556885,-395844.07210350037,-2842538.1183624268,-1810604.0954589844,1685296.4162826538,2251507.9975128174,2137993.574142456,3377492.1894073486,974373.6386299133,4691196.441650391,478402.61459350586,548992.5742149353,-4263967.037200928,-6951505.184173584,1765838.861465454,5207667.350769043,-1408789.1578674316,399268.2099342346,1655623.0783462524,135183.73668193817,-2877139.091491699,-4595629.2152404785,-768787.0860099792,832074.2845535278,-2924136.161804199,-876792.1328544617,-1611253.7384033203,1062805.6526184082,-576436.1023902893,-3821730.136871338,-4307439.804077148,-4951830.3871154785,-872483.7899208069,1504836.3208770752,3888600.5878448486,-305894.2258358002,-1158501.386642456,-3312453.9852142334,-5364135.265350342,-5339024.066925049,304116.75572395325,815059.7810745239,970188.7369155884,-2490797.758102417,-615354.5379638672,-4432854.652404785,-186483.2192659378,-413023.4122276306,-599493.5035705566,-739205.539226532,-913043.5585975647,-821833.9681625366,-623759.5081329346,-210289.95513916016,319148.7491130829,-215038.43367099762,-929278.4929275513,-779910.8028411865,1482498.6457824707,-354193.44902038574,-5649660.110473633
0.42,-145501.13677978516,-5061524.391174316,-792445.1231956482,-3856066.7037963867,-3013522.6249694824,2593459.129333496,2889818.9067840576,2935231.6856384277,1467634.3202590942,-1146755.0992965698,2793802.7381896973,59045.322239398956,147977.24783420563,-1328694.224357605,-3066129.9228668213,3072262.763977051,3969788.7897491455,-1647636.05594635,-431453.55582237244,627061.7246627808,47339.74114060402,-1645009.7560882568,-1592818.260192871,3757301.3305664062,2235562.562942505,-919367.253780365,-1256081.3426971436,-2460222.7210998535,-1714383.602142334,-22256.88099861145,-2922450.304031372,-1446411.0136032104,-182306.15556240082,2397690.0577545166,2639268.636703491,3977505.2070617676,-179865.7923936844,-1414622.5452423096,-1817547.9173660278,-2685178.756713867,-2641836.8816375732,5118905.544281006,3588259.45854187,3935922.384262085,-1270838.3798599243,1290459.9905014038,-3039664.9837493896,3209518.6710357666,2806051.015853882,2786059.856414795,3419842.004776001,3255352.735519409,2975312.4713897705,1174327.7311325073,3272910.1181030273,3724040.5082702637,3257417.4404144287,4075188.159942627,3470520.7347869873,5195906.162261963,3239614.963531494,-1127882.719039917
0.425,-6920322.418212891,-12070704.460144043,-4535810.947418213,-6621980.667114258,-5458463.191986084,1504619.5983886719,1519107.460975647,1731975.4362106323,-2046247.0054626465,-5376931.667327881,-1339656.5914154053,-909399.151802063,-969023.9429473877,170062.94429302216,1420484.5428466797,3854128.122329712,1513262.152671814,-5078458.786010742,-5232613.563537598,-4060785.7704162598,-2276022.6726531982,-925341.546535492,22442.912682890892,9593275.07019043,4347671.985626221,-741012.0368003845,-3597976.9229888916,-5876945.495605469,-8125473.0224609375,102355.21197319031,-1561432.7192306519,118636.69008016586,5597302.9136657715,5746668.815612793,2367405.652999878,2091043.9491271973,-182746.23155593872,-1179940.2236938477,988403.856754303,368368.7448501587,239172.38414287567,10482915.878295898,6841757.774353027,7211322.784423828,1108538.9852523804,5362145.900726318,345728.1291484833,9049416.542053223,8656087.875366211,8619930.267333984,9789742.469787598,9457181.930541992,8726763.725280762,5215137.004852295,9244086.265563965,9628993.034362793,9249970.436096191,13858846.664428711,11284111.976623535,11785563.468933105,9139863.967895508,9162961.959838867
0.43,-13609144.21081543,-19976852.416992188,-9930345.53527832,-8636957.168579102,-7670416.355133057,-136411.77117824554,-220848.11329841614,8347.053080797195,-4432559.967041016,-8219277.381896973,-4549509.525299072,-1660985.1121902466,-1849483.9668273926,-981665.9688949585,4085079.1931152344,4385040.760040283,-631515.8009529114,-8766641.616821289,-10073307.037353516,-8614001.274108887,-4761194.705963135,-986734.926700592,-1093623.7573623657,13605304.718017578,6224789.619445801,-1817247.5099563599,-5734973.907470703,-9081375.122070312,-13838506.698608398,-175066.36679172516,-788815.4983520508,-869504.1537284851,9258069.038391113,7553335.189819336,2132525.682449341,2115.462440997362,-225684.38947200775,-245163.6791229248,3104621.8872070312,1761811.61403656,1338821.8879699707,13743155.479431152,9144932.746887207,9495267.868041992,2738958.5971832275,9020276.069641113,3050111.5322113037,13503145.217895508,13186357.498168945,13017595.291137695,14679870.60546875,14143128.395080566,13058152.198791504,8979378.700256348,13694110.870361328,14131763.458251953,13658772.468566895,21687068.939208984,17413364.41040039,18476053.23791504,13446365.356445312,17120643.615722656
0.435,-15339228.630065918,-25029941.55883789,-14927548.4085083,-8098591.8045043945,-9188707.35168457,-13246.733695268631,-135850.41463375092,62714.770436286926,-4875467.300415039,-8951164.245605469,-5923634.052276611,-1752772.0928192139,-1935177.5646209717,-2426845.5505371094,6263353.8246154785,6247000.217437744,-1479380.6076049805,-10138107.299804688,-12472211.837768555,-11227084.159851074,-5558006.763458252,-1005698.9192962646,-2501917.3622131348,16185665.130615234,7858406.066894531,-2063547.134399414,-6255592.823028564,-10484407.424926758,-16318248.748779297,-315884.47093963623,-762681.245803833,-2177856.4453125,11766701.698303223,9432062.149047852,3777161.3597869873,-870135.9629631042,-292758.19659233093,1165892.1241760254,4031184.196472168,2564322.4716186523,1976856.4701080322,16972465.51513672,11849252.700805664,12236594.200134277,4125842.0944213867,11925395.965576172,3963243.246078491,15800091.743469238,15526677.131652832,15218462.944030762,18626089.096069336,17974584.579467773,16629737.854003906,12093779.563903809,15936137.199401855,16519966.125488281,15743802.070617676,25111986.16027832,21821599.96032715,24371686.935424805,15627323.150634766,20559806.82373047
0.44,-13417454.719543457,-27199354.17175293,-17891334.533691406,-6286972.999572754,-10202114.10522461,1759933.7100982666,1519669.2943572998,1776308.6557388306,-5109520.91217041,-9817184.448242188,-6974638.46206665,-1164989.1138076782,-1307507.5149536133,-1468492.865562439,10154734.61151123,9537523.26965332,-1452138.7815475464,-9971146.583557129,-13656197.547912598,-13047902.10723877,-4662532.806396484,29403.503984212875,-1342318.4156417847,18994714.736938477,9287575.721740723,-1007847.0706939697,-6097381.591796875,-11137954.711914062,-16666007.995605469,433342.5164222717,-338006.79445266724,-1141242.0272827148,15195388.793945312,12684686.660766602,6248703.479766846,-1142911.672592163,-406004.54807281494,2893794.059753418,5129834.175109863,5020945.5490112305,4485682.487487793,22558996.200561523,16033754.348754883,16433563.232421875,6033848.285675049,14926400.184631348,4767375.469207764,18335235.595703125,18135705.947875977,17708190.91796875,23775024.4140625,23105346.6796875,21462648.391723633,15307294.845581055,18607053.756713867,19318037.033081055,18249485.01586914,27534687.042236328,27472393.035888672,29606208.80126953,18288648.60534668,24003244.400024414
0.445,-13816588.401794434,-29970233.917236328,-19523437.5,-6532348.6328125,-11577747.344970703,2216207.265853882,1861954.3313980103,2205101.0131835938,-7156068.325042725,-12437353.134155273,-9167973.518371582,-735328.5551071167,-916417.7775382996,684474.5874404907,14263852.1194458,11889594.078063965,-1725067.9731369019,-10644432.067871094,-15598214.149475098,-15349957.466125488,-3467889.0705108643,1634726.643562317,1101142.2872543335,21727687.83569336,10000889.778137207,-170269.9512243271,-6889903.0685424805,-12550879.47845459,-17419372.55859375,1975322.3657608032,1065380.4540634155,1121987.223625183,18746957.778930664,15563652.038574219,6742711.544036865,-2131155.252456665,-478192.3294067383,4998819.828033447,7626374.244689941,8943122.863769531,8475637.435913086,28535835.26611328,20159427.642822266,20473680.49621582,7169156.551361084,17839347.83935547,7273179.054260254,22731529.235839844,22676174.16381836,22181753.158569336,29361320.49560547,28717777.252197266,26666934.967041016,18364168.167114258,23326950.073242188,24101499.557495117,22986211.7767334,31856096.267700195,34272758.48388672,33413909.912109375,22951553.344726562,30042877.197265625
0.45,-19190933.227539062,-35582847.595214844,-22010028.839111328,-9643849.37286377,-13876626.968383789,-319943.96448135376,-651859.8794937134,-315604.20989990234,-10440713.882446289,-15155626.29699707,-11787198.066711426,-1539051.0559082031,-1780809.2832565308,360704.54120635986,14953714.370727539,11431516.647338867,-2584688.901901245,-12319180.488586426,-17464799.880981445,-17256711.959838867,-3100807.6667785645,2024160.623550415,860063.8508796692,22692316.05529785,9857972.145080566,-432470.8878993988,-8396235.466003418,-14214244.842529297,-19492921.829223633,3013277.769088745,2121076.5838623047,970506.3700675964,19949565.887451172,15734794.616699219,4887334.34677124,-3683153.6293029785,-421138.8826370239,7118227.958679199,10624145.5078125,11497653.96118164,10945656.776428223,31022329.330444336,22176115.036010742,22397670.74584961,5849917.411804199,19500520.706176758,10557987.213134766,27157169.342041016,27196571.350097656,26770584.106445312,32418476.104736328,31810888.290405273,29390897.750854492,20103599.548339844,27972640.991210938,28786750.79345703,27836692.810058594,35919258.11767578,38598484.03930664,34687679.290771484,27530542.373657227,34976005.55419922
0.455,-25636201.858520508,-42122547.1496582,-26259029.388427734,-12930150.985717773,-16760391.235351562,-4138423.442840576,-4385650.157928467,-4112856.388092041,-12949355.125427246,-15930247.30682373,-13519747.734069824,-3929004.430770874,-4153920.1736450195,-3622641.3249969482,11501755.714416504,8882592.20123291,-3687104.2251586914,-13403389.930725098,-17525577.545166016,-17640417.098999023,-3939186.8114471436,3144.233487546444,-3363142.490386963,21154800.415039062,9104619.979858398,-1254153.3708572388,-9295674.324035645,-14778945.922851562,-21943284.98840332,2067431.4498901367,915041.1486625671,-2905508.041381836,18271066.665649414,13434953.689575195,3083600.7595062256,-4764656.066894531,-367668.479681015,8415287.017822266,11722908.973693848,10556253.433227539,9881253.242492676,29456605.911254883,22063764.572143555,22311273.5748291,2659198.045730591,19631982.803344727,12102985.382080078,28419370.651245117,28402410.50720215,28170145.03479004,31867961.883544922,31299060.821533203,28793210.983276367,20278026.580810547,29191301.345825195,30039058.685302734,29193632.125854492,35912216.18652344,38253582.00073242,33830612.18261719,28752361.297607422,34690990.44799805
0.46,-28920957.565307617,-46756092.0715332,-31228771.209716797,-14779621.124267578,-20102670.669555664,-7225847.244262695,-7506242.275238037,-7243284.225463867,-14935544.967651367,-16609365.463256836,-15406072.616577148,-7466017.723083496,-7625452.041625977,-8408331.871032715,7128276.348114014,6003380.77545166,-5595754.623413086,-14184804.916381836,-17293897.62878418,-17922506.33239746,-6116194.248199463,-3696275.7110595703,-8446227.073669434,18259794.235229492,7453649.997711182,-2429496.7651367188,-9853283.882141113,-14836440.086364746,-23840646.743774414,-906681.23960495,-2408662.0807647705,-7768348.693847656,15871020.317077637,10779806.137084961,2644085.8840942383,-5548557.758331299,-542413.8903617859,8611623.764038086,10002948.760986328,7494626.998901367,6839735.984802246,27029733.657836914,21071622.848510742,21437620.162963867,-165309.99541282654,19415229.79736328,11306322.09777832,26362749.099731445,26215957.641601562,26141263.961791992,29836963.653564453,29304819.107055664,26979698.181152344,20077888.48876953,27013334.274291992,27854393.005371094,26875816.345214844,32540157.318115234,35411750.79345703,32809879.302978516,26575927.734375,31413101.196289062
0.465,-30135314.94140625,-49599693.298339844,-35464424.13330078,-17035615.921020508,-24400121.688842773,-9796631.813049316,-10225870.132446289,-9942326.545715332,-18635932.92236328,-20832859.03930664,-19650089.263916016,-11162930.488586426,-11303153.038024902,-10475191.116333008,5178766.250610352,3772505.99861145,-9094367.980957031,-16713514.32800293,-20031684.87548828,-20442543.029785156,-9119149.208068848,-6869239.807128906,-10564629.554748535,16258100.509643555,4895890.235900879,-4308514.595031738,-11471718.788146973,-16294059.753417969,-25027416.229248047,-3955462.93258667,-5089699.268341064,-10030906.677246094,15269048.690795898,9403754.234313965,2433464.527130127,-7054241.65725708,-887435.793876648,8479125.9765625,7695457.458496094,6006400.108337402,5477988.243103027,26683155.059814453,20083370.208740234,20525510.787963867,-1068577.1703720093,19912919.998168945,10199702.262878418,24660030.364990234,24424146.65222168,24344755.172729492,29176454.544067383,28651731.491088867,26436422.34802246,20581544.876098633,25316471.099853516,26104143.142700195,24889701.84326172,31068357.467651367,34106620.78857422,33277523.040771484,24759744.64416504,31215892.791748047
0.47,-32176010.131835938,-51900485.99243164,-37730869.29321289,-20652267.456054688,-28618165.969848633,-12121439.933776855,-12625190.734863281,-12380936.622619629,-23401470.184326172,-27308378.219604492,-24951755.52368164,-13411194.801330566,-13594104.766845703,-9283446.311950684,6110104.084014893,2857279.062271118,-12675690.650939941,-20382896.423339844,-24764661.78894043,-24132825.85144043,-11017659.187316895,-7612531.1851501465,-9224898.338317871,16846603.393554688,3314596.176147461,-5938676.834106445,-13517167.091369629,-18835119.247436523,-25272157.669067383,-4734578.1326293945,-4672680.377960205,-8984988.21258545,17054412.841796875,9843716.621398926,1863177.8955459595,-8837398.529052734,-1056517.243385315,8722866.05834961,7666634.082794189,7836249.828338623,7404566.764831543,28376773.834228516,19751192.092895508,20169944.763183594,50525.158643722534,20686729.431152344,10308832.168579102,26205982.208251953,25891202.926635742,25708230.97229004,30745510.10131836,30154304.50439453,27766725.540161133,21394212.72277832,26910659.790039062,27649078.369140625,26341966.62902832,34572475.43334961,35869518.2800293,35059848.78540039,26182565.689086914,35757705.68847656
0.475,-33919857.025146484,-52365062.71362305,-36787811.279296875,-22326723.098754883,-29249084.47265625,-12592600.82244873,-13006362.915039062,-12807020.18737793,-24471200.942993164,-29308057.78503418,-26079542.16003418,-12753267.288208008,-12995696.067810059,-7394825.9353637695,7979836.940765381,3829954.3857574463,-13087539.672851562,-21079116.821289062,-25778038.024902344,-24706260.681152344,-9797319.412231445,-6138321.876525879,-7251074.79095459,19328544.61669922,4849522.590637207,-5304755.687713623,-13238234.519958496,-19364181.518554688,-24080831.52770996,-3103711.3666534424,-2391852.617263794,-7122783.660888672,19408843.994140625,11811384.201049805,2437618.9708709717,-8930002.212524414,-872007.6680183411,8795842.170715332,9410452.842712402,10156002.044677734,9810832.023620605,29975704.193115234,20707113.26599121,21086914.0625,2399538.993835449,20343948.364257812,10280602.45513916,28597269.05822754,28155260.08605957,27904462.814331055,32946552.276611328,32214447.021484375,29631772.994995117,21122592.92602539,29216066.360473633,29948843.002319336,28710947.036743164,39166206.35986328,38295242.30957031,36160968.78051758,28459480.28564453,39639278.411865234
0.48,-32567314.14794922,-49243301.39160156,-33022857.666015625,-19229654.31213379,-24477636.337280273,-10589300.155639648,-10879262.924194336,-10597940.444946289,-19381107.330322266,-23550376.892089844,-20604335.78491211,-9891232.49053955,-10181749.34387207,-7661557.197570801,8432801.246643066,5682974.338531494,-9692561.149597168,-16940660.47668457,-20437324.52392578,-20614019.3939209,-6232541.561126709,-4845839.023590088,-7570209.02633667,20687406.539916992,8034066.200256348,-2417156.219482422,-9997006.4163208,-16335187.911987305,-21923477.172851562,-1593284.6069335938,-2266072.0348358154,-7348997.116088867,19567209.243774414,13809618.949890137,4807462.215423584,-6799683.094024658,-580524.5041847229,7588101.863861084,9469585.418701172,8654171.94366455,8462654.113769531,29536394.119262695,22287322.998046875,22711751.93786621,4511907.10067749,18321308.135986328,8148303.031921387,26755653.381347656,26245544.43359375,25987762.451171875,33271476.74560547,32423667.907714844,29983686.447143555,19117687.225341797,27222915.649414062,27971759.796142578,26780658.721923828,38205314.63623047,37728981.018066406,34483764.6484375,26611759.185791016,37172550.201416016
0.485,-29665863.037109375,-44969787.59765625,-29836034.774780273,-14644533.157348633,-18365270.614624023,-9073719.97833252,-9339325.904846191,-8906905.174255371,-12968595.504760742,-16163785.934448242,-13755255.699157715,-8031443.5958862305,-8321363.44909668,-10350395.202636719,6381196.49887085,5919828.89175415,-6279951.572418213,-12281863.21258545,-14186519.622802734,-16324602.127075195,-4005002.021789551,-5942404.747009277,-10301123.61907959,18765390.396118164,8189893.72253418,-220464.73622322083,-7195803.642272949,-12700388.90838623,-20537752.151489258,-2617374.1817474365,-6059704.780578613,-9978277.206420898,16560619.354248047,13748060.22644043,6619637.489318848,-4710586.5478515625,-498379.9457550049,5070624.828338623,6389482.021331787,3400627.1362304688,3326622.247695923,26885257.720947266,22425046.920776367,22938629.150390625,4725908.7562561035,15725839.614868164,4900119.304656982,20227466.583251953,19877016.067504883,19609622.955322266,30677223.205566406,29845478.057861328,27760040.283203125,16434812.545776367,20697517.39501953,21440687.17956543,20213354.110717773,30757097.244262695,33334682.46459961,30174657.821655273,20228097.915649414,29737892.150878906
0.49,-29594058.990478516,-44341686.2487793,-30541492.462158203,-14239099.502563477,-17217443.466186523,-11079418.182373047,-11364060.401916504,-10933484.077453613,-12075785.636901855,-15591062.545776367,-12928049.087524414,-9528600.692749023,-9706825.256347656,-12661630.630493164,3217132.568359375,3732786.178588867,-6668536.186218262,-12627898.216247559,-14161936.75994873,-17109872.817993164,-5570282.936096191,-8723913.192749023,-12586891.174316406,15346467.971801758,3225348.949432373,-1030203.8192749023,-8024447.441101074,-12479468.34564209,-21106298.446655273,-5509409.9044799805,-10361810.684204102,-12219504.356384277,12913709.64050293,11445879.936218262,5557749.7482299805,-4902790.546417236,-576865.3750419617,2554490.804672241,3272159.3379974365,-258931.4579963684,-421558.4099292755,24015903.47290039,20491460.8001709,20974615.0970459,2939916.1338806152,14303301.811218262,3673163.890838623,15078931.80847168,15063158.03527832,14750207.901000977,27146148.681640625,26410247.802734375,24409009.93347168,14925394.058227539,15721702.575683594,16430427.551269531,15238625.526428223,23541685.104370117,28612482.07092285,26411880.493164062,15269896.507263184,24486743.927001953
0.495,-32523635.864257812,-47667995.45288086,-33632072.44873047,-17876697.540283203,-21425134.658813477,-14923555.374145508,-15157605.171203613,-14934406.280517578,-16649993.896484375,-21541070.93811035,-18300331.115722656,-12524113.655090332,-12503643.989562988,-11488075.256347656,2072322.3686218262,1601967.453956604,-9969500.541687012,-17396633.14819336,-19889316.55883789,-22039459.228515625,-8815477.37121582,-10025718.688964844,-11448537.826538086,14459652.9006958,-3201436.996459961,-3577942.132949829,-11101287.841796875,-15563517.570495605,-22811546.325683594,-7180508.136749268,-10299290.657043457,-11013200.759887695,12407803.535461426,9465904.235839844,3035437.58392334,-6708628.6544799805,-544710.5169296265,1362549.1857528687,3886977.434158325,1989914.059638977,1605746.5076446533,23498064.041137695,18924636.840820312,19190940.856933594,1275763.750076294,14671541.213989258,5534555.435180664,16736717.224121094,16947214.126586914,16567316.055297852,26154600.143432617,25421377.182006836,23110090.255737305,15355619.430541992,17505985.260009766,18177667.61779785,17162538.528442383,23299251.556396484,28070470.809936523,26696161.2701416,17019269.943237305,26201356.887817383
0.5,-33670875.549316406,-49571857.45239258,-33942649.841308594,-19784181.594848633,-24419223.78540039,-16066286.087036133,-16220167.16003418,-16199083.32824707,-20212705.612182617,-25779973.98376465,-22682039.260864258,-12686244.96459961,-12532278.060913086,-6871407.508850098,4646274.089813232,2209622.859954834,-12247832.298278809,-20865226.74560547,-24405786.514282227,-25131088.256835938,-9390256.881713867,-7822454.452514648,-6977385.997772217,17448766.708374023,-6214627.265930176,-5043513.774871826,-12670711.517333984,-18242477.416992188,-23918750.762939453,-5696326.25579834,-5574518.68057251,-6475269.794464111,15596998.21472168,10031921.38671875,2491246.7002868652,-7912010.192871094,-369120.4786300659,1762471.4374542236,7659620.28503418,7860788.822174072,7388557.910919189,25658105.850219727,20144948.959350586,20206291.19873047,1652136.6834640503,15599987.030029297,8004864.692687988,23028512.954711914,23169858.932495117,22729738.235473633,28825536.727905273,27959962.844848633,25374235.153198242,16461526.870727539,23759761.810302734,24414813.995361328,23511482.23876953,29066680.908203125,32096172.332763672,30833604.81262207,23273725.509643555,32343555.450439453
0.505,-30050598.14453125,-45900127.41088867,-29267099.380493164,-16654430.389404297,-20951135.635375977,-12873355.865478516,-13045662.879943848,-13064211.84539795,-18599098.205566406,-23194841.384887695,-20692884.44519043,-8290015.22064209,-8156867.027282715,-1942523.8370895386,9243140.22064209,5301704.406738281,-11490171.432495117,-19563545.22705078,-23525533.67614746,-22873855.590820312,-5730561.256408691,-3367211.34185791,-2143970.9663391113,21653291.702270508,-5333940.029144287,-4509624.481201172,-11674711.227416992,-18224851.608276367,-23582523.345947266,-2109621.524810791,-539785.0871086121,-1713264.2269134521,19139556.884765625,12297969.818115234,4814530.849456787,-7829868.316650391,-297570.28818130493,3246702.194213867,10786416.053771973,11534181.594848633,11199514.389038086,28139375.686645508,23050323.486328125,23182884.216308594,3245007.276535034,15169836.044311523,8438928.604125977,27179592.13256836,27096147.537231445,26655645.3704834,32539318.084716797,31587589.263916016,29090925.216674805,16139429.092407227,27848306.65588379,28506570.81604004,27451860.427856445,34245426.177978516,36361133.57543945,34746017.45605469,27355323.791503906,36905845.642089844
