time,Fp1,Fpz,Fp2,AF3,AF4,F7,F5,F3,F1,Fz,F2,F4,F6,F8,FT7,FC5,FC3,FC1,FCz,FC2,FC4,FC6,FT8,T7,C5,C3,C1,Cz,C2,C4,C6,T8,TP7,CP5,CP3,CP1,CPz,CP2,CP4,CP6,TP8,P7,P5,P3,P1,Pz,P2,P4,P6,P8,PO7,PO5,PO3,POz,PO4,PO6,PO8,CB1,O1,Oz,O2,CB2
0.0,-1550848.126411438,-795925.7364273071,-1284950.613975525,-155775.3086090088,-1015217.9002761841,-761353.1351089478,-881980.3595542908,-850721.5976715088,242751.95598602295,247406.58700466156,-34053.947776556015,-1938461.184501648,-1929602.5037765503,-1990728.735923767,-606838.1667137146,-1632486.4625930786,-1395033.359527588,277797.6095676422,426339.8051261902,474394.291639328,-2676498.4130859375,-2041361.8087768555,-1986031.6514968872,-867823.1835365295,-1341252.326965332,-1510339.379310608,-389991.8794631958,-104342.64689683914,-44556.12227320671,-1334578.275680542,-1741666.0785675049,-2033645.6298828125,-1650259.9716186523,-1060890.4361724854,-2201174.49760437,-491951.8530368805,55369.89122629166,-1697130.3224563599,-918492.317199707,-1549429.8934936523,-1547870.2783584595,-1048403.1438827515,-1633339.8818969727,-1670505.166053772,-1103955.0304412842,-754666.0900115967,-843172.7290153503,-1569843.1730270386,-1523369.312286377,-1563001.5134811401,-814850.2111434937,-827411.1747741699,-966165.2445793152,-745778.4414291382,-1551939.3682479858,-1572097.0630645752,-1543809.175491333,-2115707.3974609375,-1543885.4694366455,-1895653.486251831,-1566332.8170776367,-1778097.8679656982
0.005,3993496.894836426,8883584.022521973,7145277.500152588,7185072.422027588,10150185.585021973,-2072522.8786468506,-3238276.958465576,-3306889.533996582,2678412.675857544,4087635.040283203,5483094.215393066,-4611595.630645752,-4277543.067932129,1127580.4042816162,-10444852.828979492,-11349257.469177246,-4584095.478057861,5365848.541259766,283509.0756416321,4347065.9255981445,-6351799.488067627,-5717479.228973389,1755709.6481323242,-7476232.528686523,-9982435.22644043,-8517018.31817627,-2403502.7027130127,2442721.366882324,786932.2896003723,-8020448.684692383,-9371741.29486084,-97064.3013715744,-12642120.361328125,-12341726.303100586,-8301657.676696777,-7913683.891296387,1995357.7518463135,-3230484.0087890625,-7697884.082794189,-7495984.5542907715,-7878005.027770996,-13308154.106140137,-13688300.132751465,-14066751.480102539,-6441688.060760498,-4933123.588562012,2968575.2391815186,-11258445.739746094,-10333259.582519531,-11070258.140563965,-12392285.346984863,-12606920.24230957,-13825352.668762207,-4760852.813720703,-10709403.991699219,-11610667.22869873,-10701560.020446777,-18882894.51599121,-11602075.576782227,-14887233.73413086,-11665154.457092285,-18902214.05029297
0.01,2656533.2412719727,10005710.60180664,8233509.063720703,7507945.537567139,12667736.053466797,-5463829.040527344,-7175518.989562988,-7272583.484649658,715845.52526474,2336191.6542053223,4522865.772247314,-9117098.808288574,-8580111.503601074,-1425289.6308898926,-18557933.807373047,-19807910.919189453,-9783635.139465332,4693096.160888672,-2998173.713684082,2759902.4772644043,-9404266.357421875,-9744555.473327637,-514093.39904785156,-13565497.398376465,-17647430.419921875,-13086942.672729492,-6157133.57925415,1963342.9050445557,-2425245.0466156006,-12131283.7600708,-12625453.94897461,-3220213.4132385254,-20600028.99169922,-20431261.06262207,-12151563.64440918,-10296855.926513672,2690690.040588379,-3609158.0390930176,-10800031.661987305,-12728574.752807617,-13330513.000488281,-21787054.06188965,-20992172.241210938,-21589651.107788086,-8027384.7579956055,-6926341.533660889,8066789.627075195,-16537570.95336914,-15270497.32208252,-16390949.249267578,-19235729.217529297,-19559177.39868164,-21060255.05065918,-6578985.691070557,-15731173.515319824,-17058435.440063477,-15772230.14831543,-25522155.76171875,-16365480.422973633,-19738313.674926758,-17113349.91455078,-27103229.522705078
0.015,-1206088.1853103638,6063130.855560303,5569243.907928467,4185558.795928955,10048042.297363281,-8106453.895568848,-9788102.149963379,-9757777.214050293,-2857284.3074798584,-1348397.135734558,339966.5057659149,-11951247.215270996,-11331473.350524902,-6312251.567840576,-22555030.822753906,-23931320.190429688,-13522421.836853027,1504675.3883361816,-6411112.7853393555,-1107084.87033844,-9961423.873901367,-11846915.245056152,-5474431.037902832,-17059350.967407227,-22151664.73388672,-14293704.03289795,-9294229.507446289,95635.65254211426,-8195316.314697266,-12274614.334106445,-11119925.498962402,-8085966.110229492,-23951129.913330078,-23569051.74255371,-11881351.470947266,-9114345.55053711,2348725.0804901123,-3160418.5104370117,-10283355.712890625,-15802044.868469238,-16462205.88684082,-25151884.078979492,-22528579.711914062,-23313560.485839844,-7218679.428100586,-7473910.331726074,12258273.124694824,-17173351.287841797,-16080442.428588867,-17187370.30029297,-20886936.18774414,-21161092.75817871,-22404632.568359375,-6941041.946411133,-16391849.517822266,-17656354.904174805,-16499025.344848633,-21932222.366333008,-15462220.191955566,-16574424.743652344,-17707595.825195312,-25409210.205078125
0.02,1589979.648590088,6819798.946380615,7798505.3062438965,5654225.3494262695,11776500.701904297,-5610477.924346924,-7040434.36050415,-6703632.831573486,-2007089.1380310059,733504.056930542,1150474.0715026855,-8854395.866394043,-8185524.940490723,-5872017.383575439,-20547348.022460938,-21425342.559814453,-11098114.967346191,2805381.2980651855,-4643641.471862793,-18489.02553319931,-6648108.005523682,-9497494.6975708,-5218550.205230713,-15899354.934692383,-21581197.73864746,-13133103.370666504,-8217152.5955200195,762475.848197937,-11037387.84790039,-9467947.006225586,-7998390.197753906,-7519313.812255859,-23012956.619262695,-22506908.416748047,-8397948.265075684,-9293527.603149414,2085150.4802703857,-2666688.4422302246,-8691411.018371582,-15394000.053405762,-16023828.506469727,-24530015.94543457,-21096334.45739746,-22134609.22241211,-8236289.024353027,-8832098.007202148,12878989.219665527,-15966862.678527832,-15108115.196228027,-15994663.23852539,-20216938.018798828,-20314430.236816406,-21575166.702270508,-8129218.101501465,-15294136.047363281,-16346403.121948242,-15418956.756591797,-15626030.921936035,-12448752.403259277,-11803020.477294922,-16484811.782836914,-19916509.6282959
0.025,10976311.683654785,14214886.665344238,15525433.540344238,13071889.877319336,19190679.5501709,1279394.9842453003,-79629.41378355026,613886.6543769836,3825024.6047973633,8791763.305664062,8450099.94506836,-2224355.697631836,-1486741.4236068726,1037128.5676956177,-13416006.088256836,-14441786.766052246,-4220875.7400512695,8544238.090515137,1918908.3576202393,6666157.7224731445,-1159649.9681472778,-3842804.9087524414,1589089.3936157227,-10826160.430908203,-16595891.952514648,-11476409.912109375,-3667300.224304199,4504644.393920898,-8023776.054382324,-6548068.046569824,-5989176.273345947,-682499.7663497925,-19302761.07788086,-19772903.442382812,-5751523.017883301,-11556789.39819336,2357326.7459869385,-1833330.0352096558,-7293522.834777832,-11930315.971374512,-12443797.11151123,-21485288.619995117,-19722419.73876953,-20932041.16821289,-11535219.192504883,-11509986.877441406,11237840.65246582,-14674280.166625977,-13791708.946228027,-14523898.124694824,-19026292.80090332,-18957521.438598633,-20693756.103515625,-10699171.06628418,-14048237.800598145,-15028685.569763184,-14139782.905578613,-11778962.135314941,-9927167.892456055,-9963311.195373535,-15320235.252380371,-16285596.84753418
0.03,17790723.80065918,21168161.392211914,21287479.400634766,19762628.55529785,25108261.108398438,7197336.196899414,5637573.2421875,6497714.519500732,9628205.299377441,15388321.876525879,15740043.640136719,1263298.0346679688,2081129.789352417,8402307.510375977,-4950380.325317383,-8124568.939208984,497703.1350135803,12335661.888122559,7404530.5252075195,12332743.644714355,2561164.379119873,1250937.4618530273,8928325.653076172,-4921393.871307373,-9917665.481567383,-10331743.240356445,-171822.4734067917,8018061.637878418,-2249945.1637268066,-5339975.357055664,-4687152.38571167,6533283.710479736,-14288996.696472168,-17009897.232055664,-6521544.456481934,-11762268.06640625,2656427.8602600098,-145879.95409965515,-5378962.993621826,-7623554.706573486,-7942990.303039551,-16520418.167114258,-18411542.892456055,-19522600.173950195,-12436523.4375,-14128852.844238281,10665332.794189453,-12800148.963928223,-11737297.058105469,-12486105.918884277,-16221618.65234375,-16115404.12902832,-18263946.533203125,-13301584.243774414,-12183643.341064453,-13202165.603637695,-12241933.822631836,-9279275.894165039,-7318428.039550781,-10283086.776733398,-13575433.731079102,-14779276.847839355
0.035,17618885.040283203,23262844.08569336,21654170.989990234,21849733.352661133,25942514.419555664,9318231.582641602,7499202.728271484,8185722.351074219,12484021.186828613,16227373.123168945,18185304.641723633,-20680.010318756104,862678.1702041626,12325226.783752441,1271950.7217407227,-5241327.285766602,553657.6509475708,11610445.976257324,8328545.570373535,12741057.395935059,2433185.577392578,4010108.470916748,12815449.714660645,-312880.4862499237,-3877986.9079589844,-9124540.328979492,25943.9405053854,9020430.564880371,762920.1412200928,-4729524.612426758,-1731214.165687561,10421314.239501953,-8679060.935974121,-13775215.148925781,-8141735.076904297,-7868785.858154297,2576566.9345855713,1544119.7156906128,-2473141.4318084717,-4367249.965667725,-4536961.078643799,-9993603.706359863,-15342512.130737305,-16197010.040283203,-7865794.1818237305,-15962539.672851562,11536548.614501953,-9893005.37109375,-8756877.899169922,-9581859.588623047,-10838665.008544922,-10793211.936950684,-12994132.995605469,-15169742.584228516,-9332818.984985352,-10324282.6461792,-9376564.025878906,-5597634.315490723,-3413515.80619812,-10276233.673095703,-10638533.592224121,-12368243.217468262
0.04,16611059.188842773,24117866.51611328,21956497.192382812,22750421.52404785,26283605.575561523,10364032.745361328,8450264.930725098,8755325.317382812,14481485.366821289,15159337.997436523,18056058.883666992,-698479.7120094299,208182.39450454712,15313117.980957031,4762984.275817871,-4194223.403930664,300652.3847579956,10576086.044311523,7359171.8673706055,11274931.907653809,818630.2185058594,6397417.5453186035,15747484.20715332,3284274.3396759033,550009.01222229,-6881491.184234619,-500530.77936172485,8819264.41192627,-925127.387046814,-2462774.5151519775,3917490.005493164,13445433.616638184,-3003781.0802459717,-9675681.114196777,-6515690.803527832,-3616551.160812378,2410554.1706085205,1991431.474685669,660065.1144981384,-2007433.1760406494,-2179445.98197937,-3883282.18460083,-10839742.660522461,-11573108.673095703,-1808101.2964248657,-17704607.009887695,11547913.551330566,-7135936.737060547,-6102430.34362793,-6939168.453216553,-5186337.947845459,-5175888.0615234375,-7313863.754272461,-16883670.806884766,-6678522.58682251,-7584144.592285156,-6705572.128295898,-1428945.779800415,669986.1288070679,-9380689.62097168,-7785171.031951904,-7860910.892486572
0.045,20850193.02368164,27593059.539794922,27141521.453857422,25963430.404663086,30265630.7220459,13381473.541259766,11547522.54486084,11633069.99206543,17520225.524902344,17058235.16845703,19492757.79724121,3311362.7433776855,4183497.905731201,20324892.044067383,7127398.490905762,-2632018.566131592,3402070.5223083496,12496593.475341797,8452495.574951172,13086537.36114502,2106839.179992676,10479085.922241211,20748893.73779297,6564847.946166992,2939435.2436065674,-3890836.000442505,1199573.9936828613,9403162.956237793,-4202340.126037598,1560148.000717163,10278759.002685547,18438306.80847168,1467639.2078399658,-6372743.606567383,-2207865.7150268555,-3456793.0698394775,2519848.8235473633,1688887.9537582397,3163604.259490967,712237.0600700378,470953.3452987671,-1052005.648612976,-8093298.91204834,-8899631.50024414,-837020.993232727,-19589427.947998047,10333519.93560791,-6050974.369049072,-5142762.660980225,-5966941.833496094,-2992586.135864258,-2952987.4324798584,-5075621.604919434,-18593706.130981445,-5653019.905090332,-6597721.099853516,-5670838.832855225,868324.5182037354,2481845.1404571533,-8358003.616333008,-6731519.2222595215,-3607218.5039520264
0.05,26659324.645996094,31039014.81628418,33782684.326171875,29185831.06994629,34913345.33691406,16821578.979492188,15093468.66607666,15412920.951843262,19695966.720581055,20686485.290527344,22323574.06616211,8780645.370483398,9601372.718811035,25215114.59350586,8864544.868469238,-755646.824836731,7012893.6767578125,14943776.13067627,11481890.678405762,17961528.778076172,7560783.863067627,15082852.363586426,25720750.80871582,8963208.198547363,3358843.5649871826,-1419288.8736724854,4235133.171081543,10418812.75177002,-5234682.083129883,4878249.645233154,13890522.956848145,23300027.84729004,3338616.8479919434,-5660079.9560546875,446933.5377216339,-6332399.845123291,2727363.8248443604,2047949.0756988525,4705947.8759765625,3766867.6376342773,3551468.3723449707,-2085325.2410888672,-8937960.624694824,-9778605.461120605,-5225102.424621582,-20555946.350097656,10271441.459655762,-6721616.744995117,-5823616.504669189,-6703113.555908203,-4709884.6435546875,-4660027.027130127,-6650223.731994629,-19325611.114501953,-6266348.361968994,-7413146.018981934,-6315196.990966797,823034.942150116,1520246.6249465942,-7402432.441711426,-7496629.238128662,-2578243.9708709717
0.055,26853551.864624023,30185884.475708008,35180995.94116211,28739873.8861084,35270217.89550781,17308910.369873047,15609904.289245605,16534412.384033203,18926542.282104492,21719690.322875977,23576841.354370117,9923935.890197754,10759583.473205566,25957815.170288086,8868872.64251709,166020.16985416412,6686968.3265686035,15057199.478149414,13442395.210266113,21680959.701538086,13233999.252319336,17388408.660888672,26596845.626831055,9981863.021850586,3225611.686706543,233324.94497299194,5993970.87097168,10554265.975952148,-3958750.7247924805,5345256.805419922,13102201.461791992,24136899.948120117,3025313.61579895,-6289038.181304932,260382.9801082611,-7239456.1767578125,2677308.7978363037,2588599.681854248,4925942.420959473,5506546.497344971,5404876.232147217,-3989434.003829956,-10704020.500183105,-11392481.803894043,-8375107.765197754,-19918994.903564453,12482812.881469727,-7803452.014923096,-6832119.941711426,-7764720.916748047,-6623250.484466553,-6633879.1847229,-8468620.300292969,-18621582.03125,-7208886.14654541,-8469389.915466309,-7288877.964019775,149153.39648723602,150233.07502269745,-5952241.897583008,-8456148.147583008,-4639186.859130859
0.06,22237205.505371094,26443397.521972656,30597751.61743164,25795576.095581055,31556570.053100586,15056894.302368164,13354986.190795898,14862382.888793945,16852573.39477539,19553834.915161133,22278713.22631836,5933219.432830811,6854124.546051025,22402791.97692871,7004658.222198486,476994.5740699768,3758837.938308716,14673512.45880127,12830770.492553711,21930551.528930664,13659504.890441895,16360132.217407227,23113683.700561523,10568595.886230469,4416803.83682251,2127800.703048706,6434745.788574219,10195049.285888672,-3398648.500442505,3293599.1287231445,9624967.575073242,20770961.76147461,2887086.1530303955,-5179025.173187256,1064156.0554504395,-3977317.5716400146,2438544.988632202,1277925.1337051392,3491339.921951294,4813808.441162109,4771968.841552734,-3523823.4996795654,-9519023.895263672,-10022648.811340332,-5789802.551269531,-18613904.95300293,15064549.446105957,-7947653.293609619,-6927796.840667725,-7759883.403778076,-5527931.690216064,-5603425.025939941,-7802629.470825195,-17516185.760498047,-7243958.950042725,-8304173.469543457,-7266716.480255127,403363.1980419159,708764.2550468445,-3666202.0683288574,-8232258.7966918945,-6513120.174407959
0.065,19977935.791015625,24539852.142333984,25052129.7454834,24128871.91772461,27545711.517333984,13170906.066894531,11537739.753723145,13293901.443481445,16206212.997436523,17286579.132080078,19984132.766723633,671085.2384567261,1620567.9178237915,17797002.7923584,4991443.634033203,1055563.3306503296,3036976.3374328613,16462938.30871582,10765418.05267334,19882633.209228516,7803689.002990723,13127926.82647705,18427433.013916016,11385210.037231445,6612732.887268066,4291984.081268311,7429649.353027344,10724332.809448242,-5020248.4130859375,634800.3149032593,6585254.192352295,16264417.64831543,4162100.315093994,-2082322.597503662,4941929.817199707,150684.6249103546,2381458.520889282,-1708594.560623169,877081.8710327148,2528542.7570343018,2464713.5734558105,-1371804.118156433,-5922389.984130859,-6433712.959289551,-814465.4035568237,-18011537.551879883,16114833.83178711,-7055380.344390869,-6036442.756652832,-6683972.358703613,-2819536.9243621826,-2897988.796234131,-6141132.354736328,-17135604.858398438,-6340899.94430542,-7045358.657836914,-6254241.466522217,1413345.3369140625,2498512.7449035645,-1293200.8504867554,-7111077.308654785,-5684814.929962158
0.07,22150541.305541992,25131355.28564453,21934173.583984375,24013774.871826172,24857233.04748535,12503163.33770752,11027020.454406738,12743556.022644043,16435155.868530273,16547229.766845703,18078781.127929688,-3132485.866546631,-2328499.5555877686,14272173.881530762,3863442.897796631,814544.4989204407,4719962.596893311,18380943.298339844,8891746.520996094,17238973.61755371,631833.1360816956,8968707.084655762,14705173.49243164,10876029.014587402,6948621.74987793,4325707.43560791,8761937.141418457,11980061.531066895,-6473671.913146973,-1147652.02999115,5370409.4886779785,12641182.899475098,4700718.879699707,-515673.6969947815,7310832.0236206055,628753.3640861511,2608597.755432129,-3006372.2133636475,-1765534.520149231,264472.72300720215,202547.50549793243,-1277900.9342193604,-4494304.180145264,-5209351.062774658,708631.5751075745,-18244808.197021484,16211570.739746094,-6203114.032745361,-5182415.008544922,-5845142.841339111,-2419339.895248413,-2477800.3692626953,-6697616.100311279,-17235704.42199707,-5538421.630859375,-6129508.018493652,-5471602.439880371,1650547.6236343384,2670183.4201812744,-819688.6777877808,-6481039.524078369,-3600804.328918457
0.075,23217947.006225586,24634487.15209961,20327880.859375,22506628.036499023,22598655.700683594,10808338.165283203,9472683.906555176,11109733.581542969,14928013.801574707,15859868.049621582,16769306.182861328,-5806292.0570373535,-5270889.2822265625,11674917.221069336,2604126.214981079,-1762998.104095459,4041486.2632751465,16317777.633666992,7741622.447967529,14543323.516845703,-2040823.221206665,4718664.646148682,11951635.360717773,7466137.409210205,3674047.7085113525,454172.13439941406,7846877.574920654,12226868.629455566,-4844886.779785156,-1722998.3806610107,5033251.762390137,9833497.047424316,1846379.9953460693,-2743221.5213775635,2611983.7760925293,-3099917.411804199,2829359.292984009,-490030.58671951294,-3668525.457382202,-1366184.2346191406,-1388673.186302185,-4678099.155426025,-7435317.039489746,-8349005.699157715,-1536263.5850906372,-18206756.591796875,16854356.76574707,-6291272.163391113,-5278797.149658203,-6233207.702636719,-5267927.169799805,-5333524.703979492,-9679152.488708496,-16690828.323364258,-5685947.418212891,-6520560.741424561,-5813401.699066162,73418.00630092621,204057.976603508,-3832713.1271362305,-7018507.957458496,-3735188.0073547363
0.08,19860546.112060547,21849889.755249023,19176420.211791992,19029726.028442383,20870212.55493164,7379191.875457764,6046003.341674805,7679722.785949707,11542434.692382812,13915603.637695312,15996946.334838867,-7583961.963653564,-7271777.153015137,9986415.86303711,548250.9136199951,-4967922.687530518,-525780.975818634,10589502.334594727,6774648.189544678,12264126.777648926,297800.54092407227,1755510.3302001953,10295748.710632324,3179949.998855591,-917790.5917167664,-4788153.648376465,3862516.8800354004,10647659.301757812,-791503.4294128418,-1417220.950126648,4541360.378265381,7992147.445678711,-2886090.5170440674,-6163838.863372803,-6931513.786315918,-7692455.768585205,2786728.3821105957,3262705.5644989014,-4682857.513427734,-2603482.961654663,-2655910.7303619385,-8328888.893127441,-11385041.236877441,-12310397.148132324,-3294171.5717315674,-16817113.876342773,18309612.274169922,-6944407.4630737305,-6029827.117919922,-7225592.136383057,-8081462.860107422,-8138301.849365234,-12004954.33807373,-14875875.473022461,-6426683.9027404785,-7516677.379608154,-6659818.172454834,-2347718.9540863037,-2441134.9296569824,-8985686.302185059,-7851273.536682129,-6898777.961730957
0.085,16795398.712158203,20273534.774780273,19735332.489013672,16823678.970336914,20998767.852783203,5177175.521850586,3691494.941711426,5325993.061065674,9009049.415588379,11621031.761169434,15634128.57055664,-7091994.285583496,-6852426.052093506,10118701.934814453,-642641.6039466858,-4798021.7933654785,-3835304.021835327,5743929.862976074,5096918.58291626,11219157.218933105,2994512.3195648193,1657158.613204956,10651707.649230957,2210489.273071289,-2829581.9759368896,-6529909.610748291,-282080.88874816895,8410695.07598877,2195578.5751342773,-840143.7997817993,4345013.14163208,8144837.379455566,-4570321.083068848,-6775578.498840332,-12559467.315673828,-9899503.707885742,2574406.147003174,4106122.0169067383,-4748227.596282959,-3406956.672668457,-3548793.7927246094,-8563138.961791992,-12116338.729858398,-12850413.32244873,-3048642.873764038,-13998807.907104492,19964792.251586914,-7239621.639251709,-6473287.105560303,-7551933.288574219,-7920022.964477539,-7905634.40322876,-11551830.291748047,-12114443.7789917,-6842957.973480225,-7850195.88470459,-6832150.459289551,-3350689.172744751,-2499677.1812438965,-12228946.685791016,-7917203.903198242,-10167117.11883545
0.09,19442632.6751709,22753595.35217285,22653972.625732422,18295343.39904785,22876981.735229492,6759707.927703857,5070130.825042725,6668575.763702393,9099093.437194824,10496483.80279541,15330615.043640137,-3884905.0998687744,-3586542.3679351807,12075896.263122559,787910.2826118469,-293608.9336872101,-1276637.077331543,4606950.759887695,2732071.3996887207,11536946.296691895,2338408.7085723877,4339447.021484375,12876969.337463379,5368476.390838623,-981249.1536140442,-3527330.8753967285,-1252963.5429382324,7091634.273529053,2280299.186706543,-717923.9392280579,5202710.151672363,10305845.260620117,-959191.3819313049,-4567868.709564209,-9417695.045471191,-9378307.342529297,2474815.1302337646,1647208.571434021,-3910789.966583252,-3409631.7291259766,-3519210.3385925293,-6160964.012145996,-10113142.013549805,-10604729.652404785,-4010874.7482299805,-10969233.512878418,21462043.76220703,-7240225.315093994,-6475673.675537109,-7234025.478363037,-5966427.803039551,-5883751.86920166,-9788882.2555542,-9461747.169494629,-6893906.593322754,-7598471.164703369,-6449625.015258789,-2150699.3770599365,-630943.0599212646,-11256709.098815918,-7610318.660736084,-10805870.056152344
0.095,25255376.8157959,27088106.155395508,25565391.540527344,21580041.885375977,24730260.848999023,10263048.17199707,8451530.456542969,10053505.897521973,10567456.245422363,10799986.839294434,15109646.797180176,-183521.41976356506,232032.3884487152,14237487.79296875,3477868.08013916,4544319.629669189,4248868.465423584,5858936.309814453,1440019.2499160767,12506130.21850586,-291189.581155777,7622035.980224609,15160948.753356934,8424026.489257812,1959144.115447998,236338.40680122375,881015.956401825,7043990.135192871,973026.2756347656,-1501713.514328003,6530185.699462891,12739876.747131348,4377389.907836914,-2958267.2119140625,-2156762.5999450684,-8043358.80279541,2608951.5686035156,-1091802.8354644775,-2749896.287918091,-2774552.822113037,-2672057.628631592,-4985395.908355713,-9122922.897338867,-9532081.604003906,-8249213.218688965,-9529432.29675293,22673105.239868164,-7838774.681091309,-6849168.300628662,-7469586.372375488,-5523826.122283936,-5454379.558563232,-9525321.006774902,-8233440.399169922,-7378207.683563232,-7977566.242218018,-6749920.845031738,-858878.9701461792,32285.328954458237,-9008015.632629395,-8137440.6814575195,-9584697.723388672
0.1,26792390.823364258,28610435.485839844,25463071.823120117,22693496.704101562,25274675.369262695,11404171.94366455,9618938.446044922,11291217.803955078,10875592.231750488,11457280.158996582,15179553.031921387,1209694.1471099854,1717836.3800048828,14985911.36932373,3915497.7798461914,5448219.299316406,5999970.91293335,7103691.577911377,2879890.203475952,13528937.339782715,-1265436.7685317993,9135190.0100708,15790028.57208252,7079344.272613525,2905471.8017578125,838893.9499855042,3143407.3448181152,7504372.119903564,144794.88134384155,-3115597.96333313,6783903.5987854,13632556.915283203,6101191.520690918,-3901173.8300323486,1423255.205154419,-7866954.326629639,2822473.7644195557,-2452669.143676758,-2027431.7264556885,-2343265.0566101074,-2080289.8406982422,-6904749.870300293,-10680438.995361328,-11255242.347717285,-12734204.292297363,-10302943.229675293,23531829.833984375,-9166880.60760498,-7949013.710021973,-8672462.463378906,-7751430.988311768,-7713959.217071533,-11566087.72277832,-8905220.985412598,-8531416.893005371,-9365203.857421875,-8105808.258056641,-2145008.087158203,-1945270.5383300781,-10673677.444458008,-9581151.962280273,-9210281.372070312
0.105,21291395.18737793,25266109.466552734,21948869.705200195,19739292.14477539,24230749.130249023,8454702.377319336,6808793.067932129,8504468.91784668,8593582.153320312,10764009.475708008,14594452.857971191,-559041.7981147766,-66914.68507051468,13880594.253540039,587469.5181846619,2485919.237136841,1868873.8346099854,7145057.201385498,5526694.297790527,14176429.748535156,-108579.65797185898,7962185.382843018,14407526.016235352,1807311.2964630127,966816.4253234863,-1278698.205947876,2825176.477432251,7481939.792633057,-465686.97690963745,-5288078.308105469,4920093.059539795,12438656.8069458,2712896.3470458984,-6380329.132080078,-741721.9877243042,-9540654.182434082,2879394.769668579,-3812284.231185913,-2148279.4284820557,-3067637.2051239014,-2928750.991821289,-10346312.522888184,-13054242.134094238,-13891472.816467285,-13643157.958984375,-11998550.415039062,24122550.96435547,-10570477.485656738,-9380177.49786377,-10161578.178405762,-11109115.600585938,-11000654.220581055,-14716279.029846191,-10496599.197387695,-9911300.659179688,-11006443.977355957,-9732277.870178223,-6101994.037628174,-4975438.594818115,-17324300.76599121,-11067060.470581055,-10910269.737243652
0.11,13316515.922546387,18748193.740844727,16781780.242919922,14397432.327270508,21283575.0579834,3590725.898742676,2086019.515991211,3672432.1842193604,4382366.65725708,7500345.230102539,11717534.065246582,-4784982.204437256,-4424754.1427612305,10970559.120178223,-4283161.163330078,-1509098.5298156738,-4342686.653137207,5220436.573028564,5422345.161437988,13585309.028625488,-222776.04043483734,4226541.042327881,11285981.178283691,-3589575.5290985107,-2972199.6784210205,-3962491.273880005,-650188.9824867249,6341989.517211914,-1570974.9460220337,-8089174.270629883,761128.4852027893,9349393.844604492,-3122019.2909240723,-9393860.816955566,-5114090.442657471,-12310729.98046875,2701501.3694763184,-6495970.249176025,-3628404.8557281494,-5778323.173522949,-5949477.672576904,-13429392.81463623,-15105865.478515625,-16033048.629760742,-12227662.086486816,-13324859.619140625,24025333.404541016,-12366920.471191406,-11387029.647827148,-12044588.088989258,-14136904.7164917,-13878064.155578613,-17920804.977416992,-11938553.810119629,-11868607.521057129,-12916334.15222168,-11669010.162353516,-10596927.642822266,-7320021.629333496,-24503709.79309082,-12842424.392700195,-13984411.239624023
0.115,9115333.557128906,12518342.018127441,12118223.190307617,10591618.537902832,17005626.678466797,374534.15989875793,-1086977.1242141724,351031.5716266632,1006783.6046218872,2779105.9017181396,7253862.380981445,-10078362.464904785,-9834931.373596191,6854049.6826171875,-6965020.179748535,-4523753.1661987305,-8474184.9899292,1346628.0698776245,1324083.8050842285,11385702.133178711,-3999624.9675750732,-1033641.3383483887,7190116.405487061,-6142933.8455200195,-7093854.4273376465,-7132412.433624268,-5535145.7595825195,4325150.489807129,-1836413.2642745972,-11492830.276489258,-4887356.758117676,5222188.472747803,-7736880.779266357,-12929615.020751953,-8666077.613830566,-14348078.727722168,2426346.3020324707,-9232505.798339844,-6886097.9080200195,-10388853.073120117,-10748796.463012695,-15659549.713134766,-17551097.869873047,-18285223.00720215,-12943808.555603027,-14628933.906555176,22265768.05114746,-15404445.64819336,-14541504.859924316,-15078346.252441406,-16475526.809692383,-16127313.613891602,-20592208.862304688,-13399947.166442871,-15059187.889099121,-15822592.735290527,-14719307.899475098,-13578981.399536133,-8770104.40826416,-27060512.54272461,-15842204.093933105,-17203603.744506836
0.12,11482599.258422852,10019021.987915039,10387259.483337402,11815934.181213379,14359115.600585938,1218622.2076416016,-292949.8851299286,1115048.7661361694,1836446.762084961,268844.8429107666,5036590.576171875,-13780693.054199219,-13494364.738464355,3802711.7252349854,-5434437.7517700195,-5268432.6171875,-9223229.40826416,-1776446.5808868408,-2749683.380126953,9264560.69946289,-8959102.630615234,-4930795.192718506,4327388.286590576,-5033260.822296143,-8728986.740112305,-10812129.974365234,-8325709.342956543,2737103.4622192383,898951.7688751221,-14463230.13305664,-9596118.927001953,2390713.691711426,-8495370.864868164,-15396889.686584473,-10763262.748718262,-13880832.67211914,2270554.0657043457,-9530960.083007812,-10533924.102783203,-14628695.487976074,-14922700.881958008,-16315847.396850586,-19698438.64440918,-20135736.4654541,-16385972.97668457,-16191394.805908203,19408952.713012695,-18293142.318725586,-17408159.255981445,-17973529.815673828,-17359060.287475586,-17039325.714111328,-21497180.938720703,-14969502.449035645,-17947004.318237305,-18548156.73828125,-17670534.133911133,-13801275.253295898,-8878971.099853516,-23928895.950317383,-18740594.8638916,-19127634.048461914
0.125,18845815.658569336,12716637.61138916,13258109.092712402,18035228.729248047,16247171.401977539,6081354.141235352,4530630.588531494,6055306.911468506,7457466.125488281,2599626.302719116,7698394.775390625,-12915776.252746582,-12469516.75415039,4372252.941131592,-961804.8667907715,-2059623.2414245605,-6722724.437713623,-350176.96022987366,-2183635.2348327637,9745140.075683594,-10326086.99798584,-4087331.2950134277,5038441.6580200195,-961801.7673492432,-6066946.029663086,-11916844.367980957,-6086462.97454834,2948295.1164245605,6203882.694244385,-15470993.995666504,-10427221.298217773,3192004.442214966,-4834120.273590088,-13836344.718933105,-10268943.786621094,-11019931.79321289,2338735.342025757,-6468400.001525879,-11487917.90008545,-15243172.645568848,-15367409.706115723,-14371216.773986816,-18718561.17248535,-19035594.940185547,-17890550.61340332,-16273422.241210938,18431631.088256836,-17968046.188354492,-17134786.60583496,-17776758.193969727,-15836412.42980957,-15624794.006347656,-19783494.94934082,-15068148.612976074,-17538921.356201172,-18294176.10168457,-17519329.071044922,-10926429.748535156,-6550806.999206543,-18407964.7064209,-18457916.259765625,-18628412.2467041
0.13,25752887.725830078,17568067.55065918,18183057.78503418,24401269.912719727,20751121.520996094,11540390.968322754,10035943.984985352,11715593.338012695,13646846.771240234,7265957.355499268,12473122.596740723,-8186829.566955566,-7657947.063446045,7414546.966552734,2374309.301376343,4352552.890777588,-2244246.7212677,5185923.5763549805,2073508.7394714355,12551678.657531738,-7271990.2992248535,935786.5452766418,8074319.839477539,3172122.001647949,-1316353.678703308,-7928721.904754639,-201372.75755405426,4773602.9624938965,10632929.801940918,-14581791.877746582,-7524406.433105469,6253436.088562012,118342.71997213364,-8896917.343139648,-6017082.214355469,-8455809.593200684,2525769.7105407715,-1816912.6510620117,-8833779.335021973,-12155087.4710083,-12201381.68334961,-11506700.51574707,-14542279.243469238,-14994579.315185547,-14547720.909118652,-13558944.702148438,20998342.514038086,-14704538.345336914,-14057642.936706543,-14724768.63861084,-13448195.457458496,-13433749.198913574,-17521924.97253418,-12580604.553222656,-14249644.27947998,-15292242.050170898,-14384561.538696289,-7226896.286010742,-3222158.908843994,-15290658.950805664,-15242128.372192383,-17035852.432250977
0.135,25478160.858154297,18272018.432617188,18567090.98815918,24807468.41430664,21923055.64880371,12239257.8125,10821692.46673584,12579292.297363281,14546122.550964355,8322953.224182129,13757684.707641602,-5037983.417510986,-4588057.518005371,7912273.406982422,620804.6674728394,8443011.283874512,482843.90568733215,8963173.866271973,4445374.488830566,13890378.952026367,-4556418.895721436,4523490.905761719,8522407.531738281,2819487.8101348877,-114215.08342027664,-2848018.4078216553,3445620.29838562,6356754.302978516,11347249.031066895,-14114655.494689941,-5119243.144989014,6580082.893371582,747189.7602081299,-6442407.608032227,-853643.5961723328,-9198240.280151367,2590140.5811309814,822469.2344665527,-6188820.362091064,-9783903.121948242,-9876574.516296387,-12147083.282470703,-12340306.282043457,-12991323.471069336,-10409732.818603516,-10618071.556091309,23949779.510498047,-13490850.448608398,-12941457.748413086,-13659769.058227539,-14111584.663391113,-14387948.989868164,-18724300.384521484,-9878276.824951172,-13091051.10168457,-14224539.756774902,-13146246.910095215,-7485553.26461792,-3521684.8850250244,-17190851.21154785,-14078215.599060059,-18050668.716430664
0.14,16463451.385498047,12099675.178527832,11390567.779541016,18330785.751342773,17231060.028076172,6063416.004180908,4697427.749633789,6410748.9585876465,8740200.04272461,3325564.8612976074,9781062.126159668,-7423593.521118164,-7077613.353729248,3427760.362625122,-6014078.617095947,5036767.959594727,-2223659.2769622803,6312147.617340088,1675780.177116394,11011097.90802002,-6542604.446411133,2358198.881149292,4044910.9077453613,-3548343.6584472656,-5500391.960144043,-4045671.4630126953,507467.21029281616,6081191.062927246,9371394.157409668,-15762830.73425293,-6419321.537017822,1911354.899406433,-5092883.110046387,-10808163.6428833,-292305.1714897156,-13121296.882629395,2382447.4811553955,-1362394.094467163,-7171012.401580811,-11473888.397216797,-11636082.649230957,-17832906.72302246,-16453531.265258789,-17142103.19519043,-11568333.625793457,-11249761.581420898,22928108.21533203,-17213006.9732666,-16525678.634643555,-17371110.916137695,-19288753.509521484,-19763618.46923828,-24318853.3782959,-10406549.453735352,-16890331.268310547,-17807121.27685547,-16787012.100219727,-13611141.204833984,-9446184.158325195,-21910062.789916992,-17851585.388183594,-22838895.797729492
0.145,6379231.4529418945,4729636.669158936,3355048.894882202,11180849.075317383,11990632.057189941,-2065581.0832977295,-3393357.992172241,-1816966.4144515991,1229843.4972763062,-3037145.1377868652,4738754.2724609375,-11557209.968566895,-11192391.395568848,-1034367.3229217529,-12289125.442504883,-2987488.031387329,-8627194.40460205,-45114.20428752899,-3314547.300338745,6456815.719604492,-10758018.493652344,-2118136.6443634033,-420911.4611148834,-10788147.926330566,-13365725.51727295,-11879941.940307617,-6034810.0662231445,4330409.526824951,8551926.612854004,-17375923.15673828,-8626819.610595703,-2645471.5728759766,-12118451.118469238,-18196121.215820312,-4823538.780212402,-16691410.064697266,2049186.2297058105,-7119197.845458984,-9425930.976867676,-13829712.867736816,-13983954.429626465,-23504140.853881836,-23424283.981323242,-23997133.255004883,-17757953.643798828,-14254980.087280273,19185230.255126953,-20981229.782104492,-20068595.88623047,-21002944.946289062,-24752641.677856445,-25090393.06640625,-29725206.37512207,-13032146.453857422,-20703636.169433594,-21325634.002685547,-20509378.43322754,-19903583.526611328,-15600619.316101074,-23847602.84423828,-21648027.420043945,-26502326.96533203
0.15,5288786.4112854,4550081.729888916,4204876.42288208,10354838.371276855,13347537.994384766,-4447739.124298096,-5679578.3042907715,-4249912.738800049,-1524285.912513733,-4101330.280303955,3771472.215652466,-10114052.772521973,-9652148.246765137,1316035.9859466553,-12802375.793457031,-6684377.193450928,-12240758.895874023,-3218846.559524536,-5228146.553039551,5550612.449645996,-10291735.649108887,-1509369.7309494019,1834405.779838562,-11631743.431091309,-16465713.500976562,-17610324.85961914,-8824464.797973633,2969240.665435791,11144284.24835205,-14797937.393188477,-6613258.838653564,-300405.8599472046,-12977925.300598145,-20659984.588623047,-7806294.4412231445,-16814352.03552246,1919645.3094482422,-11235834.121704102,-7291442.87109375,-10719650.268554688,-10780487.060546875,-22929496.76513672,-25412046.432495117,-25920928.955078125,-22723342.895507812,-14083037.376403809,18577033.99658203,-17975112.915039062,-16915958.404541016,-17841856.002807617,-24940603.256225586,-24899915.69519043,-29757076.263427734,-12639379.501342773,-17658363.342285156,-18229482.650756836,-17425540.924072266,-18405052.185058594,-14697831.153869629,-20204078.674316406,-18590898.513793945,-23472412.109375
0.155,13453862.190246582,11774683.952331543,13505882.263183594,15598946.571350098,20661075.592041016,347211.95697784424,-763013.0648612976,574913.8593673706,1646681.9047927856,510170.3405380249,7113051.891326904,-3044629.3354034424,-2540200.94871521,8837141.990661621,-7934154.510498047,-2249802.1125793457,-10183054.92401123,-961956.8586349487,-2760629.653930664,9366220.474243164,-3471084.8331451416,4893581.390380859,9273664.474487305,-5594265.937805176,-12856075.286865234,-14735649.108886719,-5313878.536224365,3125253.438949585,14782760.620117188,-8013227.462768555,-1308802.4854660034,7300130.844116211,-7450119.495391846,-16187679.290771484,-4459652.423858643,-14164894.104003906,2132810.354232788,-9891960.144042969,-857208.9076042175,-3106789.5889282227,-3085112.0948791504,-16962013.244628906,-20382347.106933594,-20981279.373168945,-22696685.791015625,-8915380.477905273,22944705.963134766,-9828634.262084961,-8651292.80090332,-9597550.392150879,-19936845.779418945,-19702016.830444336,-25026529.31213379,-7593541.622161865,-9365144.729614258,-10184249.877929688,-9148871.421813965,-9721114.158630371,-7404142.8565979,-15036076.545715332,-10279613.494873047,-15977074.62310791
0.16,20426326.751708984,17496395.111083984,20108579.635620117,19826921.463012695,25642974.853515625,5567276.477813721,4484452.247619629,5752170.085906982,5425303.4591674805,4030030.7273864746,10157947.540283203,1060510.754585266,1558933.2580566406,12213767.051696777,-3215789.794921875,4211153.507232666,-7400308.609008789,1872731.6856384277,41188.77649307251,12598217.010498047,2452858.9248657227,9293871.879577637,12740873.336791992,202794.77536678314,-7792970.180511475,-7833001.136779785,-876405.2391052246,3992247.3430633545,14985678.672790527,-2979101.8962860107,547652.0657539368,10809251.78527832,-2347595.9300994873,-10751357.078552246,1094479.9184799194,-11862306.594848633,2477553.8444519043,-5218835.353851318,2757420.539855957,512360.0959777832,515573.3823776245,-12471082.68737793,-14465151.7868042,-15165336.608886719,-20434452.056884766,-3566767.930984497,27298156.73828125,-5381811.141967773,-4059659.957885742,-5119294.166564941,-15251289.367675781,-15207332.611083984,-20897933.959960938,-2429949.0451812744,-4757431.507110596,-5844161.9873046875,-4705392.360687256,-3344225.1682281494,-1900231.7190170288,-14041845.321655273,-5649326.801300049,-12104981.422424316
0.165,18240968.704223633,15103718.757629395,16868394.85168457,17807435.989379883,22721145.629882812,4861932.754516602,3691188.5738372803,4859185.218811035,3716502.4280548096,626978.3973693848,8770126.342773438,-3418605.089187622,-2847752.571105957,6905529.975891113,-2766156.6734313965,5474323.272705078,-9521109.580993652,218305.7814836502,-1385457.6349258423,9986321.449279785,106076.38210058212,6316208.839416504,7624890.327453613,69661.30435466766,-6856128.692626953,-5837907.791137695,-1415162.205696106,4044065.475463867,10934832.572937012,-4831778.049468994,-3666712.0456695557,5570324.897766113,-2077985.7635498047,-9956184.387207031,2223857.1643829346,-11768144.607543945,2697503.5667419434,-2231550.693511963,-610126.7337799072,-4431648.731231689,-4489746.09375,-13200173.377990723,-13424395.561218262,-14078780.174255371,-19812015.533447266,-2211974.859237671,27470849.990844727,-8574067.115783691,-7222767.8298950195,-8334810.256958008,-14801104.545593262,-15002795.219421387,-20641622.54333496,-1058672.0705032349,-7925684.928894043,-9025911.331176758,-8154188.15612793,-5329866.409301758,-3045757.532119751,-16397550.582885742,-8845135.688781738,-14688290.5960083
0.17,10637587.547302246,8096438.407897949,9428914.070129395,11814735.412597656,15493194.580078125,-282948.3151435852,-1528549.9095916748,-402808.63642692566,-3815767.526626587,-7551911.8309021,3652788.6390686035,-11270664.21508789,-10535969.734191895,-599558.6514472961,-5396451.473236084,2225664.3772125244,-14786281.58569336,-4885087.013244629,-6770954.132080078,3238707.7808380127,-8150550.842285156,799594.1638946533,163071.97511196136,-3906538.0096435547,-9886064.529418945,-10143592.834472656,-5893077.373504639,3066147.565841675,7232968.807220459,-10740571.022033691,-7992626.190185547,-1996288.4187698364,-3788485.527038574,-12727296.829223633,-327721.2381362915,-13433229.446411133,2807171.106338501,-2114887.237548828,-5692772.388458252,-11670834.5413208,-11678618.431091309,-15822961.807250977,-16160604.476928711,-16710184.097290039,-20555410.385131836,-2783961.296081543,25746253.967285156,-13455668.449401855,-12289591.789245605,-13295597.076416016,-17064870.834350586,-17177173.614501953,-22483608.24584961,-1531895.2798843384,-12925044.059753418,-13851449.012756348,-13319398.880004883,-10776794.43359375,-6861626.148223877,-16244695.663452148,-13990034.103393555,-17517318.725585938
0.175,6066309.928894043,3814788.1031036377,6539985.179901123,7609050.750732422,11111308.097839355,-4057574.2721557617,-5267883.777618408,-3976194.381713867,-11266025.54321289,-12974006.652832031,-543000.4596710205,-14096101.760864258,-13278531.074523926,-2288106.918334961,-7645117.282867432,-197682.30617046356,-17085460.662841797,-8469790.4586792,-11169157.981872559,-810086.0714912415,-13306427.955627441,568046.2718009949,-1702980.7567596436,-6381947.5173950195,-12869471.549987793,-14631444.931030273,-8751789.093017578,2397497.6539611816,8290357.58972168,-12985377.311706543,-6539893.15032959,-3746940.851211548,-3538527.488708496,-14888855.934143066,-812826.0374069214,-16016370.77331543,2934239.387512207,-1845780.9686660767,-5352918.62487793,-12656649.589538574,-12488722.801208496,-16225864.41040039,-18616031.646728516,-19210624.69482422,-20740152.35900879,-1889412.522315979,25814075.469970703,-13524257.65991211,-12561665.534973145,-13474617.958068848,-18864404.678344727,-18678510.665893555,-23717876.434326172,-686043.918132782,-13086610.794067383,-13941169.738769531,-13382503.509521484,-12032051.086425781,-7844242.095947266,-12265914.916992188,-14343337.059020996,-15166477.20336914
0.18,6004876.613616943,3383796.9303131104,7462296.009063721,7112441.062927246,11223772.048950195,-4687108.039855957,-5812163.829803467,-4211428.165435791,-12876904.487609863,-11610622.40600586,-268568.9330101013,-11856093.406677246,-11174776.077270508,371026.57556533813,-8423542.976379395,-385628.93867492676,-15057026.863098145,-8217102.05078125,-10683055.877685547,1395881.4144134521,-11638624.19128418,4977925.777435303,792262.5541687012,-6259084.224700928,-13530097.007751465,-15682566.64276123,-7721708.297729492,2994724.5121002197,12301862.716674805,-9098558.42590332,-2185529.4704437256,-981580.7938575745,-2760499.7158050537,-15447385.787963867,1260922.6703643799,-19278184.89074707,2981973.648071289,-509642.72022247314,-1071080.9230804443,-8213056.564331055,-7934385.299682617,-15546716.690063477,-20158605.575561523,-20941619.873046875,-21280475.616455078,-1257636.7855072021,26297195.434570312,-10741958.618164062,-9765413.284301758,-10760562.896728516,-19899736.404418945,-19647943.4967041,-24607019.424438477,-208634.74905490875,-10275493.621826172,-11257584.571838379,-10347559.928894043,-9630515.098571777,-7089748.859405518,-10153120.040893555,-11549532.890319824,-11400156.021118164
0.185,5651022.434234619,2755333.423614502,5764947.414398193,7592086.7919921875,11849644.660949707,-5348889.350891113,-6435885.429382324,-4685736.179351807,-9284317.016601562,-6976355.075836182,3209311.7237091064,-10992769.241333008,-10572834.014892578,481833.6069583893,-9069681.167602539,-998180.6874275208,-13269121.170043945,-6453159.332275391,-7065552.711486816,6280313.491821289,-8357710.838317871,6717740.535736084,980567.0380592346,-6409482.479095459,-12977765.083312988,-16057254.791259766,-5744209.289550781,3943755.865097046,13770844.459533691,-5041290.760040283,-1599353.1942367554,-677365.1838302612,-4933375.358581543,-16394369.125366211,512579.5602798462,-22456348.419189453,2738322.2579956055,-1433168.5304641724,-278188.3180141449,-6083443.164825439,-5881629.943847656,-17175542.8314209,-22664514.541625977,-23537801.74255371,-24502393.72253418,-4622057.914733887,23776023.864746094,-11138972.282409668,-10020487.785339355,-11128213.882446289,-21656276.70288086,-21672536.849975586,-26656929.01611328,-3629061.460494995,-10620478.630065918,-11716280.937194824,-10559030.532836914,-9492820.739746094,-9112022.399902344,-13489813.804626465,-11644716.262817383,-12918462.753295898
0.19,3262044.4297790527,1010353.4460067749,1519060.1348876953,6752773.761749268,10450427.055358887,-7916072.845458984,-9001702.308654785,-7422392.36831665,-6296622.753143311,-4951524.73449707,5565251.82723999,-13461796.760559082,-13203892.707824707,-2648757.219314575,-10443673.133850098,-2379021.644592285,-14694530.487060547,-6238707.065582275,-5400411.605834961,8367846.488952637,-8664482.116699219,3446251.392364502,-1909067.3923492432,-8155470.848083496,-13106554.985046387,-18398952.48413086,-5745748.043060303,3620707.0350646973,11348649.024963379,-6759324.073791504,-4781960.964202881,-3775004.6253204346,-9086284.637451172,-18462902.069091797,-4241189.002990723,-23995237.350463867,2296541.690826416,-6057562.351226807,-4861725.330352783,-9061564.445495605,-8982840.538024902,-20829948.42529297,-25797216.415405273,-26524271.01135254,-29780166.625976562,-10632342.338562012,19561704.635620117,-15316740.989685059,-14187498.092651367,-15216665.267944336,-24044448.852539062,-24317951.202392578,-29424575.805664062,-9549607.276916504,-14822544.09790039,-15833859.44366455,-14719785.690307617,-12472152.709960938,-13762603.759765625,-17668535.232543945,-15556530.952453613,-18580245.971679688
0.195,1444183.111190796,768567.0256614685,256563.30585479736,4862555.980682373,8283184.051513672,-10692373.275756836,-11757669.448852539,-10453306.198120117,-8073215.484619141,-7215106.010437012,4192631.721496582,-15219874.382019043,-14932896.614074707,-3796183.1092834473,-12287729.263305664,-2255156.0401916504,-17331901.55029297,-8130385.398864746,-7936416.149139404,6559100.151062012,-11026104.927062988,380699.5749473572,-2900734.4245910645,-10189842.224121094,-14846495.628356934,-20900926.58996582,-7314325.80947876,1820256.233215332,9262561.798095703,-12326624.870300293,-6250734.329223633,-5070487.976074219,-11400458.335876465,-20504341.12548828,-7017500.400543213,-23275564.193725586,2049127.5787353516,-10021996.49810791,-8770807.266235352,-12238488.19732666,-12154550.552368164,-23418561.935424805,-27283737.182617188,-27766738.891601562,-33949279.78515625,-14114965.438842773,18159622.192382812,-18703384.399414062,-17718280.792236328,-18544149.39880371,-25669042.587280273,-25933025.360107422,-31292839.05029297,-12921106.338500977,-18247627.25830078,-19089641.571044922,-18075098.037719727,-13799532.890319824,-16493350.982666016,-17034290.313720703,-18935928.344726562,-21424661.63635254
0.2,-110023.69225025177,1066667.6759719849,1376345.6344604492,2023782.0148468018,5952243.804931641,-12784687.042236328,-13832325.93536377,-12614849.090576172,-13129497.528076172,-11333428.382873535,247935.10138988495,-15328675.270080566,-14931653.97644043,-2519509.3154907227,-14674372.673034668,-1339039.2065048218,-19192892.07458496,-11051544.189453125,-12173657.417297363,3460402.488708496,-12065358.16192627,695480.6447029114,-1650234.9376678467,-12036781.311035156,-18536718.368530273,-21541393.280029297,-9225897.789001465,-228099.7335910797,10148289.680480957,-15499176.979064941,-5038195.610046387,-3851297.14012146,-11601063.72833252,-22053289.41345215,-4486471.176147461,-21432903.289794922,2172620.0580596924,-9086337.089538574,-7659172.534942627,-12033260.345458984,-11901928.901672363,-24077936.17248535,-26743677.139282227,-27075960.159301758,-35175624.84741211,-13190459.251403809,20141813.278198242,-19148399.353027344,-18274652.4810791,-18989898.681640625,-26260732.650756836,-26387821.197509766,-31984067.916870117,-11950623.512268066,-18659992.218017578,-19462976.455688477,-18414178.8482666,-12157826.42364502,-15522399.90234375,-13630553.245544434,-19511661.529541016,-19609491.3482666
0.205,-5256405.830383301,-2658886.671066284,-2119141.3402557373,-2519016.981124878,1829730.51071167,-15852074.62310791,-16936754.22668457,-15634446.144104004,-17137636.184692383,-15079949.378967285,-3620083.0936431885,-18361635.208129883,-17893413.543701172,-4639611.24420166,-17550767.89855957,-2956891.7751312256,-21463443.756103516,-13970952.987670898,-14930627.822875977,920721.0540771484,-12811944.007873535,633034.1100692749,-3884748.2204437256,-14272999.76348877,-23782684.326171875,-21782705.307006836,-11732223.510742188,-1617255.9261322021,10967656.135559082,-14432099.342346191,-5979064.94140625,-5813642.0249938965,-12622285.842895508,-23376726.150512695,-1825948.5960006714,-19684617.99621582,2382701.3969421387,-6119975.0900268555,-4838381.290435791,-11198432.922363281,-11163224.220275879,-24428571.701049805,-25685573.57788086,-25989011.764526367,-33830993.65234375,-10418992.99621582,21537712.09716797,-18782011.032104492,-17938709.259033203,-18631769.18029785,-26499225.616455078,-26577800.750732422,-32144378.662109375,-9190541.26739502,-18241254.806518555,-19130041.122436523,-18053133.010864258,-12022402.7633667,-13840894.69909668,-13251880.645751953,-19196704.864501953,-18135618.209838867
0.21,-12855381.01196289,-9589399.337768555,-10398016.929626465,-6967894.077301025,-3192004.680633545,-19622232.43713379,-20756668.090820312,-19403810.501098633,-17709775.924682617,-17724300.384521484,-5838802.814483643,-24967157.3638916,-24437623.977661133,-11057046.890258789,-19035421.37145996,-6137225.151062012,-24355079.650878906,-15712578.773498535,-15795185.089111328,-777183.2942962646,-15233536.720275879,-2579374.5517730713,-10427946.090698242,-15315251.350402832,-28964723.587036133,-23027585.983276367,-14629457.473754883,-2398090.8393859863,8765081.405639648,-12729044.914245605,-10175526.61895752,-12135712.623596191,-14363906.860351562,-23444234.84802246,-4035611.152648926,-18081098.556518555,2334364.652633667,-7505743.503570557,-5021751.403808594,-12739983.558654785,-12863615.989685059,-24592004.776000977,-24341550.827026367,-24700448.989868164,-30736431.121826172,-7704359.05456543,20116308.212280273,-18917524.337768555,-18131618.49975586,-18730388.641357422,-26160520.553588867,-26234178.54309082,-31509578.704833984,-6519943.2373046875,-18372920.989990234,-19297922.134399414,-18348304.748535156,-15338810.920715332,-13768217.086791992,-15856040.954589844,-19270839.69116211,-19413097.381591797
0.215,-14896317.481994629,-11826964.378356934,-13551823.616027832,-6770030.498504639,-4156295.2995300293,-20038520.81298828,-21118761.06262207,-19776548.385620117,-15451570.510864258,-18110569.00024414,-6003015.041351318,-27722385.40649414,-27061029.4342041,-13975880.62286377,-16796703.338623047,-5134966.850280762,-24154680.252075195,-14822918.891906738,-15620329.856872559,-645570.7550048828,-16374525.07019043,-4538749.694824219,-13491553.30657959,-12328089.714050293,-32693992.614746094,-23015361.785888672,-15623291.015625,-2496799.4689941406,6458601.474761963,-12999550.819396973,-11967566.49017334,-15304701.805114746,-13202897.071838379,-20865764.617919922,-6991704.940795898,-16646242.141723633,2036296.3676452637,-13755018.23425293,-7073832.988739014,-14688776.969909668,-14766952.514648438,-23150327.682495117,-21948072.43347168,-22457078.93371582,-27460266.11328125,-4866915.225982666,17804201.126098633,-18373180.389404297,-17632762.908935547,-18100481.033325195,-24876768.112182617,-24841197.967529297,-29879470.825195312,-3717839.7178649902,-17807659.149169922,-18670669.555664062,-17851976.39465332,-17583179.473876953,-14075837.135314941,-16657224.655151367,-18616519.927978516,-19760351.181030273
0.22,-7338063.2400512695,-5506384.372711182,-6326339.7216796875,-527665.7938957214,1399811.9831085205,-14988596.91619873,-15858064.651489258,-14452684.40246582,-11907855.987548828,-14845052.719116211,-4079330.4443359375,-21536214.82849121,-20730913.162231445,-8856524.467468262,-11641864.776611328,1700187.9215240479,-18127912.521362305,-11112144.470214844,-14003523.826599121,2512523.1742858887,-11926183.700561523,-573314.9647712708,-8487425.804138184,-6208944.320678711,-35635643.005371094,-19265493.392944336,-13020045.280456543,-1394327.5213241577,8737399.101257324,-13617007.2555542,-8270865.440368652,-10586134.910583496,-8474137.306213379,-16793338.775634766,-3687315.2256011963,-16245582.580566406,1731480.7176589966,-18474674.224853516,-6859691.143035889,-14273292.541503906,-14088225.364685059,-20879741.668701172,-19605667.114257812,-20307151.794433594,-27153007.50732422,-2958654.8805236816,16524614.334106445,-17173439.025878906,-16296356.201171875,-16792123.794555664,-23886196.13647461,-23692590.713500977,-28772735.595703125,-1761615.3955459595,-16502489.08996582,-17326004.028320312,-16445913.314819336,-15083669.662475586,-13403771.40045166,-15034152.98461914,-17252626.419067383,-17256469.7265625
0.225,2805993.5569763184,2336169.0044403076,2421920.2995300293,6716437.816619873,8559997.55859375,-8674996.376037598,-9259461.402893066,-7737909.317016602,-8148443.222045898,-9025099.754333496,-614021.0628509521,-12678862.571716309,-11889405.250549316,-2918907.403945923,-7467749.118804932,7850450.51574707,-9738109.588623047,-6502970.218658447,-10315361.976623535,7204853.057861328,-4142423.152923584,5583861.351013184,-2507375.478744507,-1957950.3536224365,-39269542.6940918,-13822396.278381348,-8605316.162109375,637011.1703872681,14472982.406616211,-12471926.68914795,-4185420.513153076,-4731554.03137207,-4716156.005859375,-14218868.255615234,4010746.0021972656,-17013656.616210938,1569831.8481445312,-17227607.72705078,-4077243.3280944824,-12883068.084716797,-12524668.69354248,-20538900.37536621,-19388387.68005371,-20144384.384155273,-31312082.290649414,-4038414.478302002,15641665.4586792,-17191036.224365234,-16059099.197387695,-16724277.49633789,-24512239.456176758,-24301715.850830078,-29544427.8717041,-2714364.2902374268,-16441806.79321289,-17293127.059936523,-16295957.565307617,-11239867.210388184,-12822507.858276367,-15247550.010681152,-17083026.885986328,-16187118.530273438
0.23,6715853.214263916,3557829.6184539795,2327690.601348877,9474998.474121094,11006899.8336792,-6384156.703948975,-6761557.579040527,-5242725.849151611,-4714807.987213135,-4116201.400756836,3304590.2252197266,-10600517.272949219,-10035242.080688477,-4752706.050872803,-6564718.723297119,7268758.773803711,-5018808.841705322,-3146553.9932250977,-5851845.741271973,9960493.087768555,-22518.65155994892,6630261.421203613,-4129250.0495910645,-2271455.2879333496,-43031471.252441406,-11009852.409362793,-5522084.712982178,2249782.085418701,17872913.360595703,-10300056.457519531,-4535163.879394531,-6223989.009857178,-5221765.041351318,-13973775.863647461,7298345.08895874,-17140125.274658203,1569621.0861206055,-13106049.537658691,-1803385.9729766846,-12793148.040771484,-12543292.999267578,-22128435.134887695,-20534761.428833008,-21130340.576171875,-36208759.30786133,-6787906.169891357,14646587.371826172,-17891422.271728516,-16713087.08190918,-17436647.415161133,-25314943.313598633,-25258134.841918945,-30483636.8560791,-5409257.411956787,-17243064.880371094,-18080060.958862305,-17190357.208251953,-11260540.962219238,-13284149.169921875,-17974597.930908203,-17768215.17944336,-19335876.46484375
0.235,5537920.4750061035,505136.25144958496,-3258285.9992980957,8592603.68347168,9312373.161315918,-7485824.108123779,-7851497.173309326,-6438381.195068359,-1904687.1662139893,-2413189.41116333,6722053.050994873,-14688833.236694336,-14363875.389099121,-11108296.394348145,-7258153.438568115,2502349.853515625,-5530487.537384033,-1684702.2771835327,-3170253.7536621094,9503707.885742188,-1919820.4278945923,2509180.5458068848,-10297490.119934082,-4513547.897338867,-45077602.38647461,-12124761.581420898,-4541786.193847656,2549489.2597198486,16241161.346435547,-9065001.487731934,-5859442.710876465,-12206134.796142578,-7740975.856781006,-14218655.586242676,3054714.9181365967,-15217649.459838867,1722913.9804840088,-11646207.809448242,-1060841.2027359009,-12619676.58996582,-12590836.524963379,-22490392.684936523,-20279640.197753906,-20705844.87915039,-36355495.45288086,-6807024.955749512,15019316.673278809,-16041179.656982422,-15142149.925231934,-15729223.251342773,-23850545.88317871,-23941612.243652344,-28918777.465820312,-5579122.066497803,-15606929.779052734,-16340692.520141602,-15718013.763427734,-14462030.410766602,-13687601.089477539,-18379640.579223633,-16203327.178955078,-21826057.43408203
0.24,6280945.301055908,790147.9601860046,-3887387.752532959,8254629.135131836,8537818.908691406,-7827968.120574951,-8359573.3642578125,-6914169.788360596,-138268.23234558105,-3537652.015686035,8594308.853149414,-16757646.560668945,-16458929.061889648,-12550262.451171875,-7548238.277435303,-236005.2615404129,-8240388.870239258,-2204707.145690918,-3775978.3267974854,7709380.626678467,-5542937.755584717,-359298.13981056213,-11767642.0211792,-5870938.777923584,-45969963.07373047,-15215039.253234863,-4535451.412200928,1920758.3665847778,12189189.910888672,-9586069.107055664,-3249396.0857391357,-13593838.691711426,-9128072.738647461,-14262796.401977539,-2350255.4893493652,-12926782.608032227,1946399.211883545,-13497217.178344727,-227439.92507457733,-10638232.231140137,-10715594.291687012,-20964063.64440918,-18841735.83984375,-19330015.182495117,-31709457.397460938,-2681775.3314971924,17666402.81677246,-11642872.81036377,-11035657.88269043,-11517044.067382812,-21276945.114135742,-21366670.608520508,-26048418.045043945,-1731380.7010650635,-11319895.74432373,-11997325.897216797,-11411901.473999023,-16221893.310546875,-13366657.257080078,-14755644.798278809,-12171617.50793457,-18508445.739746094
0.245,9204359.05456543,3983484.0297698975,427862.82300949097,8309750.556945801,9155945.777893066,-7202661.514282227,-7905627.727508545,-6212276.935577393,-288372.2484111786,-6816289.42489624,7013772.964477539,-14857285.499572754,-14381941.795349121,-8999087.3336792,-8636947.631835938,-331472.33724594116,-10938708.305358887,-5438176.63192749,-7455605.506896973,5899803.638458252,-8063268.661499023,93463.43576908112,-8416219.711303711,-7707252.979278564,-48673049.92675781,-18570295.333862305,-5460621.8338012695,818871.1404800415,8419888.496398926,-12199262.619018555,-684416.5325164795,-10203413.963317871,-10461014.747619629,-15779076.57623291,-2757281.3034057617,-13053637.504577637,2049994.4686889648,-15057553.2913208,590048.4919548035,-9952103.614807129,-10041254.043579102,-21329366.68395996,-19591543.197631836,-20308526.99279785,-27515710.830688477,2135338.78326416,20965869.903564453,-9877980.23223877,-9260203.36151123,-9841066.360473633,-21678562.16430664,-21665843.963623047,-26091543.197631836,2893355.60798645,-9494491.577148438,-10267523.765563965,-9351620.6741333,-15154557.228088379,-13758565.902709961,-12508806.228637695,-10487435.340881348,-13170236.587524414
0.25,8100693.702697754,2776982.545852661,-128677.83010005951,5194144.248962402,6776785.373687744,-8837875.366210938,-9521759.033203125,-7618570.804595947,-2720498.0850219727,-12212769.508361816,976405.0841331482,-15248886.108398438,-14641430.854797363,-9158658.981323242,-11928252.220153809,-1047775.7453918457,-13496497.15423584,-11119077.682495117,-12723075.866699219,3290060.9970092773,-11651404.38079834,-710729.7778129578,-8744115.829467773,-11169248.580932617,-53603691.10107422,-20916200.637817383,-7964910.507202148,-865577.220916748,4944650.173187256,-16939268.112182617,-5709087.84866333,-10435064.315795898,-13408508.30078125,-18734270.095825195,676067.7099227905,-15136732.10144043,1936508.059501648,-14257878.303527832,-744804.9783706665,-14380142.211914062,-14507285.118103027,-25262878.41796875,-22790727.615356445,-23631887.435913086,-26546468.73474121,5183921.813964844,23071365.356445312,-13637969.970703125,-12818455.696105957,-13574883.460998535,-25484224.319458008,-25402658.462524414,-29544448.852539062,5942913.055419922,-13158995.628356934,-14052015.30456543,-12814761.1618042,-13262987.13684082,-15033607.482910156,-15165001.86920166,-14008193.969726562,-12972166.061401367
0.255,2438453.435897827,-3441704.034805298,-7903414.249420166,-225031.48019313812,1084172.7256774902,-12208557.12890625,-12675332.069396973,-10820795.059204102,-5766614.4371032715,-17849941.25366211,-6491038.799285889,-20057607.650756836,-19549242.01965332,-15140122.413635254,-14883493.423461914,-1534600.9731292725,-14607378.005981445,-16153347.01538086,-16851629.25720215,171734.4969511032,-16844522.47619629,-4587505.81741333,-14755031.58569336,-12605731.010437012,-56716297.1496582,-19772291.18347168,-10624376.29699707,-2494335.412979126,2133084.774017334,-21552600.860595703,-15897179.60357666,-16354274.74975586,-15287201.881408691,-19598611.83166504,3942595.958709717,-15507691.383361816,1733290.7915115356,-12482945.442199707,-3854645.9674835205,-20739927.291870117,-20917791.36657715,-28082899.09362793,-23654582.977294922,-24409263.610839844,-26056045.532226562,8477480.8883667,24171892.166137695,-17953445.434570312,-17047542.572021484,-17869909.286499023,-27480653.762817383,-27410701.751708984,-31297698.974609375,9361757.278442383,-17450157.165527344,-18289934.158325195,-17150789.260864258,-10962152.481079102,-14094144.821166992,-17462141.036987305,-18106166.83959961,-16673259.735107422
0.26,401676.744222641,-5605900.764465332,-12550996.780395508,-1724829.4353485107,-1347707.5099945068,-12238714.218139648,-12495182.037353516,-10822191.23840332,-6391223.907470703,-19537105.560302734,-9459538.459777832,-22023962.020874023,-21758020.401000977,-18172872.54333496,-13748037.338256836,2265148.401260376,-11977258.682250977,-16768192.291259766,-16924985.885620117,-498544.3949699402,-18587091.44592285,-6185210.227966309,-17738126.754760742,-8518420.219421387,-54895572.662353516,-14105442.04711914,-10827346.801757812,-2270696.6400146484,2286845.4456329346,-21950256.34765625,-19866577.1484375,-19377828.59802246,-12840056.419372559,-16352191.925048828,5988338.947296143,-12233775.13885498,1587147.59349823,-11339392.66204834,-4984110.8322143555,-21545820.236206055,-21746923.446655273,-25265268.325805664,-19592996.59729004,-20185358.04748535,-24022174.835205078,13485861.778259277,25108348.846435547,-16526639.938354492,-15676860.809326172,-16496700.286865234,-24213005.06591797,-24174814.224243164,-28074525.833129883,14497909.545898438,-16015087.127685547,-16668342.590332031,-15935539.245605469,-7402052.402496338,-9482086.181640625,-13566130.638122559,-16729753.494262695,-16767196.655273438
0.265,6856573.104858398,1715021.9678878784,-6360151.767730713,3440744.8768615723,4067672.7294921875,-7229363.441467285,-7459311.008453369,-5845641.136169434,-3456365.5853271484,-15293265.342712402,-5327478.408813477,-15521486.282348633,-15396895.408630371,-12497525.215148926,-9845001.220703125,9166762.351989746,-6694763.660430908,-12640276.908874512,-12767336.84539795,3114210.605621338,-13183237.075805664,-1275379.7769546509,-12015715.599060059,-2805070.161819458,-50952480.31616211,-8127705.5740356445,-8767217.636108398,434736.7584705353,6326319.217681885,-16911254.8828125,-12921452.522277832,-13808178.901672363,-8803995.132446289,-12610121.726989746,7001036.167144775,-7710977.554321289,1464093.9235687256,-10303172.11151123,-2177523.8513946533,-15638178.825378418,-15922690.391540527,-20228597.64099121,-15409783.363342285,-15885189.056396484,-23323410.034179688,16857614.517211914,25676465.98815918,-11218688.011169434,-10360659.5993042,-11222434.043884277,-20056297.302246094,-20024425.506591797,-24250179.290771484,17938734.05456543,-10639949.798583984,-11225434.303283691,-10731276.512145996,-4760917.186737061,-5725261.688232422,-7633842.468261719,-11603803.634643555,-12403505.325317383
0.27,15263373.374938965,11610634.803771973,4197169.780731201,9716796.875,12939797.401428223,-2545335.531234741,-2871435.8806610107,-1176624.1788864136,661592.4835205078,-8605736.73248291,1744080.662727356,-5920680.999755859,-5708840.370178223,-4487390.518188477,-8877887.725830078,12277751.922607422,-3538970.470428467,-7177413.463592529,-7876134.872436523,8593278.884887695,-5082052.707672119,6119672.775268555,-3978336.811065674,-2890629.529953003,-50167503.356933594,-7999123.096466064,-7504333.019256592,3567723.9894866943,11706254.959106445,-10544918.060302734,-3392718.3151245117,-5878542.423248291,-8926522.254943848,-13162686.347961426,5620272.636413574,-5135722.1603393555,1306373.7154006958,-8213208.198547363,1733882.7848434448,-10168832.778930664,-10637667.655944824,-20226980.209350586,-16917078.018188477,-17302051.544189453,-26194974.899291992,15159886.360168457,25707067.489624023,-9388926.50604248,-8443733.215332031,-9298452.377319336,-21609260.55908203,-21603364.944458008,-26107398.986816406,16266809.463500977,-8717231.750488281,-9472795.486450195,-8838723.182678223,-6599876.880645752,-8152453.422546387,-8350250.244140625,-9844652.17590332,-11249782.56225586
0.275,16319322.58605957,14029994.96459961,7785846.710205078,10364325.523376465,17449220.657348633,-3538745.403289795,-3887427.568435669,-2146230.936050415,2758814.3348693848,-4790674.686431885,5589342.11730957,-2236576.0803222656,-1797606.5874099731,-2725359.6782684326,-13137040.138244629,8737612.7243042,-5133704.662322998,-3658463.716506958,-5688712.596893311,12169328.689575195,-1639849.9011993408,9408953.666687012,-2229691.26701355,-8996370.315551758,-53196189.880371094,-13936393.737792969,-8195966.720581055,4814418.315887451,15431030.2734375,-7713043.212890625,-230539.4411087036,-4111424.446105957,-13023276.329040527,-16885837.55493164,1957067.847251892,-4487071.514129639,1237181.305885315,-5468473.9112854,3164186.954498291,-10400838.851928711,-10970694.541931152,-25646593.09387207,-21918050.76599121,-22216180.8013916,-28761278.15246582,11004432.678222656,25952238.082885742,-12794245.719909668,-11908757.209777832,-12532208.442687988,-27757522.583007812,-27844158.172607422,-32214981.079101562,12153605.461120605,-12071012.496948242,-13045893.669128418,-12171631.813049316,-11301480.293273926,-14465391.159057617,-14915005.683898926,-13204725.26550293,-16753927.230834961
0.28,10007137.298583984,8322159.767150879,2789635.8966827393,5889443.874359131,15629167.556762695,-8476170.539855957,-8698032.37915039,-7018747.329711914,2302067.279815674,-5254346.3706970215,4727131.366729736,-5025736.331939697,-4390917.3011779785,-6062855.243682861,-18207757.9498291,4078390.121459961,-8558508.87298584,-2684570.550918579,-5824283.123016357,12938990.592956543,-3684131.145477295,8247621.536254883,-5658567.905426025,-13512648.582458496,-55860080.71899414,-19399663.9251709,-8289153.099060059,4533810.615539551,16932773.59008789,-8491163.25378418,-1626012.682914734,-7481930.255889893,-14853342.056274414,-18172739.028930664,87117.88803339005,-3849387.8841400146,1391529.4408798218,-3860531.5685272217,2269482.6126098633,-13223161.697387695,-13645430.564880371,-29226318.359375,-22871358.87145996,-23137105.94177246,-26267906.188964844,9877593.040466309,26441106.79626465,-15373785.018920898,-14755661.964416504,-15012144.088745117,-30545701.98059082,-30712440.490722656,-34657558.44116211,11105620.384216309,-14649297.714233398,-15634109.497070312,-14754594.802856445,-12509500.503540039,-16724075.317382812,-17189577.102661133,-15766147.61352539,-22120368.95751953
0.285,4211568.832397461,1887109.7564697266,-3184689.2833709717,2172009.9449157715,11719901.084899902,-11551001.54876709,-11597023.963928223,-10014885.902404785,1335368.037223816,-7194112.300872803,2430812.120437622,-7412713.050842285,-6703052.520751953,-7739115.7150268555,-19123294.830322266,4261062.145233154,-9332574.844360352,-3266215.3244018555,-5621567.249298096,12321839.332580566,-5778269.7677612305,7259646.415710449,-7443708.896636963,-11896418.571472168,-55419864.654541016,-19250930.786132812,-5921789.646148682,4692879.676818848,17128084.182739258,-9245115.280151367,-690989.3751144409,-9272939.682006836,-11452099.800109863,-14983714.10369873,3293719.76852417,-3186575.8895874023,1653086.3046646118,-4643210.411071777,1503136.6348266602,-13536754.608154297,-13721420.288085938,-26479570.388793945,-17704391.479492188,-18018867.49267578,-21310813.903808594,12270519.256591797,25710556.030273438,-13135640.144348145,-12725303.649902344,-12801381.11114502,-26159574.508666992,-26260005.950927734,-29921257.01904297,13522254.943847656,-12437306.40411377,-13222373.962402344,-12527942.657470703,-7934071.5408325195,-12252650.260925293,-10750354.766845703,-13553367.614746094,-21079994.201660156
0.29,4321556.091308594,264062.374830246,-4231578.350067139,2749937.2959136963,9837086.67755127,-10278306.96105957,-10215683.937072754,-8741653.442382812,1669758.677482605,-7814156.055450439,1711632.251739502,-5435621.26159668,-4755990.982055664,-6194284.915924072,-16388767.24243164,8146977.424621582,-6647572.040557861,-4425906.658172607,-4260090.8279418945,11276014.32800293,-4341365.337371826,8724905.967712402,-5859467.029571533,-8210248.947143555,-53462322.23510742,-15338409.423828125,-3334766.626358032,5688596.248626709,16997741.69921875,-7836379.528045654,3264489.17388916,-7734006.404876709,-7040606.498718262,-11359155.654907227,8853087.425231934,-4282180.7861328125,1798286.0803604126,-7252746.105194092,1693517.2080993652,-11996901.512145996,-12120388.03100586,-21441133.499145508,-12617701.530456543,-13033507.347106934,-21066385.26916504,13367830.276489258,23086385.72692871,-10251745.223999023,-9775645.25604248,-10001469.612121582,-19990085.60180664,-19917442.321777344,-23598144.53125,14475208.282470703,-9606761.932373047,-10218608.856201172,-9611084.938049316,-3061460.9718322754,-7354159.355163574,-3723202.705383301,-10654564.85748291,-17435892.10510254
0.295,8724425.315856934,3281319.8566436768,-1059819.221496582,6115903.854370117,10901151.657104492,-6914353.847503662,-6838267.3263549805,-5561603.06930542,3205194.4732666016,-6718162.059783936,2815195.7988739014,-1564628.9587020874,-975270.8077430725,-4765184.40246582,-13676298.141479492,10937532.424926758,-3187262.535095215,-5325788.497924805,-3151983.0226898193,10390889.167785645,-1045392.7516937256,11153221.130371094,-4198184.013366699,-7494543.075561523,-52156875.61035156,-12575854.301452637,-3543246.269226074,6182463.645935059,17944574.3560791,-5206898.6892700195,5498001.0986328125,-6054719.4480896,-5883097.6486206055,-11158655.166625977,11422611.236572266,-7205698.9669799805,1812993.049621582,-9704675.674438477,1929760.3368759155,-11997296.333312988,-12187499.046325684,-19928236.00769043,-13231807.708740234,-13793128.967285156,-26779918.670654297,10331076.622009277,20073322.296142578,-11918533.325195312,-11258576.393127441,-11733022.689819336,-18753026.962280273,-18635501.861572266,-22401809.692382812,11186516.761779785,-11355181.694030762,-11975985.527038574,-11256909.370422363,-3302451.8489837646,-8032264.709472656,-4942348.003387451,-12289511.680603027,-17913366.317749023
0.3,12585797.309875488,8028985.023498535,2399628.8776397705,8925241.470336914,13973278.999328613,-4469742.298126221,-4469788.551330566,-3510772.466659546,4616452.693939209,-4941636.562347412,4810204.50592041,720584.6905708313,1186691.403388977,-4151315.212249756,-12408927.917480469,11000488.28125,-1744786.262512207,-5476044.654846191,-2938245.5348968506,10902740.478515625,1088794.469833374,13212048.530578613,-3392738.5807037354,-8419502.258300781,-51110130.310058594,-12849032.402038574,-5766343.593597412,5637666.702270508,20929908.752441406,-2964086.7710113525,4423311.233520508,-5127432.823181152,-6509255.886077881,-13126530.647277832,9948026.657104492,-9250210.762023926,1834775.5670547485,-10261206.62689209,1858945.7273483276,-12959773.063659668,-13079420.08972168,-21686368.942260742,-17746608.73413086,-18478509.9029541,-31641614.91394043,5672071.45690918,17892175.674438477,-16011857.986450195,-15317420.959472656,-15850905.418395996,-21788602.828979492,-21872581.481933594,-25617269.51599121,6387686.729431152,-15532089.233398438,-16242370.60546875,-15409853.9352417,-6628206.729888916,-11850136.756896973,-11983233.451843262,-16424455.642700195,-21068029.403686523
0.305,12512753.4866333,11276464.462280273,2837011.0988616943,9168406.48651123,17233402.252197266,-3968968.629837036,-4133485.3172302246,-3514146.327972412,4887340.545654297,-3623286.9625091553,6884963.512420654,889221.0721969604,1213755.488395691,-2078564.8822784424,-11441932.678222656,10029492.378234863,-3141565.7997131348,-5183562.755584717,-2563572.645187378,12951777.458190918,1151978.4927368164,14770048.141479492,-1456850.0518798828,-7209082.60345459,-49217769.622802734,-14494347.57232666,-6756928.92074585,5057316.780090332,24167894.36340332,-2052231.3117980957,3085283.7562561035,-3011850.595474243,-5632192.134857178,-13818891.525268555,7745207.3097229,-8067916.8701171875,1880963.4447097778,-8834261.894226074,1843808.1741333008,-11856050.491333008,-11772576.332092285,-22339675.903320312,-20836618.423461914,-21641063.690185547,-30145957.946777344,2975085.496902466,15696436.882019043,-16643867.492675781,-16029806.137084961,-16452896.118164062,-23419019.69909668,-23731475.830078125,-27517181.396484375,3775126.2187957764,-16212581.634521484,-16918102.264404297,-16148777.00805664,-7430531.5017700195,-12534185.409545898,-16289739.608764648,-17112304.6875,-20315746.307373047
0.31,8740548.133850098,10869812.965393066,-352094.7992801666,7343412.87612915,18623098.373413086,-4377274.990081787,-4737186.431884766,-4334067.344665527,4413870.811462402,-3321118.3547973633,8103232.383728027,71967.60922670364,249923.64645004272,1139948.7257003784,-9912808.418273926,9653953.552246094,-5680050.373077393,-4624809.265136719,-1415737.9865646362,14177743.911743164,-37299.904972314835,15129908.561706543,1335235.9533309937,-4203830.718994141,-46818111.419677734,-15083963.394165039,-5400333.404541016,5176614.284515381,24474239.349365234,-3014075.994491577,3266983.0322265625,-51385.08602976799,-3252511.2628936768,-12319330.215454102,7074946.403503418,-4444738.864898682,1884616.494178772,-6680338.8595581055,1730276.4654159546,-9135247.230529785,-9018031.120300293,-19872602.462768555,-20440996.170043945,-21108381.271362305,-24712530.1361084,2972837.448120117,13271585.464477539,-13167452.812194824,-12499288.558959961,-12875920.295715332,-21102737.426757812,-21369340.896606445,-25461315.155029297,3956911.325454712,-12717288.01727295,-13336211.204528809,-12716192.245483398,-4513523.101806641,-9007925.987243652,-15389166.831970215,-13533074.378967285,-14700568.199157715
0.315,5600377.559661865,8574506.759643555,-3472638.1301879883,6582473.7548828125,18357234.954833984,-3211991.786956787,-3673209.9056243896,-3262797.1172332764,4961596.0121154785,-3176224.708557129,8129261.9705200195,-207317.70992279053,-154226.25839710236,3049081.325531006,-7408806.800842285,11243188.858032227,-5743357.181549072,-2764224.7676849365,-239167.66047477722,12763200.759887695,-752641.2606239319,14119892.120361328,2895476.3412475586,-1695854.663848877,-44342350.006103516,-12863405.227661133,-3353132.0095062256,5633639.335632324,22088779.44946289,-5055130.958557129,3500503.3016204834,1602704.1673660278,-505955.5172920227,-9809684.753417969,7322747.707366943,-1270083.4274291992,1917171.7166900635,-4896349.906921387,1369315.505027771,-7793333.053588867,-7896071.434020996,-15680390.357971191,-17954063.415527344,-18394226.07421875,-20937414.169311523,4818537.23526001,13232766.151428223,-10300013.542175293,-9418692.588806152,-9883024.215698242,-17355680.465698242,-17323535.919189453,-21870449.06616211,5938595.294952393,-9740129.470825195,-10357127.18963623,-9758990.287780762,-1089640.8557891846,-5240704.05960083,-13597196.578979492,-10404631.614685059,-9408559.799194336
0.32,8137845.039367676,9601874.351501465,-1151194.8108673096,10073131.561279297,19659801.483154297,1290559.0534210205,895215.8689498901,1542345.2854156494,7797067.165374756,-1398165.5836105347,8317223.54888916,1955375.7905960083,1966368.9136505127,4270178.79486084,-2937582.25440979,16122129.440307617,-1165474.0571975708,938541.59116745,442826.0624408722,10727993.965148926,996106.3861846924,14099041.938781738,4120175.361633301,1275683.4030151367,-41254001.61743164,-7973590.850830078,-2020763.635635376,6050008.296966553,20994781.494140625,-5417225.8377075195,2982928.514480591,2796245.0981140137,3557801.7234802246,-6922364.711761475,7661879.539489746,-704378.2472610474,2070652.2464752197,-3797227.144241333,1580122.470855713,-7666295.528411865,-7908674.716949463,-11375883.102416992,-14685050.010681152,-15059257.507324219,-20493944.16809082,7796091.556549072,17447027.2064209,-10420879.364013672,-9454302.787780762,-9960069.65637207,-14937284.469604492,-14653205.871582031,-19521097.18322754,9032845.497131348,-9704021.453857422,-10447405.815124512,-9717501.640319824,1070095.5390930176,-3335874.319076538,-13319281.578063965,-10356310.844421387,-7053695.6787109375
0.325,15856133.460998535,16013042.449951172,6855360.03112793,16585718.154907227,24594938.278198242,7211125.85067749,6982512.474060059,7951710.7009887695,11534879.684448242,2184185.028076172,10268180.847167969,7091704.845428467,7214278.221130371,7789478.778839111,3263307.3329925537,22768798.828125,5166373.252868652,4246615.886688232,1079845.7860946655,11450310.707092285,5436123.847961426,17508705.139160156,7896497.72644043,6656386.375427246,-37983398.4375,-3638059.616088867,-1263470.6497192383,6453041.076660156,23012725.830078125,-2163458.1089019775,3471844.9115753174,6429633.617401123,9121294.975280762,-3932319.164276123,8151944.160461426,-2687286.138534546,2169048.547744751,-3424593.210220337,3088547.2297668457,-5616962.909698486,-5644641.876220703,-7881920.337677002,-11228793.144226074,-11734490.394592285,-21486391.067504883,10531441.688537598,22888864.517211914,-10750074.38659668,-10009398.460388184,-10377505.3024292,-13799869.537353516,-13479254.722595215,-18422315.59753418,11924249.649047852,-9973519.325256348,-10793280.601501465,-9970246.315002441,3330265.522003174,-1623485.5651855469,-12207382.202148438,-10804198.265075684,-5037254.810333252
0.33,21972764.96887207,22707670.211791992,13980445.861816406,20550868.98803711,30385164.260864258,10145394.325256348,10054378.509521484,11178443.908691406,13074225.425720215,5015358.924865723,13191631.317138672,12510373.11553955,12883807.182312012,12946665.76385498,8127141.952514648,26466630.935668945,7711677.551269531,4369801.998138428,1836957.9315185547,14729047.775268555,9790468.215942383,22740936.279296875,13304451.942443848,11978522.300720215,-36814315.79589844,-3443466.4249420166,-688712.7757072449,6535887.718200684,24949512.481689453,2661449.432373047,6397861.003875732,11674240.112304688,12720007.89642334,-2011187.0765686035,8376227.378845215,-5202307.70111084,1954790.8306121826,-3783209.800720215,5169114.112854004,-1505387.9022598267,-1152999.997138977,-6393397.331237793,-8705317.497253418,-9315990.447998047,-22684478.759765625,11318605.422973633,24760171.89025879,-8751694.679260254,-8337397.575378418,-8519076.347351074,-12818087.577819824,-12564856.52923584,-17393819.80895996,12790493.01147461,-8121927.261352539,-8814853.66821289,-8073071.479797363,6730021.4767456055,917308.4497451782,-8752572.059631348,-9095701.217651367,-1602002.739906311
0.335,21746994.018554688,23782052.993774414,14989988.327026367,18901670.455932617,32686511.993408203,9028407.096862793,8987135.887145996,9966445.922851562,11519512.176513672,4892966.270446777,14576086.044311523,14935134.887695312,15547329.902648926,15486308.097839355,9012294.76928711,25172119.140625,5421191.215515137,2540071.0105895996,2163421.869277954,17262058.25805664,11279353.141784668,25767215.728759766,16002243.041992188,12800156.593322754,-38783126.83105469,-6065044.403076172,-104904.59948778152,5919660.0914001465,23894031.524658203,5157265.663146973,10906714.43939209,14260568.618774414,11649282.455444336,-1863985.8961105347,8022805.213928223,-5720041.751861572,1572748.5418319702,-4484940.528869629,6740464.210510254,843403.5181999207,1371259.9277496338,-7162375.926971436,-7770312.309265137,-8336403.846740723,-23854545.59326172,10734178.54309082,22937215.80505371,-5964803.218841553,-5641789.91317749,-5802052.4978637695,-11649152.755737305,-11445053.100585938,-16004070.281982422,12054076.194763184,-5584593.296051025,-6063699.722290039,-5456009.387969971,10463672.637939453,2879993.200302124,-5050419.330596924,-6495452.880859375,1370979.905128479
0.34,18838085.174560547,20748836.517333984,12742541.313171387,15592158.317565918,31410970.68786621,8107595.443725586,8071999.549865723,8783144.9508667,9863647.4609375,3239848.3753204346,13788367.27142334,14851802.825927734,15514324.188232422,14320205.688476562,7574634.552001953,23073757.17163086,3353913.5456085205,2964709.0435028076,2148116.111755371,17607894.897460938,10875679.016113281,25742082.595825195,14955836.296081543,9777666.091918945,-41505268.09692383,-5946198.9402771,1020303.0109405518,5249126.434326172,21970764.16015625,4760932.922363281,15290154.457092285,13129837.989807129,8883058.547973633,-2215223.789215088,8485737.800598145,-3550205.707550049,1475320.6968307495,-5174362.659454346,8007472.991943359,-332619.5180416107,90414.66563940048,-8203248.023986816,-7393402.576446533,-7925042.629241943,-23827522.27783203,11338387.489318848,21389820.098876953,-4885653.972625732,-4400277.614593506,-4712818.145751953,-10448069.57244873,-10323659.896850586,-14486747.741699219,12353085.5178833,-4632716.178894043,-5061657.428741455,-4420227.527618408,13704379.081726074,3547161.57913208,-3030272.2454071045,-5409586.429595947,2465193.9868927
0.345,19705411.911010742,19838356.018066406,13007863.04473877,16251214.981079102,30137475.967407227,10888957.977294922,10904584.884643555,11543766.021728516,11357023.239135742,3247881.6509246826,13055344.581604004,15478533.744812012,15987565.040588379,13218980.78918457,7468597.888946533,24780599.59411621,5449921.607971191,6288494.58694458,2829377.1743774414,17615280.151367188,11739537.239074707,25597894.6685791,13895172.119140625,8258854.866027832,-42142688.7512207,-919189.5723342896,2763926.5060424805,5634655.475616455,22589239.1204834,4427642.345428467,18247943.878173828,11986104.011535645,9200252.532958984,-1595490.6940460205,11259357.452392578,-1135488.6293411255,1736832.4995040894,-6443643.569946289,9425042.152404785,-2052753.6869049072,-1815944.5524215698,-7687359.809875488,-6641767.501831055,-7281676.292419434,-21667579.650878906,13435359.001159668,21466009.14001465,-5369406.223297119,-4764777.660369873,-5213508.605957031,-9596989.631652832,-9629833.221435547,-13427256.58416748,14249445.915222168,-5078586.578369141,-5648534.297943115,-4799850.940704346,16165464.401245117,4183750.1525878906,-2128674.5071411133,-5847975.730895996,2743794.6796417236
0.35,24174989.700317383,22577245.712280273,15611558.91418457,20284816.74194336,30484333.038330078,14885421.752929688,15061303.13873291,15908781.051635742,15186918.258666992,5395535.469055176,14210677.146911621,17540826.79748535,17856140.13671875,14195493.698120117,9015097.618103027,28506179.809570312,9057076.454162598,7828010.082244873,4489334.583282471,18706279.754638672,14271655.082702637,26653387.06970215,14728778.839111328,10664853.0960083,-40989730.83496094,4413513.660430908,3838433.9809417725,6805506.229400635,24773180.00793457,5256481.647491455,18511150.360107422,12820022.583007812,12133033.752441406,-566011.6672515869,15020994.186401367,-1736766.0999298096,1873835.6828689575,-9129930.49621582,9798039.436340332,-1916923.7613677979,-1800919.4135665894,-6708280.563354492,-6457130.908966064,-7184060.096740723,-18866798.400878906,14049751.281738281,20209045.41015625,-6278378.963470459,-5800191.879272461,-6229361.534118652,-9847096.44317627,-10004989.624023438,-13634645.462036133,14895248.413085938,-5975743.770599365,-6628574.848175049,-5653126.7166137695,16995971.6796875,5296336.650848389,-1801775.8131027222,-6808318.614959717,2526070.1179504395
0.355,26601224.899291992,24281486.51123047,15943696.975708008,22233268.73779297,30580165.86303711,15627999.305725098,16044591.903686523,17122375.48828125,17446168.899536133,7072325.229644775,16122707.36694336,18435968.39904785,18667621.612548828,14072298.049926758,9377946.853637695,29419137.954711914,9584037.780761719,4479463.10043335,5839583.873748779,19774942.39807129,15819306.373596191,26469743.728637695,14347958.5647583,13764310.836791992,-40113918.30444336,5427305.698394775,3209001.302719116,7275708.6753845215,25369962.692260742,4594900.608062744,15634497.64251709,12603677.749633789,13291928.2913208,-417995.3932762146,17123373.03161621,-5423739.910125732,1570357.9187393188,-12246747.970581055,7678808.689117432,-2062529.0870666504,-1979265.809059143,-7388010.501861572,-7724933.624267578,-8306418.418884277,-17738344.192504883,11924133.30078125,16354852.676391602,-8038109.77935791,-7789206.981658936,-8086875.915527344,-11340006.828308105,-11478035.926818848,-15093576.431274414,12924954.414367676,-7847380.1612854,-8354440.689086914,-7527584.552764893,15592625.617980957,5492415.904998779,-2740246.295928955,-8632404.327392578,440795.6600189209
0.36,24755613.327026367,21589328.76586914,13040458.679199219,19725990.295410156,29001815.795898438,13262828.826904297,13860299.110412598,14912056.922912598,15847215.65246582,6409404.277801514,16278152.465820312,16845523.834228516,17093910.217285156,10143856.048583984,7377021.789550781,27307929.99267578,7353711.128234863,-180701.1216878891,5626364.231109619,19581653.594970703,15254410.743713379,23384790.420532227,10265391.34979248,14075026.512145996,-40162132.263183594,3577804.0885925293,1930903.434753418,6548305.511474609,24849498.748779297,1025268.1970596313,11550703.048706055,8745253.562927246,11294845.581054688,-994133.2936286926,17450405.12084961,-8802748.680114746,1211076.259613037,-13217450.141906738,4307288.16986084,-4992514.610290527,-4822741.0316467285,-9494009.017944336,-9188562.393188477,-9510974.884033203,-18251905.44128418,10293786.04888916,13400010.108947754,-11186081.886291504,-10987739.562988281,-11169883.728027344,-12945095.06225586,-12968954.086303711,-16527343.75,11431756.019592285,-11032044.410705566,-11335664.749145508,-10794629.096984863,13080468.17779541,3874743.2231903076,-4414868.354797363,-11678861.618041992,-3097008.70513916
0.365,21892099.380493164,16501451.49230957,10367304.801940918,15856783.866882324,26975482.940673828,11213738.441467285,11789268.493652344,12595702.171325684,11826768.87512207,4322420.597076416,13956264.49584961,15013039.588928223,15294658.660888672,5359492.301940918,4719595.432281494,25832212.448120117,5860959.529876709,-1048959.9704742432,4139309.4062805176,18690666.19873047,14801648.139953613,20089998.245239258,5509382.247924805,11896774.291992188,-40795120.23925781,2263837.5759124756,1393323.0638504028,5635358.810424805,26210697.174072266,-1940180.0632476807,9474871.635437012,4058822.6318359375,8639969.825744629,-1757320.761680603,17699630.737304688,-9450393.676757812,1338767.170906067,-11110130.310058594,2948259.8304748535,-8437701.225280762,-8066318.511962891,-11497709.274291992,-9617743.492126465,-9886292.457580566,-18765739.44091797,11841500.282287598,14256947.51739502,-14097373.008728027,-13703849.792480469,-13856771.469116211,-14031877.517700195,-13961585.04486084,-17335571.2890625,13064923.286437988,-13710602.760314941,-14031069.7555542,-13601096.153259277,10716310.501098633,1141777.3962020874,-4809147.357940674,-14313778.8772583,-5338096.618652344
0.37,20169687.271118164,11982966.423034668,9041110.038757324,13680574.417114258,25846199.03564453,10232877.731323242,10617829.322814941,11237812.995910645,8114396.095275879,2420217.752456665,10758554.458618164,14990396.499633789,15307462.692260742,4080924.5109558105,2552478.790283203,25728548.049926758,5554148.197174072,1094854.9509048462,2421837.329864502,17847101.21154785,16212209.701538086,19988304.138183594,4315049.648284912,8984960.556030273,-42473072.05200195,801307.2609901428,732116.4608001709,5103977.203369141,28864908.21838379,-288993.4778213501,10409866.333007812,2737214.5652770996,6470724.582672119,-3451461.3151550293,17475963.592529297,-8633447.647094727,1849829.912185669,-8274122.23815918,4798668.384552002,-8244281.768798828,-7710895.538330078,-13703625.679016113,-10328454.971313477,-10810652.732849121,-18983154.296875,13843360.900878906,16550825.119018555,-14721018.79119873,-14088699.340820312,-14280985.832214355,-15945250.511169434,-15825903.89251709,-18962627.410888672,15098035.81237793,-14004365.921020508,-14549472.80883789,-13975233.07800293,7521656.9900512695,-2276988.983154297,-3997853.2791137695,-14696461.67755127,-5761291.980743408
0.375,18043409.34753418,8121500.015258789,6164200.305938721,12816973.686218262,25079156.87561035,8747288.703918457,8976268.768310547,9642094.612121582,6218370.43762207,1117524.8622894287,8717286.109924316,15222784.042358398,15600897.789001465,5036876.678466797,713169.0382957458,24768924.713134766,4374400.615692139,1793457.8657150269,1020281.0764312744,16566358.56628418,17511861.80114746,21622611.99951172,5326515.674591064,6230208.396911621,-44658081.0546875,-2297993.6599731445,-1299825.3107070923,4311800.956726074,28588073.73046875,3953543.186187744,11781277.656555176,3610298.1567382812,3773630.6190490723,-6047721.862792969,14903702.735900879,-8340228.080749512,2133210.8974456787,-7539976.596832275,7095550.537109375,-4998578.071594238,-4500060.558319092,-16906270.98083496,-12554669.380187988,-13238390.922546387,-19677251.8157959,12032529.830932617,16238473.892211914,-13825952.529907227,-13118733.406066895,-13358894.348144531,-19454332.35168457,-19312686.920166016,-22207839.965820312,13235031.127929688,-13033729.553222656,-13734878.540039062,-13008765.22064209,2349334.955215454,-6442512.512207031,-4838918.209075928,-13788744.926452637,-7623967.64755249
0.38,15874966.621398926,4566878.795623779,897464.7521972656,12779438.018798828,23935665.130615234,8361965.179443359,8588585.85357666,9422054.290771484,6683726.787567139,671257.9727172852,8780481.338500977,13014220.237731934,13420527.458190918,2734708.786010742,1015985.7273101807,24163913.72680664,3345946.788787842,761464.0593528748,371040.403842926,14763247.4899292,15659452.438354492,19954931.259155273,3104945.421218872,5298855.304718018,-43768352.50854492,-3433928.966522217,-2746361.9709014893,3231101.0360717773,24452568.05419922,4523124.694824219,10278627.395629883,1387265.4438018799,2004894.495010376,-6519940.376281738,11196149.826049805,-7813858.509063721,1908140.1824951172,-8905138.01574707,6284045.219421387,-3751708.984375,-3410564.89944458,-18816419.60144043,-13887373.924255371,-14538043.975830078,-20332399.368286133,7344194.412231445,13166569.709777832,-14195280.075073242,-13569744.110107422,-13830199.241638184,-21818092.346191406,-21702297.21069336,-24346818.923950195,8436056.137084961,-13608324.05090332,-14275538.444519043,-13608418.464660645,-2335050.344467163,-9650072.09777832,-8381925.582885742,-14336386.680603027,-12912138.938903809
0.385,18402229.30908203,3035944.4618225098,-2922680.377960205,15475564.956665039,23010221.481323242,13299863.815307617,13543725.01373291,14444059.371948242,9560081.481933594,1972141.981124878,10528294.563293457,8885495.18585205,9194327.354431152,-4547453.880310059,6938868.045806885,28500019.073486328,5998133.182525635,2035096.1685180664,1276344.4185256958,13925362.586975098,11304330.825805664,13345447.540283203,-4083654.4036865234,8754449.844360352,-37059310.91308594,1809648.7522125244,-403931.02169036865,3262821.912765503,21320390.701293945,-531698.7633705139,5600920.2003479,-5735181.80847168,5013756.75201416,-2218550.205230713,10316645.622253418,-5622990.131378174,1521378.8747787476,-10329295.15838623,2275154.5906066895,-6985144.61517334,-6728127.956390381,-15954483.032226562,-11140268.325805664,-11638611.793518066,-19710161.209106445,4578299.045562744,9984906.196594238,-16639953.61328125,-16111326.217651367,-16399763.107299805,-19655824.661254883,-19615425.10986328,-22087446.212768555,5618276.596069336,-16214235.305786133,-16851303.100585938,-16345544.815063477,-2382092.9527282715,-9092765.808105469,-11489735.60333252,-16971883.77380371,-18729505.53894043
0.39,27852153.778076172,4691040.515899658,-2431196.451187134,21649259.567260742,22818494.79675293,23195159.912109375,23279897.689819336,24083808.89892578,13254503.25012207,4724032.878875732,12375101.089477539,6071838.855743408,6202078.342437744,-12058465.957641602,18055150.985717773,37792507.17163086,11753394.12689209,6304058.074951172,3597605.4668426514,14778181.076049805,8407670.021057129,6331811.904907227,-11622456.550598145,16086488.723754883,-28005538.940429688,10094093.322753906,4553101.062774658,4974358.558654785,22926107.40661621,-5822083.473205566,826141.6554450989,-13263246.536254883,12627834.32006836,4201003.074645996,12951668.739318848,-3430094.4805145264,1392482.6383590698,-10933757.781982422,-1464159.2502593994,-11432140.350341797,-11162868.49975586,-9468050.956726074,-5999825.477600098,-6465183.258056641,-18274246.215820312,5516121.387481689,7943570.137023926,-18855436.325073242,-18397987.365722656,-18778528.213500977,-14504451.751708984,-14522037.506103516,-17023845.672607422,6631626.129150391,-18379615.783691406,-19157522.201538086,-18670610.427856445,1886351.7045974731,-5231641.2925720215,-11234873.77166748,-19320787.42980957,-21133441.925048828
0.395,38287384.033203125,7362398.147583008,-290702.4025917053,27503450.393676758,22393634.796142578,31195199.966430664,30973876.953125,31666757.583618164,14576496.124267578,6170747.28012085,12254455.56640625,5781301.021575928,5831894.874572754,-15120970.726013184,28200841.903686523,45179946.89941406,14968955.993652344,8577245.712280273,5082541.942596436,15012789.726257324,8544306.755065918,3505904.197692871,-14827436.447143555,22377138.137817383,-23501144.409179688,13172568.321228027,6726499.080657959,6412945.747375488,25647182.46459961,-6157311.916351318,-1255487.7996444702,-16493909.83581543,18966878.89099121,7045379.161834717,14718897.819519043,-4198690.891265869,1505797.6245880127,-11837352.752685547,-2099569.082260132,-13327138.900756836,-13086819.648742676,-4998742.580413818,-3533622.5032806396,-4099038.1240844727,-17314363.479614258,7690901.756286621,7027276.515960693,-18868026.733398438,-18556465.14892578,-19043838.500976562,-11758008.95690918,-11779229.164123535,-14433201.789855957,8901408.195495605,-18356393.814086914,-19286039.352416992,-18671678.54309082,5172365.188598633,-2535127.639770508,-9222120.28503418,-19481349.94506836,-20258535.385131836
0.4,41163425.44555664,8072328.567504883,-811863.7800216675,28161596.298217773,20653629.302978516,31667150.497436523,31212732.315063477,31940393.447875977,11760567.665100098,3635154.7241210938,9170246.124267578,5349875.926971436,5505801.677703857,-15203969.955444336,31668033.599853516,45234642.028808594,12319351.196289062,5387000.08392334,3184023.380279541,11694858.55102539,8061574.935913086,2960138.3209228516,-14938701.629638672,23385187.14904785,-25383563.995361328,9322712.898254395,3492752.79045105,5307286.739349365,22895601.272583008,-3901381.254196167,-1705608.9639663696,-16588333.129882812,19514854.431152344,4858892.440795898,12297106.742858887,-7244832.515716553,1567733.2878112793,-13948646.545410156,-729179.7995567322,-13707952.499389648,-13567039.489746094,-5697347.640991211,-5031668.663024902,-5637475.01373291,-16099040.985107422,9619280.815124512,8363485.336303711,-17919382.095336914,-17850748.06213379,-18310260.772705078,-13553307.53326416,-13573654.174804688,-16242855.072021484,10765598.29711914,-17588975.90637207,-18433450.69885254,-17759246.826171875,4097011.089324951,-3972434.2823028564,-9055406.57043457,-18693572.998046875,-19340621.948242188
0.405,35539962.76855469,7260157.585144043,-3717269.1822052,23782995.223999023,18383115.768432617,26836483.001708984,26338050.842285156,27220779.418945312,6904953.956604004,-1780524.492263794,4548027.038574219,2482568.5024261475,2792819.7383880615,-16526937.484741211,29305013.65661621,40725746.154785156,7338335.5140686035,159433.81190299988,-1651724.5769500732,5746347.904205322,3188799.1428375244,-341642.6479816437,-16082429.885864258,20409494.400024414,-28594968.795776367,5398978.233337402,-1360104.9184799194,2263473.0339050293,14775146.484375,-5041055.202484131,-3842493.5340881348,-17691896.438598633,16643451.690673828,2031808.1378936768,8455764.770507812,-8576479.9118042,1426008.3436965942,-16049274.444580078,-527284.2645645142,-15669948.57788086,-15583703.994750977,-8539252.281188965,-6307966.709136963,-6794986.248016357,-12664228.439331055,12854114.532470703,12642315.864562988,-18441522.5982666,-18515554.428100586,-18775571.823120117,-16065568.923950195,-16102050.78125,-18554031.372070312,13763589.859008789,-18309064.865112305,-18920742.03491211,-18309167.861938477,1694417.7150726318,-6878955.841064453,-10853208.541870117,-19235246.658325195,-19815254.21142578
0.41,29236701.96533203,8323650.360107422,-4319909.572601318,19758609.771728516,17900053.024291992,23553026.19934082,23106981.27746582,24094963.07373047,3999297.3804473877,-5412605.762481689,1644937.0384216309,-7983.5522919893265,332001.32846832275,-18143697.73864746,26448287.963867188,38353977.20336914,5514351.367950439,-1386402.0109176636,-5666199.684143066,2052072.525024414,-2985436.201095581,-5007374.286651611,-17560499.19128418,18320217.13256836,-28496709.8236084,6405158.519744873,-2764914.035797119,278402.2390842438,9733622.550964355,-9253702.163696289,-7321111.679077148,-19164844.512939453,15778959.274291992,2518569.4694519043,8431885.719299316,-6706004.1427612305,1186443.6864852905,-15294301.986694336,-1656050.205230713,-17966722.48840332,-17853862.762451172,-8941499.710083008,-4033577.4421691895,-4365214.824676514,-7637385.368347168,18052810.668945312,17270889.282226562,-19787370.681762695,-19698328.018188477,-19787775.03967285,-15104883.193969727,-15117919.921875,-17318119.049072266,18766330.71899414,-19552993.774414062,-20133445.739746094,-19493177.41394043,3188696.6228485107,-6406469.821929932,-10785552.978515625,-20380794.525146484,-19270839.69116211
0.415,29763967.514038086,13139486.312866211,709201.3359069824,20538345.336914062,20688583.374023438,25594697.952270508,25182931.900024414,26133829.11682129,4618292.331695557,-3759420.63331604,2705608.84475708,3401057.004928589,3659675.5981445312,-14008879.661560059,26713436.126708984,40816078.186035156,7974970.34072876,1550730.586051941,-5625045.7763671875,4050117.4926757812,-2581566.81060791,-2615053.89213562,-13539790.153503418,20236968.994140625,-25862827.30102539,9461841.583251953,-407001.8529891968,1178598.5231399536,15033385.276794434,-9201828.002929688,-6453375.339508057,-15139853.477478027,18896480.560302734,5460158.348083496,13330469.131469727,-4697503.089904785,1034849.8821258545,-9785840.034484863,-147366.37473106384,-15440163.612365723,-15306138.99230957,-6008516.788482666,95203.2059431076,-187946.45369052887,-4540555.000305176,22949319.83947754,18731458.66394043,-18168884.27734375,-17712175.369262695,-17869417.190551758,-11148376.46484375,-11099869.728088379,-13185567.855834961,23731019.973754883,-17606418.60961914,-18450202.94189453,-17569887.161254883,9526387.214660645,-1405549.6454238892,-5730415.821075439,-18509771.3470459,-14185707.092285156
0.42,36216323.85253906,19174245.834350586,8971670.150756836,24757490.158081055,25311960.220336914,31002845.764160156,30618085.861206055,31482198.71520996,6770036.220550537,1455859.4226837158,6389350.891113281,12897809.028625488,13107674.598693848,-2647229.6714782715,29693796.157836914,45595760.345458984,12167963.981628418,5072771.072387695,-2426471.471786499,9317589.75982666,6351898.193359375,10032804.489135742,-2340825.080871582,25379339.21813965,-23154567.71850586,10293118.476867676,2459848.403930664,3696698.6656188965,27444099.42626953,-1338194.727897644,2278110.0273132324,-3876581.1920166016,23886695.861816406,8171348.571777344,19342435.836791992,-5174977.3025512695,1038027.286529541,-1407395.362854004,6342393.87512207,-6748786.449432373,-6620595.455169678,-1748672.9621887207,2930257.3204040527,2629258.394241333,-5537543.296813965,25643533.70666504,17156160.354614258,-11985981.941223145,-11307699.203491211,-11682660.102844238,-7172455.787658691,-7132398.60534668,-9121747.970581055,26706336.975097656,-11251418.113708496,-12307289.123535156,-11214766.502380371,16879409.790039062,4985409.736633301,2846055.9844970703,-12222420.692443848,-4354523.181915283
0.425,40861541.748046875,21271015.167236328,13612371.444702148,27026699.06616211,27652055.740356445,35141891.47949219,34818565.368652344,35673149.10888672,7738255.977630615,4588446.140289307,8527372.360229492,20400159.83581543,20652891.159057617,7173822.402954102,32882778.16772461,48860298.15673828,15705099.105834961,5875133.514404297,-193712.84544467926,11803590.774536133,14887610.43548584,22659317.016601562,7580577.373504639,30453769.68383789,-20214950.561523438,9420644.760131836,3646228.551864624,5054567.813873291,35792907.71484375,7249685.287475586,12563002.586364746,6136618.137359619,27812658.309936523,9952790.260314941,22246648.78845215,-6532502.6512146,1076867.1035766602,4077694.892883301,13204868.31665039,1593774.5571136475,1752969.9802398682,1933487.892150879,4040545.94039917,3779297.5902557373,-8903766.632080078,26723083.49609375,15289302.825927734,-5755281.448364258,-5187783.718109131,-5634769.916534424,-4549148.5595703125,-4615776.538848877,-6331372.7378845215,27943529.12902832,-5154745.101928711,-6043846.607208252,-5070050.7164001465,20952400.20751953,9123527.526855469,9343393.325805664,-5978862.762451172,4952483.177185059
0.43,37845706.939697266,16476198.196411133,9338420.867919922,23972099.30419922,24322834.014892578,34665012.35961914,34399490.35644531,35285579.681396484,6755804.061889648,1763639.9269104004,6210228.443145752,17857860.565185547,18176513.671875,5191268.9208984375,33749710.08300781,48013507.84301758,16921110.153198242,3568025.1121520996,-1901777.744293213,8420617.10357666,13049440.383911133,22040002.822875977,5853206.157684326,31812383.6517334,-16518478.393554688,8347464.561462402,2913960.9336853027,3673373.222351074,32972583.770751953,7091775.417327881,13637875.5569458,4475724.220275879,28593307.495117188,10899843.215942383,20708852.767944336,-6286268.711090088,959146.3208198547,1813754.916191101,13023406.982421875,1862584.8293304443,2043881.4163208008,3585523.843765259,4320128.440856934,4120617.389678955,-11363548.278808594,26720615.38696289,13677452.087402344,-5996660.7093811035,-5672087.1925354,-5947108.268737793,-3172288.417816162,-3303823.471069336,-4627003.192901611,27704324.72229004,-5585257.530212402,-6069690.227508545,-5464720.249176025,20479808.807373047,9651338.577270508,8346463.203430176,-6100145.8168029785,6727824.2111206055
0.435,29864305.49621582,7910651.683807373,-1265541.5534973145,18186010.360717773,17169004.440307617,30259431.838989258,29999258.041381836,30809020.99609375,4937137.126922607,-4856052.398681641,1141803.503036499,7938815.116882324,8303349.494934082,-6548896.312713623,31473819.732666016,43120929.71801758,14760410.30883789,-498168.85590553284,-6438577.175140381,2432618.8564300537,3016646.385192871,9653361.320495605,-5868052.005767822,28350179.67224121,-13984512.329101562,5694779.396057129,530730.9031486511,457501.50084495544,23442733.764648438,-932279.646396637,4506559.8487854,-7159900.188446045,25976749.420166016,10187789.916992188,16635316.848754883,-5221588.134765625,651592.4334526062,-6128967.28515625,5564234.256744385,-5173424.72076416,-5127968.311309814,2373916.1491394043,3804450.511932373,3516600.6088256836,-11133583.068847656,24974889.755249023,10819025.039672852,-12704455.375671387,-12452658.653259277,-12536297.798156738,-2962543.249130249,-3023884.5348358154,-4090150.833129883,25465717.315673828,-12294268.608093262,-12547842.025756836,-12161208.152770996,18046936.03515625,8011681.55670166,191327.42285728455,-12596613.883972168,470189.3627643585
0.44,25836641.311645508,3427935.838699341,-8016289.710998535,15981539.726257324,13332778.930664062,26916019.439697266,26647720.336914062,27249330.520629883,4055704.116821289,-8930903.434753418,-1726484.4179153442,2574437.379837036,3005584.478378296,-13932680.130004883,28517761.23046875,38315826.416015625,11269977.569580078,-3789594.888687134,-9928062.438964844,-187160.8942747116,-2610092.1630859375,1520783.9012145996,-13531999.588012695,23803667.068481445,-13915310.859680176,1864669.919013977,-2135226.9649505615,-1859658.122062683,17541965.48461914,-6369361.400604248,-2965458.1546783447,-14688502.311706543,23042369.842529297,8241902.3513793945,13913483.619689941,-5254533.290863037,367902.2789001465,-11434852.600097656,-385016.8287754059,-10417910.5758667,-10644186.019897461,144187.71862983704,3265941.858291626,2721551.6567230225,-8393839.836120605,22853490.829467773,7768614.292144775,-17775863.647460938,-17406845.092773438,-17496854.782104492,-2830900.9075164795,-2802202.7015686035,-3877636.194229126,23038469.314575195,-17269920.349121094,-17604318.618774414,-17067457.19909668,18522142.41027832,7726149.082183838,-7433095.932006836,-17614553.451538086,-4726318.836212158
0.445,31104679.107666016,8288108.825683594,-2852852.1060943604,20602531.43310547,18213289.260864258,29393943.786621094,29173355.102539062,29613687.51525879,5391515.254974365,-6585237.979888916,631097.674369812,9205908.77532959,9721150.398254395,-7207817.554473877,28763345.71838379,39071609.49707031,11456405.639648438,-3395841.121673584,-9662375.450134277,2826812.505722046,3614158.868789673,8319677.352905273,-7027694.7021484375,23714773.178100586,-13841259.956359863,2212822.675704956,-2345746.7555999756,-926696.0620880127,19883260.72692871,-2632274.627685547,1143639.8029327393,-8132181.167602539,24083900.451660156,7938560.009002686,15321916.580200195,-5363459.11026001,337340.44432640076,-8238481.521606445,2460448.2650756836,-7059273.719787598,-7447982.7880859375,577114.1052246094,4795963.287353516,4062952.995300293,-4871090.412139893,24428539.276123047,8125296.592712402,-14196054.458618164,-13741587.63885498,-13960906.028747559,-669799.268245697,-664394.6170806885,-1907997.488975525,24754419.326782227,-13717246.055603027,-14189843.17779541,-13342439.651489258,24545351.028442383,11402229.309082031,-6230034.828186035,-14240818.977355957,337919.56305503845
0.45,40477535.247802734,18565967.559814453,9951259.61303711,27910408.02001953,28255964.279174805,35812732.6965332,35681690.21606445,36179676.0559082,8346478.462219238,-795338.0346298218,5987567.42477417,21490852.35595703,21998527.52685547,6721377.372741699,32090568.54248047,45011947.63183594,16695512.771606445,651528.6564826965,-6564023.494720459,8098003.387451172,14900027.27508545,22023069.381713867,6962889.194488525,28152410.50720215,-11394897.4609375,9228959.083557129,541156.2323570251,2811022.0432281494,25853521.3470459,5351185.7986450195,11487440.10925293,5706024.646759033,28562726.974487305,10505650.520324707,18980978.01208496,-3345144.748687744,535853.385925293,106966.89784526825,10527064.323425293,1498137.4740600586,1202843.0700302124,3823215.2462005615,7963082.313537598,7293771.266937256,-3448125.3623962402,30642623.901367188,12330152.51159668,-4973452.568054199,-4581102.37121582,-4843966.007232666,3026618.9575195312,2960859.775543213,1607691.8840408325,31346117.01965332,-4650953.769683838,-5088493.824005127,-4103302.478790283,32196487.426757812,16837707.51953125,2924102.0679473877,-5258797.168731689,12431539.535522461
0.455,43232711.79199219,24068626.403808594,16568433.76159668,30245672.22595215,33509834.28955078,38261734.00878906,38173648.834228516,38897899.62768555,10115168.571472168,1890019.0591812134,9351023.67401123,26624074.935913086,26963609.69543457,12451338.768005371,33080070.49560547,48132122.03979492,20592266.082763672,3895118.236541748,-3807211.16065979,10967652.320861816,19089582.443237305,26839450.83618164,12823375.701904297,30104730.6060791,-9149938.583374023,15506413.459777832,2662853.956222534,6096897.125244141,29070653.915405273,8751762.390136719,14645668.983459473,11385119.438171387,29940198.89831543,12253289.222717285,19427288.055419922,-431465.0893211365,753136.0983848572,5009285.449981689,14057499.885559082,6098282.337188721,6004065.51361084,4730379.581451416,8322028.160095215,7825698.8525390625,-5823939.323425293,35447414.39819336,15949709.89227295,248841.86685085297,549530.6849479675,353330.8804035187,3978734.9700927734,3917915.8210754395,2716145.2770233154,36365112.3046875,460409.6710681915,134165.98737239838,1014628.2911300659,33523635.864257812,18121623.992919922,9748265.266418457,-68649.87313747406,18223926.544189453
0.46,35488445.28198242,19245830.535888672,8684557.914733887,25075605.392456055,28561679.84008789,32238235.473632812,32089958.19091797,32991886.138916016,8539045.333862305,-1080332.87525177,8424943.923950195,20139003.75366211,20266948.699951172,4356102.94342041,27914167.404174805,42045372.009277344,16328657.150268555,2406235.694885254,-3289395.0939178467,10444798.469543457,12739155.769348145,18705043.79272461,4674999.713897705,24156974.79248047,-11091538.429260254,12082580.56640625,49567.29710102081,6077131.748199463,28646802.90222168,5790651.798248291,6844287.872314453,3348874.092102051,23766931.533813477,9002761.840820312,14086619.37713623,-175030.52949905396,864624.9771118164,2407461.643218994,9300059.31854248,2563594.102859497,2558875.322341919,-376591.14599227905,3313051.93901062,2830927.610397339,-9788249.015808105,32134590.14892578,15534664.154052734,-3113125.3242492676,-2798652.6489257812,-2977558.6128234863,-318749.18937683105,-342609.13729667664,-1057154.893875122,32988132.47680664,-2884140.729904175,-3232412.576675415,-2524529.218673706,25481224.060058594,12732972.145080566,6396585.941314697,-3305865.2877807617,11004861.831665039
0.465,24493436.813354492,9141186.714172363,-7178391.933441162,17777036.666870117,18401086.807250977,22777120.59020996,22500211.715698242,23380567.55065918,5367011.547088623,-5754516.6015625,5463497.161865234,9623592.376708984,9695322.036743164,-8385163.307189941,20213438.034057617,30749156.951904297,6763207.912445068,-1721551.775932312,-4079260.82611084,8836992.263793945,2706919.6701049805,7544201.374053955,-8194540.977478027,14205794.334411621,-15790293.69354248,1806578.6361694336,-5466853.141784668,3323977.470397949,27264181.13708496,1509967.0886993408,-2677595.1385498047,-9134267.807006836,14211980.819702148,2367425.9185791016,6974582.195281982,-2844314.3367767334,896718.5616493225,-4222249.0310668945,1615984.0822219849,-4806385.9939575195,-4855484.0087890625,-7901494.50302124,-2935381.6509246826,-3551457.405090332,-11181925.773620605,22383060.455322266,12723849.296569824,-10230725.288391113,-9828696.250915527,-10114584.922790527,-6228357.315063477,-6289839.267730713,-6369103.43170166,23113067.626953125,-9927426.3381958,-10421186.447143555,-9813070.297241211,14029498.100280762,5188943.862915039,-3397186.040878296,-10347960.472106934,-903179.4667243958
0.47,19424903.869628906,3168922.4243164062,-17523868.560791016,14973880.767822266,12216555.59539795,18184532.165527344,17816839.21813965,18517644.88220215,4706225.872039795,-7081999.3019104,3950300.931930542,4732520.580291748,4951953.411102295,-14246822.357177734,16409400.939941406,23976123.809814453,1785389.9002075195,-3142642.9748535156,-4354144.57321167,7890262.126922607,-3121139.2879486084,2977670.907974243,-13991861.343383789,8723260.879516602,-17904121.39892578,-3343081.9511413574,-8218787.19329834,852388.5607719421,25684631.34765625,-213546.21648788452,-5272112.846374512,-14720481.872558594,8814553.260803223,-2008670.0916290283,3895908.5941314697,-4667654.037475586,901752.4123191833,-9683430.671691895,-2666363.23928833,-9632914.543151855,-9742090.225219727,-11866953.84979248,-4691741.466522217,-5320416.9273376465,-9448448.181152344,14953780.174255371,10638713.836669922,-14562922.477722168,-14102689.743041992,-14496885.299682617,-8792085.647583008,-8916240.692138672,-8591011.047363281,15685677.528381348,-14184478.759765625,-14765878.677368164,-14206501.007080078,7181741.714477539,1134075.2840042114,-10101198.196411133,-14697436.332702637,-6125402.927398682
0.475,21178775.787353516,5039669.513702393,-16493764.877319336,17190486.907958984,13615555.763244629,19812679.290771484,19489801.40686035,20022380.828857422,7589750.76675415,-4766668.319702148,4848354.339599609,7587385.177612305,8005396.842956543,-11409992.218017578,16986616.134643555,25118232.72705078,5404864.78805542,-868092.0600891113,-3882177.3529052734,7324349.403381348,-2254020.4524993896,4957307.3387146,-10890923.500061035,9956970.21484375,-16143417.358398438,1626239.0613555908,-6267787.933349609,454601.2580394745,23115381.240844727,130331.8440914154,-2516120.195388794,-11909152.030944824,8845374.10736084,-1905788.779258728,5537538.051605225,-3395051.2409210205,948682.7850341797,-12133789.0625,-2802883.6250305176,-10143783.569335938,-10254611.96899414,-12391456.604003906,-2592409.372329712,-3001895.6661224365,-8667243.957519531,15161156.65435791,9377774.238586426,-15636001.586914062,-15172229.766845703,-15529802.322387695,-8897851.943969727,-9006421.089172363,-8683166.50390625,15942414.283752441,-15150199.890136719,-15710653.305053711,-15207320.213317871,6302321.910858154,183269.36662197113,-10667066.57409668,-15773526.191711426,-4911699.7718811035
0.48,24432960.510253906,11426924.705505371,-8813241.004943848,20350101.470947266,19417898.178100586,22466417.31262207,22316541.67175293,22840404.510498047,10508627.891540527,-1890910.1486206055,6938027.381896973,14289076.805114746,14797559.73815918,-5283861.6371154785,17107625.96130371,29025022.506713867,11477425.575256348,1033701.7774581909,-3528092.861175537,7119185.924530029,4066462.516784668,9139041.900634766,-4556591.987609863,12837896.347045898,-14634151.458740234,9287428.855895996,-3188135.1470947266,1297124.6242523193,21543004.989624023,1591878.4141540527,14470.291323959827,-6108261.585235596,9743870.735168457,-301438.48061561584,8263500.213623047,-1279985.3086471558,1167026.7581939697,-11732077.598571777,-1046455.7409286499,-8358755.111694336,-8398760.795593262,-14125782.012939453,-1765991.0917282104,-1952599.048614502,-11736144.065856934,19425344.467163086,7873411.178588867,-16549726.486206055,-16115034.103393555,-16314414.978027344,-11017856.59790039,-11103033.065795898,-10932611.465454102,20153255.462646484,-15936594.009399414,-16497579.574584961,-16038290.023803711,7533064.842224121,-1532016.5157318115,-10002215.385437012,-16677238.464355469,-5206606.388092041
0.485,26565019.607543945,18188264.846801758,-931700.4680633545,22262498.85559082,25517210.006713867,23221302.032470703,23253650.665283203,23930736.541748047,10312714.576721191,127497.16639518738,9205658.912658691,21483186.721801758,21979192.73376465,616271.2574005127,15051566.123962402,31159263.610839844,13636012.077331543,362545.78828811646,-3219424.7245788574,8559107.780456543,13468845.36743164,14283486.366271973,1308679.3422698975,13814641.952514648,-15667027.473449707,12162936.210632324,-2102960.1097106934,1946474.1945266724,24749919.891357422,4924500.465393066,1666459.4411849976,-483613.13343048096,9551692.008972168,222687.19971179962,10225614.547729492,-1193799.376487732,1582505.1069259644,-8148327.827453613,1842026.8297195435,-5726913.928985596,-5643707.275390625,-17543151.85546875,-3348566.0552978516,-3552795.648574829,-16211242.67578125,21395948.41003418,7356390.953063965,-17436838.150024414,-17079219.818115234,-17169658.660888672,-15108468.055725098,-15282268.524169922,-15089238.166809082,21992624.282836914,-16801029.205322266,-17449174.880981445,-16971279.14428711,9271943.092346191,-3837686.30027771,-11470190.048217773,-17680349.349975586,-8304862.022399902
0.49,29071538.9251709,23512830.73425293,4768112.1826171875,23777353.286743164,29886932.373046875,24053232.192993164,24172061.920166016,24990484.2376709,8015107.154846191,1881461.7395401,11044399.26147461,27711864.471435547,28196573.25744629,6309992.790222168,14326382.637023926,32713760.375976562,13160823.822021484,-381511.30080223083,-2255372.5242614746,11560753.82232666,21884162.90283203,20420537.9486084,6788356.304168701,14910295.486450195,-16235279.083251953,12351011.276245117,-2078098.2971191406,2097042.3221588135,32031211.853027344,9473638.534545898,4537303.924560547,5210477.828979492,10885063.171386719,616788.9833450317,12648365.97442627,-2909978.6281585693,1923801.1837005615,-2094125.0324249268,5600646.018981934,-2381259.4413757324,-2221900.224685669,-17998668.670654297,-3492328.405380249,-3905570.9838867188,-18122745.513916016,20038206.100463867,9358683.586120605,-15849224.090576172,-15611598.014831543,-15780292.510986328,-16295461.654663086,-16558979.034423828,-16248523.712158203,20550687.789916992,-15369463.920593262,-16077398.300170898,-15525627.136230469,13055661.20147705,-2845587.968826294,-12132191.65802002,-16352540.969848633,-7591957.092285156
0.495,31479932.78503418,25753255.84411621,7297358.03604126,24552581.787109375,30935115.814208984,25623882.293701172,25759450.912475586,26503108.978271484,6080792.9039001465,2380938.2915496826,11004505.157470703,30923631.66809082,31426296.23413086,10642773.628234863,16387634.27734375,35131973.26660156,13697268.48602295,566557.4073791504,-1440914.9885177612,13156744.003295898,24628410.33935547,24544574.737548828,10934474.94506836,17577533.721923828,-14006145.477294922,14515408.515930176,-1570162.296295166,1897043.3473587036,37030223.84643555,11565371.5133667,7041647.434234619,9684724.807739258,14026640.892028809,1618826.7469406128,15357782.363891602,-5057226.181030273,1839853.8827896118,3155293.7030792236,8022233.009338379,593395.4119682312,664990.0078773499,-14472281.455993652,-1117268.5623168945,-1707981.5864562988,-17548748.016357422,19129932.403564453,11852560.043334961,-12319968.223571777,-12133023.262023926,-12531319.618225098,-13280288.696289062,-13419074.058532715,-13220533.37097168,19607419.967651367,-12039228.439331055,-12684774.398803711,-12062279.70123291,17587532.04345703,1332110.4049682617,-9122344.970703125,-13020067.21496582,-1261971.4736938477
0.5,30311309.814453125,23259601.593017578,5121312.618255615,22490169.525146484,27631963.7298584,24764108.657836914,24931732.177734375,25399282.455444336,4613587.856292725,-527520.6565856934,7917197.704315186,29400960.92224121,29875839.233398438,10867816.925048828,17076757.431030273,35624958.03833008,13917365.074157715,750083.0292701721,-2636353.7311553955,11061049.461364746,21002456.665039062,23433864.59350586,11146994.590759277,18367475.509643555,-11912435.531616211,16384220.123291016,-1485549.4499206543,1210914.2541885376,35204154.96826172,8616311.073303223,5698527.3361206055,9983558.654785156,14393159.866333008,1009788.3939743042,15632802.00958252,-7709265.70892334,1360307.6934814453,4737963.1996154785,7034791.469573975,1273477.6735305786,1142747.2829818726,-12965601.921081543,-560259.4614028931,-1187330.2459716797,-17357343.673706055,20861335.75439453,11079818.725585938,-10889051.43737793,-10576807.022094727,-11160264.015197754,-11406130.79071045,-11285670.280456543,-11413733.48236084,21250589.37072754,-10633365.631103516,-11185747.146606445,-10540046.691894531,17776765.823364258,2962504.6253204346,-5491063.594818115,-11545797.348022461,3062033.4148406982
