time,Fp1,Fpz,Fp2,AF3,AF4,F7,F5,F3,F1,Fz,F2,F4,F6,F8,FT7,FC5,FC3,FC1,FCz,FC2,FC4,FC6,FT8,T7,C5,C3,C1,Cz,C2,C4,C6,T8,TP7,CP5,CP3,CP1,CPz,CP2,CP4,CP6,TP8,P7,P5,P3,P1,Pz,P2,P4,P6,P8,PO7,PO5,PO3,POz,PO4,PO6,PO8,CB1,O1,Oz,O2,CB2
0.0,-2531359.6725463867,-2443093.2998657227,-2195248.84223938,-1687983.2744598389,-1302709.2218399048,-1231068.730354309,-1215100.1691818237,-1163814.7830963135,-938761.3534927368,-680677.8311729431,-615982.5325012207,-361918.44940185547,-371631.80112838745,64282.11182355881,-823827.32629776,-893645.703792572,-515174.38888549805,-596282.7205657959,-117199.77110624313,-320157.7365398407,-295111.89460754395,-175944.35811042786,86112.45453357697,-453949.0044116974,-507048.3684539795,-250100.55303573608,-57780.98478913307,-128024.3992805481,-246261.55197620392,98069.1984295845,28595.35440802574,70527.53865718842,-19276.414066553116,-350484.9374294281,-239945.9183216095,-128242.47777462006,29616.812244057655,438234.2994213104,362757.8616142273,828423.1424331665,872131.0496330261,439069.6585178375,390437.42418289185,400158.43510627747,520991.9810295105,607068.8366889954,670896.5301513672,863803.1482696533,863074.779510498,879826.4861106873,749390.4829025269,706513.7624740601,688807.3086738586,619168.2815551758,854066.6103363037,849569.2014694214,860360.324382782,885442.7933692932,836405.873298645,634570.1813697815,862362.0271682739,938958.7640762329
0.005,16168067.932128906,18782188.415527344,17044872.283935547,9954590.797424316,17519033.432006836,7993373.394012451,7572255.1345825195,8720487.594604492,10997687.339782715,13750089.645385742,14012703.895568848,14011613.845825195,13311462.40234375,20510776.51977539,8720653.533935547,6680198.192596436,7171288.49029541,6668999.671936035,8433911.323547363,7505025.863647461,6475016.5939331055,7182495.1171875,20457708.35876465,10259686.470031738,3288743.257522583,4991090.774536133,2936846.4946746826,2675356.149673462,488904.05893325806,4532659.530639648,5921074.867248535,19961095.809936523,5113963.1271362305,7760212.421417236,6569546.699523926,-851167.4404144287,919012.9041671753,1891426.8016815186,5896030.426025391,22845500.946044922,24571979.522705078,9589625.358581543,10532672.882080078,11167694.091796875,9181808.471679688,10882487.297058105,9488828.659057617,13033381.462097168,12632180.213928223,13048779.487609863,14903550.148010254,14150514.602661133,12870133.399963379,11747139.930725098,11763159.75189209,12320698.738098145,12257807.731628418,12260803.22265625,13953809.73815918,9129783.630371094,12678264.617919922,12246887.20703125
0.01,23512111.66381836,26858823.776245117,25057949.06616211,13984969.139099121,24850894.927978516,11311953.5446167,10812118.530273438,12431510.925292969,16098434.448242188,19211671.829223633,19701061.248779297,19641679.763793945,18614952.087402344,27786556.243896484,10468020.43914795,9129026.412963867,10591426.849365234,10924373.626708984,11374168.395996094,10956601.1428833,8959788.32244873,9519689.559936523,27883275.985717773,11559924.125671387,3758717.2985076904,6757433.4144592285,4426004.409790039,3292075.1571655273,543376.1477470398,6091815.948486328,7126782.8941345215,27082893.37158203,3647657.632827759,9861575.12664795,10527022.361755371,-1390857.8157424927,1266258.2397460938,2412996.530532837,6590507.984161377,29521825.790405273,31757595.06225586,9647977.828979492,12717015.266418457,13587617.874145508,11637078.285217285,14292280.197143555,12047877.311706543,15903069.496154785,15270863.53302002,16011064.529418945,17909481.048583984,16781057.357788086,15052810.668945312,15319726.943969727,14088189.125061035,14799013.137817383,14752708.435058594,12456363.677978516,16213401.794433594,10641401.290893555,15432232.856750488,14166799.545288086
0.015,19460294.723510742,22027290.34423828,21623018.264770508,10863288.879394531,21406259.536743164,8668200.492858887,8438181.87713623,9956282.615661621,14383434.295654297,16437240.600585938,17110715.866088867,16717678.07006836,15747312.545776367,22455591.201782227,5344003.200531006,6748187.54196167,9452146.530151367,11151880.264282227,9316329.956054688,10325128.555297852,7360634.326934814,7110009.19342041,22794368.743896484,4908339.023590088,1571485.4001998901,5347599.029541016,4394007.682800293,2256370.3060150146,-92686.69039011002,4661423.683166504,3432761.4307403564,21947340.01159668,-2440964.2219543457,7195290.088653564,11131310.46295166,-858772.5162506104,1134164.0949249268,2190101.146697998,2863767.8623199463,22087238.311767578,23912569.046020508,2832784.89112854,8368262.29095459,9171574.592590332,8395130.157470703,10859992.027282715,8686092.376708984,9842891.693115234,9143731.117248535,10045261.38305664,11341976.165771484,10164523.124694824,8726631.164550781,11532040.5960083,8161721.229553223,8649777.41241455,8773777.00805664,4026990.8905029297,8855860.710144043,5724189.758300781,9454230.308532715,7121025.085449219
0.02,12860696.792602539,14932802.200317383,15418114.66217041,6678418.159484863,16611318.588256836,4575311.183929443,4627011.775970459,5995202.06451416,10905344.009399414,12913262.367248535,13659384.727478027,12343141.555786133,11562028.884887695,15731530.18951416,430396.08001708984,4063502.788543701,6979286.670684814,8973820.686340332,7306002.140045166,9286642.074584961,5246875.762939453,4463631.629943848,16150114.059448242,-580966.8302536011,89268.2671546936,3698465.8241271973,3837675.094604492,1845489.263534546,-755547.4042892456,2838679.790496826,-973411.8580818176,15410592.079162598,-5828686.237335205,5464288.234710693,9923907.279968262,746091.0677909851,1009222.7458953857,2183200.1209259033,-583002.9845237732,14219901.084899902,15818281.173706055,-1667286.75365448,5066716.67098999,5856528.282165527,4935942.17300415,6418828.964233398,4888584.136962891,3203080.654144287,2522894.3824768066,3400492.9065704346,5599182.12890625,4440971.374511719,3355427.2651672363,6934914.588928223,1763858.1991195679,2051207.0655822754,2431359.7679138184,-1830167.7703857422,1940377.3546218872,624890.6254768372,2898374.557495117,-497804.07547950745
0.025,10482044.219970703,13349903.106689453,13430797.576904297,5182104.587554932,16271509.170532227,2481466.054916382,2549832.820892334,4004893.7797546387,9184068.67980957,12963297.843933105,13772511.48223877,11690365.7913208,11027694.702148438,15660398.483276367,-245404.07955646515,4038824.0814208984,6048995.494842529,7220233.917236328,8308090.2099609375,10122317.31414795,5103339.672088623,4971018.314361572,16001337.051391602,-1376.977190375328,743539.571762085,3377420.663833618,3369064.0926361084,3040917.158126831,-723632.5740814209,3168099.4033813477,-1818658.3518981934,15314809.799194336,-3671517.6105499268,6817559.242248535,8482992.172241211,1477149.7249603271,1146867.275238037,2898237.2283935547,-260808.19964408875,14905582.427978516,16833162.307739258,-128807.85763263702,6383285.999298096,7312782.764434814,4757654.190063477,5782205.581665039,4580372.333526611,2565086.3647460938,1990025.8779525757,2756552.219390869,6421433.925628662,5206788.063049316,4159070.4917907715,6628718.852996826,1133873.5818862915,1517892.9567337036,2036339.0445709229,-80353.0141711235,1793846.845626831,-176090.34478664398,2275749.444961548,-2055449.9626159668
0.03,12213180.541992188,16339841.842651367,15761133.193969727,5668020.248413086,18610105.514526367,2431202.173233032,2311043.9777374268,3905670.642852783,9183800.69732666,14909155.84564209,15933872.22290039,14130190.8493042,13485574.722290039,20714431.762695312,1228073.1201171875,5351256.370544434,6704934.597015381,7450839.996337891,10928167.343139648,12052195.54901123,6602016.925811768,8037438.39263916,20982942.581176758,3059727.430343628,1610141.5157318115,3381223.9170074463,2995197.534561157,4688913.345336914,188746.21391296387,5628832.3402404785,1266975.6412506104,20205518.72253418,-136702.85046100616,8271362.3046875,7451719.284057617,-164231.13644123077,1352221.131324768,3936478.614807129,2887448.310852051,21050064.086914062,23251947.4029541,3128418.445587158,9114318.84765625,10124127.388000488,6530717.372894287,8633775.71105957,6952796.459197998,7132083.892822266,6729482.650756836,7437159.538269043,10474736.213684082,9231672.286987305,8040506.362915039,9882907.86743164,5596318.244934082,6222636.699676514,6639903.0685424805,4851402.282714844,6145124.435424805,2842421.054840088,6851497.173309326,2078908.920288086
0.035,15066246.98638916,19577550.888061523,19057918.548583984,6803905.963897705,20478805.541992188,3182760.47706604,2930510.5209350586,4498833.656311035,10145945.54901123,16477582.931518555,17780960.083007812,16744806.289672852,16059223.175048828,25286041.259765625,1850818.7532424927,5469649.791717529,7307389.259338379,8760243.41583252,12856594.08569336,13617491.722106934,8484105.110168457,10917409.896850586,25501646.041870117,3771248.1021881104,821577.3105621338,2569600.820541382,2778344.6311950684,5447129.249572754,1517386.0788345337,7978543.758392334,4909149.646759033,24595952.9876709,624628.6034584045,7443278.789520264,6976772.308349609,-2633081.4361572266,1388489.7232055664,4669212.818145752,5495622.634887695,25479780.197143555,27481462.478637695,4196506.500244141,9650515.55633545,10559010.50567627,7519426.8226623535,11679264.068603516,9283256.530761719,12083967.208862305,11773569.107055664,12507441.520690918,12982453.346252441,11850732.803344727,10488674.16381836,12951906.204223633,10535447.120666504,11198918.342590332,11417840.957641602,8454597.473144531,10305722.2366333,7110375.40435791,11808347.702026367,7809630.870819092
0.04,17189304.35180664,21036405.563354492,20741247.177124023,8269564.628601074,21565404.891967773,3966082.0960998535,3763597.7268218994,5228215.69442749,11783901.21459961,17985332.489013672,19225545.88317871,17852428.436279297,17106369.018554688,26168354.034423828,1735794.5442199707,4361480.712890625,6960640.430450439,9193112.37335205,13682332.038879395,14379441.261291504,9982696.533203125,11511348.724365234,26287778.854370117,2616623.878479004,-571683.3472251892,1442694.5447921753,2835769.6533203125,5309865.474700928,2347243.070602417,8137575.149536133,5531085.968017578,25331010.818481445,-325419.6345806122,5890232.563018799,7022697.925567627,-3141987.085342407,1323727.9653549194,4705366.611480713,5362517.833709717,25571617.126464844,27285037.994384766,4393823.623657227,8557592.391967773,9326956.748962402,7160809.9937438965,12782804.489135742,10309397.69744873,14201544.761657715,13795896.530151367,14560379.981994629,13748549.461364746,12764409.065246582,11180912.017822266,13772763.2522583,12756318.092346191,13145404.815673828,13319149.9710083,11360374.450683594,12802824.020385742,10721879.959106445,13866475.105285645,12048264.503479004
0.045,17802759.170532227,20828912.73498535,19712074.279785156,8976476.669311523,22051713.943481445,4070211.887359619,3982995.03326416,5450689.315795898,12863223.0758667,19622478.485107422,20172929.763793945,16858943.939208984,16095958.709716797,23188404.083251953,1862372.3983764648,3782977.1041870117,6191788.673400879,8219028.472900391,13853444.09942627,14093727.111816406,10363301.277160645,9317973.136901855,23257905.960083008,2504900.9323120117,-571820.9743499756,850338.876247406,2856494.665145874,5009490.966796875,1787143.4688568115,5856071.949005127,2481278.896331787,22306318.283081055,-231399.81925487518,5641210.079193115,7032311.916351318,-1749296.6651916504,1341996.669769287,3719080.686569214,2620918.035507202,22609928.131103516,24397081.37512207,5519711.017608643,7772006.034851074,8509228.706359863,6444176.197052002,12119366.645812988,10138978.958129883,13126025.199890137,12561858.177185059,13319079.399108887,14255376.815795898,13259212.493896484,11482530.59387207,12908159.255981445,11851667.404174805,11903859.13848877,12229246.139526367,14330260.276794434,13819622.039794922,12234365.463256836,12711969.375610352,13402109.146118164
0.05,17385417.938232422,20039970.39794922,16840242.385864258,7709492.6834106445,21160013.19885254,3054799.5567321777,3009141.9219970703,4540023.326873779,11850759.506225586,19785196.30432129,19339199.06616211,13994517.32635498,13312073.707580566,18002490.997314453,1300401.0915756226,4232181.072235107,5931852.8175354,7259824.752807617,13185398.10180664,12383060.455322266,9129875.183105469,5472156.524658203,18183624.267578125,2991128.921508789,264482.5875759125,398955.94120025635,2448994.3981170654,4870078.563690186,-263565.0038719177,2514546.3943481445,-1880251.7652511597,17241439.819335938,72288.00654411316,5679049.015045166,6207901.477813721,-1357386.1122131348,1433784.008026123,1596208.2147598267,-1265282.392501831,17948471.069335938,19986585.61706543,5472818.374633789,6935191.631317139,7686611.175537109,5708993.911743164,10591818.809509277,8863739.013671875,9608931.541442871,9010361.671447754,9792097.091674805,13561717.03338623,12361363.410949707,10661875.72479248,11443638.801574707,8509979.248046875,8460844.993591309,8940859.7946167,14460573.196411133,12447508.811950684,10575766.563415527,9221089.363098145,11215750.694274902
0.055,18220983.505249023,20627285.00366211,15194709.777832031,5777552.604675293,19437372.2076416,1739304.3041229248,1702223.0625152588,3174237.9665374756,9449756.622314453,17738008.499145508,16765396.118164062,11190567.016601562,10644492.149353027,13933822.631835938,-1122383.47530365,4378128.528594971,6387982.368469238,7506482.6011657715,11483060.836791992,9998761.177062988,7237830.16204834,2375638.246536255,14276725.769042969,1142485.8570098877,-505455.5535316467,-712780.8332443237,1851759.672164917,4657738.68560791,-2674076.557159424,-15957.817435264587,-4636329.174041748,13368983.268737793,-2363454.818725586,4091722.9652404785,4632554.531097412,-3289038.896560669,1476792.335510254,-798475.5039215088,-4510581.493377686,13088778.495788574,15154453.27758789,1818563.69972229,4916925.90713501,5613378.524780273,4722730.1597595215,8759144.78302002,6903815.269470215,4990895.2713012695,4435976.982116699,5325615.406036377,10409748.077392578,8968327.522277832,7661915.302276611,9782615.661621094,3905866.861343384,4033973.217010498,4519992.828369141,9777013.778686523,8465879.440307617,6563394.546508789,4717637.538909912,6339718.341827393
0.06,21294090.270996094,23091381.072998047,16684417.724609375,5519635.200500488,18828172.68371582,1081196.1889266968,1146720.051765442,2429432.6305389404,7899364.471435547,15149725.914001465,14582154.273986816,10783084.869384766,10316180.229187012,13958086.967468262,-4509164.810180664,3039785.146713257,6601173.400878906,7925581.932067871,9274227.142333984,8623474.12109375,6531762.12310791,1992064.2375946045,14320050.239562988,-3267046.2131500244,-3428615.093231201,-2241205.6922912598,1408397.6745605469,3976370.334625244,-3897378.68309021,-439869.9998855591,-4568205.833435059,13464348.793029785,-7396007.537841797,1571191.5493011475,3409658.432006836,-5252946.853637695,1482218.7423706055,-1683931.827545166,-5563755.512237549,10741426.467895508,12656782.150268555,-3372216.9399261475,2717932.939529419,3317713.499069214,3992467.8802490234,7274131.774902344,5858800.411224365,1772153.0199050903,1135535.5978012085,2128180.742263794,6699973.106384277,5129677.772521973,4249786.376953125,8352241.516113281,401056.8857192993,793862.4024391174,1201306.4622879028,3724536.657333374,4555684.0896606445,3137915.1344299316,1520710.7067108154,1824103.593826294
0.065,22877815.24658203,23956464.767456055,18398902.893066406,6056805.13381958,19308616.638183594,19733.12720656395,270968.0497646332,1415698.8859176636,7522866.725921631,13654722.213745117,14015822.410583496,12428814.888000488,11933148.384094238,17186414.71862793,-7416921.138763428,290520.1017856598,5080444.3359375,6559251.308441162,7194135.665893555,8576909.065246582,7401752.471923828,3826843.9769744873,17462993.621826172,-7244611.740112305,-6308714.866638184,-3447957.0388793945,549020.2307701111,2626811.5043640137,-3465737.819671631,1155204.2961120605,-2431565.761566162,16580564.498901367,-11553452.491760254,172460.24310588837,3162245.750427246,-4913154.602050781,1525319.218635559,-68702.5934457779,-3989841.6996002197,12433190.34576416,14324349.403381348,-5836191.177368164,2203582.0484161377,2761631.2503814697,4305562.973022461,7016654.491424561,7214245.319366455,2274932.1460723877,1420825.9582519531,2390570.4021453857,5495229.721069336,3923999.786376953,3254003.2863616943,7989503.860473633,510249.6147155762,1064207.7922821045,1432220.8166122437,1356275.4392623901,3743769.407272339,2685999.1550445557,1883714.199066162,722007.5726509094
0.07,18739147.186279297,19690164.56604004,16113977.432250977,4520521.16394043,18886377.334594727,-3140600.2044677734,-2771140.3369903564,-1604256.272315979,6867246.150970459,13363877.296447754,14229211.807250977,13521492.958068848,12951691.627502441,19605911.254882812,-10028717.041015625,-3053469.41947937,1700727.2243499756,3838565.3495788574,5868428.2302856445,8458293.914794922,8495426.177978516,5614601.612091064,19874465.942382812,-9012576.10321045,-7477586.269378662,-4387539.386749268,-1378587.7227783203,1125029.20627594,-2302876.9493103027,3222530.6034088135,275767.0283317566,18867843.627929688,-12761401.176452637,-119038.12736272812,3011109.8289489746,-3460065.6032562256,1512454.1521072388,2738512.5160217285,-1161700.8447647095,16083543.77746582,18068529.12902832,-4877515.79284668,2952914.9532318115,3524852.514266968,5042573.45199585,7930585.3843688965,9978445.053100586,5864778.0418396,4893994.8081970215,5751516.342163086,6614387.989044189,5100271.224975586,4484924.793243408,8780792.236328125,4035903.4538269043,4599213.600158691,4955035.209655762,3068115.234375,5432689.666748047,4511676.788330078,5362545.967102051,2992914.1998291016
0.075,11896658.897399902,13493202.209472656,11593908.309936523,1889040.1124954224,17911207.19909668,-7012583.7326049805,-6653356.552124023,-5393002.510070801,6505215.644836426,14769611.358642578,15120893.478393555,13310688.018798828,12707612.037658691,19290300.369262695,-12788145.065307617,-5798175.811767578,-1126664.8769378662,3091792.583465576,6684588.90914917,8018516.540527344,9222766.876220703,6235927.581787109,19636932.373046875,-9928021.430969238,-7925273.895263672,-5470970.153808594,-3288789.987564087,810395.5984115601,-1319887.1612548828,4029083.251953125,2266626.5964508057,18553348.541259766,-12628153.800964355,-1074154.1385650635,1736043.930053711,-3620903.730392456,1293578.7439346313,4221596.240997314,568766.2959098816,18075193.405151367,20019790.649414062,-3906209.945678711,2619767.427444458,3199591.875076294,4341043.949127197,8306632.041931152,10938228.607177734,8743389.129638672,7897928.237915039,8720248.222351074,6883834.8388671875,5412034.98840332,4872247.695922852,9165753.364562988,7325215.3396606445,7804457.664489746,8094156.265258789,4943023.204803467,6100888.252258301,5577919.006347656,8359663.009643555,5512217.044830322
0.08,10383492.469787598,12820149.421691895,11360088.348388672,2736981.153488159,19316297.53112793,-7909868.240356445,-7556561.9468688965,-6265258.312225342,8959255.21850586,18944730.758666992,18057193.756103516,13834119.79675293,13265456.199645996,18306388.85498047,-14512043.952941895,-6660337.924957275,-691125.6909370422,6434041.500091553,10650526.04675293,9158345.222473145,10527866.36352539,6524685.382843018,18686607.360839844,-11468437.194824219,-9237019.538879395,-6358390.331268311,-3159053.5640716553,2455561.399459839,-420260.54859161377,3229468.822479248,2577865.1237487793,17662147.521972656,-13426581.382751465,-3028420.2098846436,-546369.6122169495,-5407086.8492126465,1001754.5223236084,3448167.8009033203,-135773.10740947723,17135343.551635742,18897871.017456055,-5573093.414306641,260646.82006835938,842982.2325706482,1522254.5862197876,6540485.382080078,8261279.106140137,7688827.037811279,7043487.548828125,7987854.957580566,4554903.507232666,3082416.296005249,2642463.207244873,7517570.018768311,6766298.770904541,7136169.910430908,7334411.144256592,4143230.91506958,3832336.902618408,3703684.5684051514,7569932.93762207,5366221.4279174805
0.085,15495223.045349121,18368072.509765625,16569530.487060547,7302728.652954102,22813556.671142578,-5640084.743499756,-5141783.237457275,-3896831.98928833,13368593.215942383,23996976.852416992,22026733.3984375,15614418.983459473,15121013.641357422,18445045.471191406,-14457378.387451172,-5728667.259216309,2106755.256652832,10984772.682189941,15577145.57647705,12293356.895446777,12288953.78112793,6849526.882171631,18816591.262817383,-13173576.354980469,-11086750.984191895,-6599586.963653564,-1263895.5116271973,4634135.2462768555,620682.7163696289,1895356.4167022705,841129.4221878052,17857042.31262207,-15185544.01397705,-4433504.104614258,-2663337.230682373,-6184772.968292236,984229.0282249451,2003713.607788086,-2523838.996887207,14747374.534606934,16415456.771850586,-8873414.039611816,-2438579.797744751,-1808389.1868591309,-1505027.5325775146,3744851.82762146,4174553.871154785,3574498.414993286,2958878.2787323,4085555.076599121,1317790.9851074219,-145050.7789850235,-566240.0722503662,4770524.978637695,2771423.101425171,3033210.7543945312,3243687.152862549,1494593.620300293,435356.58717155457,-140524.59597587585,3597693.44329834,2607866.7640686035
0.09,19048736.572265625,21971735.00061035,20273658.752441406,9297217.36907959,23596715.927124023,-4894408.702850342,-4155795.5741882324,-2951855.8979034424,14476766.586303711,24884874.34387207,22677793.502807617,15900529.861450195,15483767.50946045,18536746.978759766,-14794462.203979492,-5201122.760772705,3156891.345977783,11516873.359680176,16836265.563964844,14054935.455322266,12356158.256530762,6082255.3634643555,18952722.549438477,-14533431.053161621,-12128430.366516113,-6912943.8400268555,-648373.544216156,4774005.889892578,1135873.3177185059,1077078.2232284546,-1869614.9587631226,17934196.47216797,-16734516.143798828,-4561903.476715088,-4022696.9718933105,-4691768.646240234,1290727.6153564453,1713500.8573532104,-4739499.568939209,12740649.223327637,14434690.475463867,-11237821.578979492,-3378485.4412078857,-2668092.2508239746,-2232600.9273529053,3160457.134246826,2653337.9554748535,199651.42011642456,-563492.8941726685,670644.7601318359,-198716.31264686584,-1554763.5555267334,-2041956.6631317139,4067071.9146728516,-846846.5209007263,-694045.4244613647,-316090.1069641113,-597367.2270774841,-1070744.7528839111,-2813076.0192871094,126783.8180065155,-291927.0098209381
0.095,16168912.887573242,19195003.509521484,18343513.48876953,5347864.151000977,20030246.73461914,-8242858.88671875,-7379570.484161377,-6136951.446533203,10002273.559570312,20016878.128051758,18390880.584716797,13678114.891052246,13317399.024963379,18086669.921875,-17663612.365722656,-6728493.213653564,803996.0265159607,7252220.630645752,12967954.635620117,11641459.465026855,10134442.329406738,4342926.979064941,18538726.806640625,-16065179.824829102,-11902144.432067871,-8157059.669494629,-2949450.4928588867,2477681.1599731445,544762.0749473572,1046577.5728225708,-3118665.4567718506,17450546.264648438,-17483587.26501465,-4221286.296844482,-4887179.851531982,-2727148.7712860107,1519564.8670196533,2327150.344848633,-5524079.322814941,12095491.409301758,13740565.299987793,-11350712.776184082,-2053687.0956420898,-1328240.0369644165,-542669.0578460693,6093474.388122559,4576065.540313721,-67234.15106534958,-942219.1977500916,284428.8647174835,857511.3415718079,-334787.0707511902,-892221.987247467,6867370.128631592,-1336682.3196411133,-1285064.5780563354,-682168.0068969727,-497221.55928611755,351293.32542419434,-2252728.4622192383,-323223.5014438629,-962067.4848556519
0.1,13801065.444946289,17289699.55444336,16980545.043945312,1574746.84715271,18017818.450927734,-11213907.241821289,-10457437.515258789,-9094284.057617188,5421695.709228516,15185531.616210938,14351583.480834961,13047283.172607422,12735751.152038574,19980495.45288086,-20704589.84375,-8463836.669921875,-1156828.8803100586,3606910.7055664062,8587190.628051758,7870043.754577637,8928567.886352539,4521587.84866333,20322673.797607422,-17281911.849975586,-10546122.550964355,-9329405.784606934,-5481468.200683594,523735.28480529785,-182527.61662006378,1871728.0626296997,-1235891.342163086,19322959.899902344,-17081626.892089844,-3583630.084991455,-5145601.272583008,-2370899.9156951904,1363688.4689331055,2291592.3595428467,-4871564.865112305,13244133.949279785,14759717.94128418,-9502279.281616211,671372.7712631226,1270513.7729644775,1237611.4130020142,9628098.487854004,6740833.759307861,1640423.1786727905,848909.318447113,1985532.7606201172,3527309.6561431885,2366162.3001098633,1743073.2250213623,10486606.59790039,393110.454082489,391538.67959976196,1138968.4677124023,1966624.8559951782,3310595.989227295,364407.9864025116,1309185.0280761719,996458.2324028015
0.105,19831834.79309082,24053813.934326172,23082803.72619629,5050612.926483154,22769952.77404785,-8502511.978149414,-7971949.100494385,-6496618.747711182,6938610.553741455,16610212.326049805,16208984.375,17528324.127197266,17284614.56298828,25859268.188476562,-19507434.844970703,-7194060.325622559,1312596.2018966675,5420743.942260742,8879245.75805664,7945965.29006958,11628122.329711914,8345120.429992676,26026433.94470215,-16184331.893920898,-7952732.563018799,-8553528.785705566,-4704269.886016846,1358957.1714401245,366149.4255065918,3470169.0673828125,2325539.8273468018,25183732.986450195,-15141828.536987305,-1705170.5121994019,-4099658.0123901367,-3314473.1521606445,1072241.187095642,1156302.2136688232,-3692344.903945923,15514800.071716309,17075674.057006836,-6877372.264862061,3464827.060699463,3841512.441635132,1335324.8834609985,9974643.70727539,6343849.182128906,2901037.2161865234,2332403.1829833984,3337758.5411071777,6160307.884216309,4825511.932373047,4094381.332397461,11117697.715759277,1792459.487915039,1827888.2503509521,2576599.12109375,5211605.548858643,5603626.728057861,2051265.9549713135,2635779.619216919,3940242.5289154053
0.11,29157434.463500977,33965946.197509766,31737161.63635254,12174916.26739502,29596025.466918945,-2751871.8242645264,-2344615.4594421387,-906320.7507133484,12023041.725158691,21755895.614624023,21387678.146362305,23220493.31665039,23041473.388671875,31398920.0592041,-14798999.786376953,-3549364.5668029785,5993534.564971924,10288328.170776367,12417234.420776367,11603676.795959473,15484472.274780273,12428050.994873047,31531242.37060547,-12735997.200012207,-4846768.379211426,-6370694.160461426,-1505362.7490997314,3629854.679107666,1523857.3551177979,4758711.338043213,3914920.8068847656,30695461.27319336,-12661780.35736084,998864.9487495422,-2018965.721130371,-3971053.123474121,1089455.008506775,120439.5741224289,-3193963.050842285,16718038.558959961,18574485.778808594,-5208531.856536865,4898073.673248291,5108544.34967041,536629.9748420715,7428891.181945801,4804034.70993042,2962046.1463928223,2570371.627807617,3458439.1117095947,7127259.254455566,5659715.175628662,4830711.841583252,8787785.530090332,1909530.520439148,2070333.2424163818,2695055.9616088867,6539927.005767822,5860252.857208252,1467306.37550354,2809580.8029174805,5630994.79675293
0.115,29625562.66784668,34415958.404541016,31672317.504882812,12640800.476074219,29123258.590698242,-1946677.4463653564,-1445602.4169921875,-222926.3037443161,12300704.956054688,22095083.236694336,21742576.599121094,22696920.39489746,22516387.939453125,30803953.170776367,-12919138.90838623,-2216556.5490722656,6743138.790130615,11478064.53704834,12902294.158935547,12789656.639099121,14857001.304626465,11567291.259765625,30995349.884033203,-10641804.695129395,-3619721.1742401123,-5898651.599884033,-253645.47967910767,3902310.1329803467,780556.5595626831,3865035.7723236084,1529744.7443008423,30032520.294189453,-12074727.058410645,2108118.5340881348,-767537.4150276184,-3949743.2708740234,1396525.3829956055,120414.01863098145,-4258094.787597656,15119063.377380371,17223005.294799805,-5706667.900085449,4228059.2918396,4460106.372833252,709726.3336181641,5907018.184661865,5331543.445587158,2758631.2294006348,2372551.202774048,3218966.007232666,5876586.437225342,4596451.759338379,3818140.5067443848,7239837.646484375,1666823.387145996,1986960.530281067,2422857.5229644775,4820060.729980469,4481785.774230957,136090.11471271515,2684382.438659668,5204205.9898376465
0.12,19906122.2076416,24175645.82824707,21943933.486938477,4174430.8471679688,20712762.8326416,-8273420.333862305,-7551966.190338135,-6522624.492645264,5430175.304412842,15071425.437927246,15031296.730041504,15691197.395324707,15439315.795898438,25408504.486083984,-17198108.673095703,-5575630.664825439,2002228.021621704,6956907.272338867,8080912.5900268555,8502367.973327637,9370706.558227539,6145225.048065186,25503801.345825195,-12823424.339294434,-5888475.41809082,-8677203.178405762,-2796028.1372070312,1408924.4604110718,-2571410.655975342,553544.0444946289,-2571027.994155884,24489713.668823242,-14103317.260742188,479421.34737968445,-1884683.0129623413,-4271904.945373535,1556867.8379058838,663914.680480957,-6482208.728790283,12190657.615661621,14233457.565307617,-7369102.001190186,2403465.0325775146,2809369.8024749756,2031715.8699035645,7520796.298980713,7957628.25012207,3151144.7429656982,2643424.0341186523,3518416.166305542,3977407.932281494,3068042.993545532,2497746.706008911,8706196.784973145,2026416.540145874,2463097.095489502,2725112.6766204834,2487413.8832092285,3433351.993560791,140509.85872745514,3098314.5236968994,4111231.3270568848
0.125,12263710.021972656,16500703.811645508,14787731.170654297,-3756048.6793518066,14325789.451599121,-14765613.555908203,-13904275.894165039,-12811648.36883545,-1351334.9294662476,8193738.93737793,8701605.796813965,10857581.13861084,10554563.522338867,23160146.713256836,-22714965.8203125,-9821705.81817627,-2863723.7548828125,2205409.7652435303,3183264.2555236816,3793950.080871582,5524339.199066162,2866452.45552063,23011678.69567871,-16799411.77368164,-9696467.399597168,-12074254.035949707,-6112421.989440918,-911441.7433738708,-5595158.576965332,-2311556.577682495,-3912200.927734375,22045875.549316406,-16075357.437133789,-1620204.9255371094,-4377892.49420166,-5514805.316925049,1353257.8945159912,984201.8485069275,-7981377.601623535,11639981.269836426,13449703.216552734,-7613057.1365356445,1384595.6325531006,1930652.9760360718,2823449.8500823975,9914875.030517578,9549242.01965332,4178461.5516662598,3580667.734146118,4473550.319671631,3903216.1235809326,3108287.572860718,2686039.686203003,11027302.742004395,3083327.531814575,3519269.4664001465,3695050.2395629883,3084468.126296997,4423319.339752197,1658508.7776184082,4097626.209259033,4621026.039123535
0.13,16333740.234375,21974397.659301758,19935169.219970703,-2450357.9139709473,17814279.556274414,-14449176.788330078,-13662828.44543457,-12329319.00024414,-876377.4037361145,9283143.043518066,10259970.664978027,15008986.473083496,14724891.662597656,28568319.32067871,-22790111.541748047,-9680912.971496582,-2633213.758468628,3016841.411590576,3913829.3266296387,5050249.5765686035,8630279.541015625,6649021.625518799,28347330.09338379,-17697406.768798828,-11212731.36138916,-12407659.530639648,-6644833.087921143,-464010.626077652,-4934159.278869629,-1221880.6743621826,-452881.8428516388,27334955.2154541,-15356464.385986328,-1365566.8497085571,-5404497.146606445,-6813238.143920898,1026856.7800521851,1401686.0723495483,-6954026.222229004,14968451.499938965,16661363.60168457,-5576113.224029541,1959827.5423049927,2485662.2219085693,2032366.0373687744,9924828.52935791,8661402.702331543,5416216.3734436035,4868134.021759033,5718350.410461426,5997165.679931641,4930400.848388672,4395723.819732666,11038197.51739502,4408577.919006348,4701127.052307129,4897030.353546143,6503935.813903809,6787187.099456787,3267931.6997528076,5290149.211883545,6867864.13192749
0.135,27560020.446777344,35430023.193359375,32515933.990478516,5618926.048278809,27497249.603271484,-8760135.650634766,-8181342.124938965,-6790846.824645996,5334982.395172119,16757669.448852539,17795066.833496094,24385316.848754883,24091064.453125,36731864.92919922,-18183143.615722656,-5406004.428863525,1611463.0699157715,8309246.063232422,9025959.014892578,11164958.953857422,15939861.297607422,14196416.854858398,36732662.200927734,-15261562.34741211,-9430708.885192871,-9570608.139038086,-4556333.541870117,1773859.3816757202,-1128260.9701156616,3727430.1052093506,5162021.636962891,35544044.494628906,-13414530.754089355,736712.6941680908,-3444202.8999328613,-6884817.123413086,847391.7245864868,2540339.231491089,-3946928.2627105713,19101015.090942383,20836341.857910156,-3854296.4458465576,2813554.286956787,3248070.9552764893,618724.4057655334,7670466.423034668,7402240.753173828,5807044.02923584,5400300.5027771,6187611.103057861,7496197.22366333,6157513.14163208,5367221.832275391,8729336.738586426,4916055.202484131,5011641.502380371,5295358.657836914,8274280.548095703,7588194.847106934,3514645.81489563,5677557.468414307,7859827.995300293
0.14,34312248.22998047,43271366.119384766,39762428.283691406,11564574.241638184,33708179.47387695,-4583601.474761963,-4108707.904815674,-2992189.645767212,10500626.564025879,22643514.63317871,23156284.33227539,29481777.19116211,29030479.431152344,39310066.22314453,-15841996.192932129,-2339345.693588257,5026176.929473877,12210325.241088867,12456210.136413574,15189976.692199707,20136117.935180664,17860025.40588379,39532268.52416992,-14311098.098754883,-7224942.684173584,-6861096.8589782715,-2479523.181915283,3048748.731613159,1907673.0012893677,8338325.500488281,8213760.3759765625,38272602.08129883,-13947641.372680664,1743562.8175735474,-233472.68998622894,-5623612.403869629,790554.0466308594,3890056.848526001,-1711469.4118499756,19680358.88671875,21468042.373657227,-5453266.620635986,2366956.949234009,2803814.41116333,110750.28032064438,5478798.389434814,7677950.382232666,3941472.5303649902,3622552.3948669434,4380425.453186035,5705554.008483887,4436179.161071777,3604141.9506073,6414894.580841064,3121479.034423828,3140313.3869171143,3530385.2558135986,4729225.635528564,4678368.091583252,1719574.213027954,3874616.3845062256,4746225.833892822
0.145,30797870.635986328,38732978.82080078,35355327.60620117,10688264.846801758,31962469.10095215,-5927905.559539795,-5308640.480041504,-4466954.231262207,11019544.60144043,22475358.963012695,22110923.767089844,26298717.498779297,25614259.719848633,34074996.94824219,-19557756.423950195,-4043346.881866455,5020823.001861572,11439981.460571289,11086130.142211914,13506619.453430176,18006792.068481445,14625000.953674316,34260433.197021484,-17840011.596679688,-7326355.457305908,-6829125.881195068,-1979121.6850280762,2440326.690673828,1558243.2746887207,8804059.982299805,6609181.4041137695,33156867.98095703,-17532186.50817871,309281.02135658264,937436.7594718933,-4361063.003540039,762975.9907722473,4249856.948852539,-2175154.9243927,16046764.373779297,17837692.260742188,-9702429.77142334,805733.859539032,1323586.5831375122,727768.1827545166,4334454.536437988,8234611.511230469,-75245.77528238297,-448642.7307128906,311936.79571151733,1490030.288696289,447332.38220214844,-61880.27560710907,5212076.663970947,-958078.8016319275,-816222.5484848022,-333186.2688064575,-2330534.9349975586,-533651.7691612244,-1672679.1858673096,-76259.09149646759,-1048558.235168457
0.15,20326305.389404297,26609025.955200195,24058797.83630371,4988846.302032471,25749578.47595215,-11166625.022888184,-10264621.73461914,-9357714.653015137,8258265.495300293,18468704.223632812,17685007.095336914,19652042.388916016,18865478.515625,26500783.920288086,-25914609.909057617,-8519837.379455566,2523073.196411133,7825877.1896362305,7267390.251159668,9440179.824829102,13117308.616638184,8927850.723266602,26548694.610595703,-23053291.32080078,-9224825.859069824,-8975181.579589844,-2903830.051422119,1143915.6532287598,-805509.0308189392,6016876.220703125,2833438.8732910156,25608545.303344727,-20985706.329345703,-2093192.8157806396,-1200506.329536438,-4454180.717468262,832388.162612915,3634759.1876983643,-4057500.8392333984,11883517.265319824,13666540.145874023,-13057413.101196289,-504635.214805603,6415.015086531639,1577994.9426651,3507942.9149627686,7320342.063903809,-3496950.626373291,-4026134.490966797,-3245763.5402679443,-1756022.8109359741,-2796667.5758361816,-2916060.9245300293,4470687.389373779,-4563131.332397461,-4242896.556854248,-3701623.6782073975,-7684857.8453063965,-4336997.509002686,-4929367.0654296875,-3530253.1719207764,-4708368.77822876
0.155,10411845.207214355,16580566.40625,15296503.067016602,-1421131.7300796509,20946168.899536133,-16409744.262695312,-15322682.38067627,-14212623.596191406,4566995.143890381,14518586.158752441,14622272.491455078,16457792.282104492,15766387.939453125,23386064.529418945,-29749673.84338379,-11576975.82244873,-718503.9520263672,4356448.650360107,4407465.934753418,7749709.129333496,10693569.18334961,7001187.801361084,23469575.881958008,-25697429.656982422,-10925322.532653809,-11412287.712097168,-4848666.667938232,46725.89898109436,-2111069.2024230957,4425703.525543213,1331661.581993103,22471748.35205078,-22096736.907958984,-3723644.733428955,-4540590.763092041,-5741054.534912109,1027034.6403121948,3582028.388977051,-4344530.5824279785,11154879.570007324,12885625.839233398,-13682062.149047852,-1025335.6695175171,-642812.0732307434,2042673.8262176514,2865194.082260132,6186378.955841064,-3285494.327545166,-3957409.143447876,-3125976.085662842,-2223447.561264038,-3471342.8020477295,-3539201.259613037,3978976.9649505615,-4514698.028564453,-4176067.352294922,-3619242.9065704346,-8632775.30670166,-4673213.481903076,-6152941.703796387,-3460873.3654022217,-3554002.523422241
0.16,7324869.155883789,14955574.035644531,14804757.118225098,-5461884.021759033,20406400.680541992,-18843784.33227539,-17761095.04699707,-16784685.134887695,1431128.978729248,12114706.039428711,14136659.622192383,18541671.752929688,17974567.413330078,26522468.56689453,-30094743.728637695,-11711445.808410645,-3309346.4374542236,2058745.1457977295,3227774.6200561523,8988986.015319824,12149722.0993042,10276414.87121582,26765439.987182617,-25532354.3548584,-11834334.373474121,-12943478.58428955,-7155431.270599365,-1133239.984512329,-1337981.3432693481,6657625.198364258,3856018.06640625,25609205.24597168,-22091175.079345703,-4390889.644622803,-5957419.872283936,-6684601.306915283,1151972.8899002075,4940995.216369629,-2030115.8428192139,14179766.654968262,15765101.432800293,-13189423.561096191,-1365742.9218292236,-1062790.6322479248,2160780.906677246,3225443.124771118,7180093.288421631,176833.00375938416,-535407.7816009521,372661.17334365845,-1274273.9915847778,-2602615.1180267334,-2954001.1882781982,4426000.118255615,-1083244.6813583374,-891936.9578361511,-349554.98576164246,-7226715.564727783,-2989208.221435547,-5408100.128173828,-134066.3880109787,-236126.109957695
0.165,11507269.859313965,20204948.42529297,20343961.715698242,-5718241.6915893555,22700988.76953125,-17924957.275390625,-16915006.637573242,-16374027.252197266,414823.2042789459,11231283.187866211,14542560.577392578,22233617.782592773,21663017.27294922,31929876.32751465,-29269634.246826172,-10524707.794189453,-3775793.7908172607,1248337.3880386353,2901837.3489379883,10530691.146850586,14891245.84197998,14897789.95513916,32203487.396240234,-25175916.67175293,-12322746.276855469,-13089805.603027344,-8198297.500610352,-2388037.2047424316,-129800.4686832428,10428113.93737793,7753734.111785889,31064914.70336914,-22478713.989257812,-4408034.801483154,-4639399.528503418,-6220494.270324707,1044061.1839294434,6252129.554748535,662405.6100845337,17852346.420288086,19316064.834594727,-13358907.699584961,-1777158.498764038,-1402231.0972213745,2027415.2755737305,4473810.195922852,9529862.403869629,3294681.3106536865,2649804.8305511475,3603521.8238830566,-750221.9080924988,-1933416.8434143066,-2514234.5428466797,5649852.275848389,2096477.2701263428,2185393.0950164795,2677282.0949554443,-6485330.581665039,-1811328.7687301636,-4662800.7888793945,2976268.0530548096,989214.301109314
0.17,16315095.901489258,24437265.396118164,23920137.405395508,-3453277.587890625,23962627.410888672,-15531384.468078613,-14532103.538513184,-14129343.032836914,2289715.528488159,11777625.08392334,14331323.623657227,23104440.689086914,22480518.341064453,34121543.884277344,-28775024.4140625,-9764162.063598633,-1662019.7296142578,2883719.6826934814,3238780.975341797,10665918.350219727,15849997.520446777,16491477.966308594,34243598.93798828,-25403377.532958984,-11951848.983764648,-11730957.984924316,-6723434.925079346,-2796053.171157837,-188517.9877281189,11541778.564453125,9105740.547180176,33313983.917236328,-22266725.540161133,-3567253.589630127,-2516711.2350463867,-4935664.653778076,847265.5415534973,5363709.449768066,1102947.8311538696,19029909.133911133,20569091.796875,-13343061.447143555,-1577505.350112915,-1134228.5871505737,1650083.4226608276,5205458.641052246,9977892.875671387,3553882.598876953,3006730.079650879,3934532.403945923,-397068.7687397003,-1456170.678138733,-1966709.2561721802,6294967.174530029,2417450.9048461914,2569152.83203125,2929927.5875091553,-6386801.242828369,-1609460.949897766,-4944085.121154785,3335124.2542266846,-187755.89764118195
0.175,14622177.124023438,21439395.904541016,20161258.697509766,-2235609.769821167,21714023.59008789,-14561117.172241211,-13530455.589294434,-12683971.405029297,5060713.291168213,12928349.494934082,13380088.806152344,20320701.599121094,19761989.59350586,31361757.278442383,-28353679.656982422,-9591449.737548828,1038375.2584457397,6725804.328918457,4194923.400878906,9813760.757446289,14376098.6328125,14385664.939880371,31330562.591552734,-24658237.45727539,-10222508.430480957,-9718823.432922363,-3955699.2053985596,-2007604.1221618652,-1105196.9528198242,9088659.286499023,7041604.042053223,30553680.419921875,-20276342.391967773,-2037259.817123413,-1607434.1535568237,-3996666.90826416,801633.4772109985,2265553.2360076904,-686683.7739944458,17334884.643554688,19105365.753173828,-11697386.741638184,-497243.13616752625,-166920.43840885162,1384461.4028930664,4798211.097717285,7587410.926818848,2122143.268585205,1619534.969329834,2471013.069152832,941324.9492645264,-162933.75194072723,-477908.4920883179,5824549.198150635,1058150.1722335815,1300242.1855926514,1447718.3818817139,-5008676.528930664,-1104416.1319732666,-4967117.786407471,1972834.7063064575,-490803.21192741394
0.18,7817318.439483643,14077795.98236084,12846916.198730469,-4019244.67086792,17879327.77404785,-15890545.845031738,-14860900.87890625,-13512277.603149414,5713521.480560303,13250782.012939453,12518103.59954834,16889465.33203125,16479633.331298828,27035963.05847168,-27789852.142333984,-9421703.338623047,1684798.4790802002,10044801.712036133,4905122.756958008,9032473.56414795,12269617.080688477,11295252.799987793,26980512.619018555,-22575925.827026367,-8318784.713745117,-8734719.276428223,-2631318.5691833496,-1085538.8641357422,-1096082.9257965088,6170403.003692627,4100233.0780029297,26159235.00061035,-18086380.004882812,-1050563.097000122,-1897439.8374557495,-3543413.6390686035,899861.5741729736,-768670.9761619568,-2543622.2553253174,14918592.45300293,16845163.345336914,-9453335.762023926,349517.3454284668,489591.00246429443,1730322.9570388794,4332184.314727783,5220183.849334717,1510051.4888763428,1014048.4571456909,1759124.2790222168,2819488.763809204,1650706.5296173096,1388671.3981628418,5375022.411346436,605135.440826416,801541.7456626892,781883.1205368042,-2302631.8550109863,91232.07628726959,-3594828.3672332764,1337917.0894622803,1731025.4573822021
0.185,4373596.668243408,10969001.770019531,10470696.449279785,-6240832.328796387,16934183.12072754,-17228475.57067871,-16211759.567260742,-14918988.227844238,4466331.481933594,12854587.55493164,12973316.192626953,16154468.536376953,15763391.494750977,25563064.575195312,-27470317.840576172,-9116749.76348877,424242.1090602875,10538188.934326172,4957438.945770264,9170840.2633667,11764007.568359375,9881256.103515625,25583240.509033203,-21149932.861328125,-8009101.867675781,-9484364.50958252,-3507672.071456909,-921935.2006912231,654645.562171936,5639297.4853515625,2821668.1480407715,24659719.467163086,-18179426.193237305,-1619719.2668914795,-2298882.9612731934,-3067366.123199463,991465.3897285461,-1771220.4456329346,-2951660.633087158,14045307.159423828,15930209.159851074,-8945327.758789062,-414648.4136581421,-279208.80913734436,2421902.4181365967,4706064.224243164,5497258.186340332,2296196.699142456,1864104.5093536377,2471807.2414398193,3469428.062438965,2332082.0331573486,1996801.8531799316,5819970.13092041,1608158.4692001343,1699095.2491760254,1713885.6649398804,-434713.5126590729,776432.6333999634,-2031791.6870117188,2118919.1341400146,4438211.441040039
0.19,8202953.338623047,15155485.153198242,15035908.699035645,-5194338.321685791,20116659.16442871,-16227516.174316406,-15171380.996704102,-14321110.725402832,4631474.97177124,13604240.417480469,15233774.185180664,18122303.009033203,17563358.306884766,27320367.81311035,-27487285.614013672,-8977703.094482422,-13678.491115570068,9552073.47869873,5503083.229064941,10724842.071533203,13422069.549560547,10280357.360839844,27437473.29711914,-21836740.493774414,-9011495.590209961,-10732931.137084961,-4341017.246246338,-839253.4255981445,2940730.571746826,6804676.532745361,3312511.920928955,26563760.75744629,-20283277.51159668,-3131150.960922241,-2683077.096939087,-2905543.565750122,1091433.5250854492,-767680.3469657898,-2231233.835220337,15090063.095092773,16847955.70373535,-10355888.366699219,-2656380.4149627686,-2282990.4556274414,2523601.531982422,5221898.078918457,7579570.770263672,3360033.9889526367,3072425.603866577,3572939.157485962,2266197.919845581,1115752.935409546,767629.9214363098,6369605.06439209,2794903.039932251,2922704.2198181152,3135144.4721221924,-494044.6615219116,179060.33992767334,-1952510.952949524,3319916.4867401123,5329542.16003418
0.195,13932628.631591797,20831659.3170166,19931394.577026367,-1250444.2930221558,23624895.095825195,-13639081.954956055,-12535021.781921387,-11867751.121520996,7515878.677368164,16030529.022216797,17918510.43701172,19903440.475463867,19228933.334350586,28996791.83959961,-27571203.231811523,-9150382.041931152,1705677.1516799927,10121194.839477539,7468919.75402832,13102163.314819336,15848380.088806152,10946829.795837402,29158973.693847656,-23590394.973754883,-9457246.780395508,-11159756.660461426,-3036741.7335510254,157329.4997215271,3958765.745162964,7175165.65322876,4340906.143188477,28510900.497436523,-22008264.541625977,-4100397.5868225098,-3760877.6092529297,-3995874.8817443848,1295622.706413269,1213413.3577346802,-1346358.7760925293,16668445.587158203,18362054.8248291,-11709786.415100098,-4769472.599029541,-4132147.3121643066,1736821.8898773193,4831675.052642822,9032841.682434082,4084164.1426086426,3899436.7122650146,4438070.297241211,461809.1285228729,-849961.1616134644,-1137251.1386871338,5918085.098266602,3450243.4730529785,3758358.955383301,4100765.7051086426,-1102224.1115570068,-902465.0454521179,-2884538.173675537,4245692.253112793,4664361.476898193
0.2,15800542.831420898,22594768.524169922,20002750.396728516,1596109.5094680786,23786720.275878906,-12124764.442443848,-11083275.79498291,-10228860.855102539,9823350.90637207,17529010.772705078,18562126.15966797,19529981.61315918,19018842.697143555,28419910.430908203,-28030101.776123047,-9674555.778503418,3397734.4036102295,12051822.662353516,9266317.367553711,14283984.184265137,17138153.076171875,10833472.25189209,28514425.27770996,-24901653.289794922,-9185012.817382812,-11587265.014648438,-677613.5563850403,1381376.5048980713,3317912.3401641846,5977055.549621582,5139229.297637939,28090465.545654297,-22694545.74584961,-4130407.3333740234,-5535184.860229492,-6068947.315216064,1472516.7751312256,3561085.7009887695,-819204.6284675598,17218935.012817383,18913204.193115234,-12265920.639038086,-5571281.433105469,-4828124.046325684,990958.8694572449,3856270.0748443604,9246855.735778809,4604502.201080322,4365851.402282715,5079209.804534912,-823728.5017967224,-2235433.340072632,-2544057.846069336,4836516.380310059,3780032.8731536865,4185347.080230713,4461254.596710205,-1251759.8867416382,-1699632.167816162,-3537273.645401001,4803134.441375732,3395868.0629730225
0.205,15418840.408325195,22448354.721069336,18298547.744750977,1032508.9693069458,21766895.294189453,-12698196.411132812,-11828189.849853516,-10968520.164489746,8031203.269958496,15467486.381530762,16263935.089111328,18002103.805541992,17806034.088134766,26754787.44506836,-29507431.030273438,-10596414.566040039,2484662.0559692383,11846267.700195312,8254501.3427734375,12578456.87866211,16342313.766479492,9976854.32434082,26718013.763427734,-26032646.17919922,-10034209.251403809,-13656671.524047852,12016.062624752522,1155568.8381195068,2095584.8693847656,4366616.725921631,5191375.732421875,26316877.365112305,-24028570.1751709,-4150517.463684082,-6968947.410583496,-7228403.568267822,1360327.6014328003,5697471.618652344,-1129077.434539795,16148832.321166992,17827152.252197266,-13534696.578979492,-5496850.01373291,-4745217.800140381,1141954.0643692017,3280723.0949401855,9219485.28289795,4338453.769683838,3957772.731781006,4779323.101043701,-2060954.3323516846,-3254970.073699951,-3705045.9384918213,4209081.172943115,3347708.225250244,3625051.975250244,3793781.042098999,-2478512.5255584717,-2914755.8212280273,-4612676.14364624,4323363.780975342,849023.699760437
0.21,16730430.603027344,24233430.862426758,19585174.560546875,-1164311.170578003,20934230.80444336,-13876242.637634277,-13125766.75415039,-12731547.355651855,3578953.504562378,11038574.21875,12840880.393981934,17072195.053100586,16996320.724487305,25650220.87097168,-31402112.96081543,-11420946.12121582,-83003.4464597702,8127229.690551758,4447428.7033081055,8760274.887084961,13766326.904296875,8659060.47821045,25592491.149902344,-27612886.428833008,-11960950.85144043,-16535350.799560547,-1469176.0540008545,-674229.5622825623,1097009.539604187,3049903.154373169,3785113.0962371826,24987791.061401367,-26345542.907714844,-4566519.260406494,-7176723.480224609,-5931070.327758789,983819.0674781799,6406728.744506836,-2832566.738128662,13948369.979858398,15559509.27734375,-15984415.054321289,-5416751.384735107,-4595137.596130371,1846256.3753128052,3137329.578399658,9151617.050170898,2352081.298828125,1906551.8379211426,2615231.75239563,-3769643.783569336,-4541229.724884033,-5102472.305297852,4104419.708251953,1296898.1266021729,1359573.3642578125,1586731.0762405396,-5909840.106964111,-4954200.267791748,-7356109.619140625,2068114.5191192627,-3168259.859085083
0.215,18810689.92614746,26529876.708984375,22382934.5703125,-2071143.388748169,21653730.392456055,-13842540.740966797,-13061415.672302246,-13132093.42956543,1216848.9694595337,7986583.709716797,10692000.389099121,16696405.410766602,16435356.140136719,24944349.28894043,-31501655.57861328,-10849211.692810059,-836315.929889679,4320096.015930176,901879.8470497131,5519248.485565186,10579940.795898438,7240750.789642334,25047336.57836914,-28223236.083984375,-11617255.210876465,-17092111.587524414,-2752800.703048706,-2328066.349029541,-39921.704679727554,1671728.9686203003,1316964.030265808,24213239.669799805,-26908525.466918945,-4176421.642303467,-6148837.566375732,-2812218.427658081,698982.5963973999,5052712.440490723,-5438645.839691162,11905817.985534668,13443961.143493652,-17066293.716430664,-4967653.274536133,-4003059.8640441895,2304955.9593200684,2823017.358779907,8237953.186035156,-445070.5349445343,-857665.9560203552,-346470.9520339966,-4543032.169342041,-5070403.575897217,-5605732.9177856445,3872513.771057129,-1479615.569114685,-1469807.0287704468,-1089878.0822753906,-8541590.690612793,-5670600.891113281,-9803044.319152832,-807205.2001953125,-5496679.782867432
0.22,19301631.927490234,26448900.22277832,22757562.6373291,-657469.630241394,22016023.635864258,-11932797.4319458,-11087505.340576172,-11077692.031860352,3054474.8306274414,8187457.084655762,10483958.24432373,16207727.432250977,15727891.92199707,24535741.806030273,-28034658.432006836,-7989232.540130615,1657873.272895813,4314894.676208496,200292.9151058197,4798593.997955322,8374730.110168457,6660567.283630371,24791170.120239258,-25553167.34313965,-7083302.974700928,-14092350.006103516,-1872256.875038147,-2310712.3374938965,-1625121.831893921,409235.74566841125,-16099.976375699043,23936727.52380371,-23415073.39477539,-1711158.3948135376,-4366861.820220947,-59149.667620658875,745949.4471549988,2907669.78263855,-7232415.676116943,11518232.345581055,13063012.12310791,-14336624.145507812,-3155032.3963165283,-2122873.7831115723,2442161.3216400146,2393188.953399658,6333594.799041748,-1315130.114555359,-1734089.6129608154,-1243432.0449829102,-2265611.8869781494,-2893937.110900879,-3361976.6235351562,3505548.9540100098,-2291195.3926086426,-2090757.131576538,-1727083.3253860474,-5795309.066772461,-2256594.181060791,-8021116.256713867,-1551932.454109192,-2280089.3783569336
0.225,20501222.610473633,26253267.288208008,22080768.585205078,2372897.3865509033,22256341.9342041,-8579747.200012207,-7808708.190917969,-7318182.945251465,6572813.510894775,10297250.747680664,11510157.585144043,16440927.505493164,16002779.006958008,25773962.020874023,-22175336.837768555,-4110102.653503418,4887254.238128662,7361604.690551758,1947778.344154358,6286915.7791137695,8240358.352661133,7628431.32019043,25958341.598510742,-20078678.131103516,-2281790.7333374023,-10512221.336364746,242622.37548828125,-954199.6717453003,-2754955.291748047,167572.09599018097,1200382.5902938843,25276252.74658203,-17808313.369750977,1842549.3240356445,-2666640.7585144043,609452.1880149841,983594.2983627319,1895896.553993225,-7355627.059936523,13079356.19354248,14753680.229187012,-9371641.159057617,-627397.894859314,290060.818195343,2536047.6970672607,2381372.6902008057,4321940.898895264,880811.5720748901,360430.62806129456,1028828.501701355,2553185.9397888184,1708581.6860198975,1180258.1548690796,3497579.81300354,-34570.65671682358,451742.17224121094,573133.7666511536,1710613.3699417114,4219127.655029297,-2000280.1418304443,794479.250907898,5157174.587249756
0.23,25052091.598510742,29438161.849975586,24296981.811523438,5509500.026702881,24240150.451660156,-5511460.304260254,-4916107.177734375,-4090750.6942749023,8395689.010620117,12243300.437927246,13022880.554199219,18228723.526000977,18046976.08947754,28586463.928222656,-17917804.718017578,-2285816.9078826904,5548995.9716796875,9496637.344360352,4035446.6438293457,8254676.818847656,9520557.403564453,9001521.110534668,28557983.3984375,-15794564.247131348,-3447763.9198303223,-10068992.614746094,1338002.324104309,477351.3972759247,-2432945.0130462646,696219.5038795471,2889489.8891448975,27964540.481567383,-14706862.449645996,3525698.184967041,-2250066.5187835693,-739207.0293426514,1157932.6391220093,2198229.7897338867,-7308043.003082275,14628497.123718262,16465860.366821289,-6512312.412261963,112852.64045000076,816579.4610977173,2324985.5041503906,2674796.1044311523,2872177.839279175,3448441.505432129,2862275.8388519287,3671646.1181640625,6110711.574554443,5231883.0490112305,4494960.308074951,3718122.0054626465,2590574.5029449463,3229403.495788574,3140856.7428588867,7013072.967529297,8394464.492797852,2756486.8927001953,3433336.019515991,10008642.196655273
0.235,28342176.43737793,32504016.876220703,27248550.415039062,6466691.493988037,26610645.294189453,-5495344.638824463,-4965215.20614624,-4101345.5390930176,7721111.77444458,12879947.662353516,14016468.048095703,19633100.509643555,19639373.779296875,29545558.92944336,-18593767.166137695,-4350725.173950195,3381753.68309021,8789772.033691406,4832373.142242432,9030504.22668457,10165622.71118164,8566050.52947998,29429729.461669922,-16031583.786010742,-11232267.379760742,-12492799.758911133,806390.5239105225,1123223.7815856934,-1301231.026649475,478274.6434211731,1791801.5718460083,28653175.354003906,-16081531.524658203,1701552.152633667,-3576579.3323516846,-2439181.5662384033,1232587.0990753174,2593955.0399780273,-8796072.959899902,13626302.719116211,15470957.75604248,-7764645.576477051,-2151905.298233032,-1576628.4465789795,1572902.2026062012,2774365.186691284,2111763.0004882812,2794360.1608276367,2291611.1946105957,3059620.3804016113,5158842.086791992,4448241.233825684,3517848.014831543,3689436.912536621,2022910.3565216064,2558938.980102539,2503606.081008911,4600538.730621338,6407111.644744873,1584818.720817566,2824379.6825408936,7330687.522888184
0.24,23614082.33642578,28678260.803222656,24498941.42150879,3532880.3062438965,25065807.342529297,-9748642.921447754,-9075660.705566406,-8156226.15814209,5527631.759643555,11397397.0413208,12936374.66430664,17680145.263671875,17649507.522583008,25997489.92919922,-23345266.342163086,-8584513.664245605,910101.3541221619,6816029.071807861,3682090.5208587646,7861910.820007324,9074528.694152832,6001653.19442749,25985399.24621582,-19575540.54260254,-19359794.61669922,-14228234.29107666,-77732.94299840927,678030.7292938232,-1088608.3841323853,-822856.2474250793,-1783957.4813842773,24913051.60522461,-19145975.11291504,-1602566.7190551758,-5225220.203399658,-2634670.4959869385,1312576.8899917603,2916954.99420166,-10882799.14855957,10211719.512939453,11832592.964172363,-10865780.8303833,-5148671.627044678,-4545417.308807373,989600.0623703003,2936191.7972564697,2237029.552459717,-1007799.6253967285,-1374455.0943374634,-702963.5906219482,797478.7950515747,254654.28829193115,-678927.2427558899,3746636.6291046143,-1652404.1891098022,-1377227.4255752563,-1290212.869644165,-2605718.6126708984,712057.2924613953,-3638281.5837860107,-916390.4190063477,-116851.16589069366
0.245,14059885.025024414,19766996.383666992,16555076.599121094,-1618293.8814163208,19327005.38635254,-15326412.200927734,-14440194.129943848,-13303722.381591797,2778957.1285247803,7895131.1111450195,9775512.6953125,13378321.647644043,13183401.107788086,21031148.91052246,-27519184.112548828,-11206620.216369629,197647.3480463028,5591693.878173828,1120470.1662063599,5651984.214782715,7838392.25769043,3916064.977645874,21117343.90258789,-22132928.8482666,-21988908.767700195,-13475341.796875,-367183.4170818329,-554641.9620513916,-2103878.4980773926,-1276192.6651000977,-3847358.465194702,19927839.279174805,-19944606.78100586,-2751619.577407837,-5347613.334655762,-1184289.9322509766,1396229.863166809,4376658.916473389,-11060410.499572754,7681379.318237305,9024910.926818848,-12664779.663085938,-5784890.651702881,-5123938.56048584,1078873.9919662476,3704070.0912475586,3199143.409729004,-4188798.427581787,-4545526.98135376,-3850574.493408203,-2739638.8053894043,-3262799.024581909,-4032170.295715332,4513791.561126709,-4757624.626159668,-4639950.275421143,-4562161.445617676,-6657028.1982421875,-2813119.1730499268,-7357804.775238037,-4079446.792602539,-5125876.426696777
0.25,11455689.430236816,16489608.764648438,12974621.772766113,-4143148.899078369,15735399.24621582,-17094175.338745117,-16092332.83996582,-14856770.515441895,727545.8574295044,5010920.524597168,7669418.3349609375,11882700.92010498,11562196.731567383,20558549.880981445,-27152660.369873047,-10036808.967590332,1231079.6976089478,5511329.174041748,-646785.4380607605,4809353.828430176,9029726.9821167,4776386.737823486,20612150.192260742,-21244369.506835938,-19880590.438842773,-12140568.733215332,-436919.1825389862,-1344973.087310791,-2537061.929702759,661725.4614830017,-2118088.722229004,19523498.53515625,-17914354.32434082,-731623.8284111023,-4277934.0744018555,34300.319850444794,1391306.0426712036,6965558.5289001465,-9095465.660095215,8537793.159484863,9792859.077453613,-12700894.355773926,-4379651.069641113,-3770570.993423462,711821.6753005981,4518132.68661499,3928947.4487304688,-4000807.762145996,-4479037.761688232,-3671987.771987915,-2820210.4568481445,-3438933.849334717,-4123785.4957580566,5426767.826080322,-4678286.552429199,-4440254.211425781,-4507727.62298584,-4063254.8332214355,-1766091.9427871704,-7286373.138427734,-3951122.999191284,-4106097.69821167
0.255,19899312.97302246,23729709.62524414,19306562.423706055,-1488055.2291870117,19049016.95251465,-13650242.805480957,-12628257.751464844,-11619243.621826172,729341.0301208496,5759851.932525635,9437188.148498535,15618464.469909668,15271500.587463379,25159719.467163086,-23187780.380249023,-6511164.18838501,2805394.411087036,6024939.060211182,379595.3392982483,6726385.593414307,12496150.016784668,7567983.627319336,25171403.884887695,-18717426.300048828,-17989227.294921875,-12474218.368530273,-898506.5817832947,-618573.5464096069,-1052397.4895477295,3499507.427215576,751670.7181930542,24199008.94165039,-16023317.337036133,1716729.1641235352,-4221497.535705566,-519231.379032135,1307335.615158081,8588873.863220215,-7632053.852081299,10998684.883117676,12366605.758666992,-12585735.321044922,-4153172.016143799,-3641188.144683838,-1169970.6315994263,4437361.240386963,3419061.4223480225,-1763560.6527328491,-2329075.813293457,-1473736.6437911987,-782300.6510734558,-1502165.675163269,-2378066.7781829834,5462280.2734375,-2701573.133468628,-2211332.321166992,-2286074.161529541,1006042.9573059082,951851.6659736633,-5826188.564300537,-1769130.3491592407,45847.49788045883
0.26,28643480.30090332,32311428.07006836,27721353.53088379,2554410.934448242,24553928.37524414,-9557059.288024902,-8531323.432922363,-7803173.542022705,1990803.9569854736,8572933.197021484,12629939.079284668,19838565.826416016,19530670.166015625,28609552.38342285,-20396545.41015625,-4141964.4355773926,3552795.171737671,6121742.248535156,2572165.9660339355,9188344.955444336,14640676.498413086,8856953.620910645,28706666.946411133,-17945335.388183594,-18962388.99230957,-13927930.83190918,-1759889.841079712,557147.0260620117,868421.2565422058,4264375.20980835,795872.2710609436,27768184.661865234,-16784799.575805664,1631918.5495376587,-5920353.889465332,-1707955.241203308,1271290.0638580322,7915523.529052734,-8390632.629394531,11246829.03289795,12727651.596069336,-13091886.520385742,-6317963.123321533,-5770801.067352295,-2614378.2138824463,4406448.841094971,2690263.7481689453,-337900.5193710327,-848856.8067550659,-54955.20681142807,651949.6440887451,-117457.38238096237,-1308212.8763198853,5492625.2365112305,-1433556.318283081,-896243.9894676208,-714321.7921257019,3182398.557662964,2070220.708847046,-5352715.969085693,-315812.1109008789,2740061.9983673096
0.265,26143749.237060547,30745925.903320312,26534219.74182129,1911301.7320632935,23427476.88293457,-10073152.542114258,-9073766.708374023,-8274738.311767578,1316985.845565796,7897899.627685547,11547904.014587402,18265613.555908203,18008989.334106445,26081312.17956543,-21981430.053710938,-5337276.935577393,2212070.4650878906,4237487.316131592,1586524.248123169,8291234.016418457,12488938.331604004,6995673.656463623,26298423.767089844,-20033271.78955078,-21401317.596435547,-14769311.904907227,-2977969.169616699,-328368.78299713135,567278.9216041565,2260074.6154785156,-2091503.8585662842,25440547.943115234,-19556093.215942383,-823770.1058387756,-7606470.108032227,-1260394.0963745117,1324374.4373321533,6446243.2861328125,-9900402.069091797,8607038.497924805,10067767.143249512,-13545622.825622559,-8365525.245666504,-7659025.6690979,-528723.5379219055,6471290.588378906,3773266.077041626,-296360.045671463,-680473.4468460083,22268.695756793022,687193.3937072754,-86590.49868583679,-1347298.1452941895,7555323.600769043,-1254647.970199585,-975610.5542182922,-501878.20196151733,2314668.4169769287,1789506.5546035767,-5367542.266845703,-219139.7398710251,2849920.2728271484
0.27,15491214.752197266,20539714.813232422,15854434.0133667,-4049015.0451660156,15013394.355773926,-14951223.373413086,-14045853.614807129,-12868630.409240723,-2740950.584411621,1963007.2116851807,5288522.243499756,11708652.49633789,11473503.112792969,20450096.130371094,-26436697.006225586,-9599872.589111328,-1527135.968208313,-34689.515829086304,-3467760.3244781494,3854245.42427063,7734536.170959473,3890004.6348571777,20619810.104370117,-23480474.4720459,-23580621.71936035,-15311656.951904297,-4822997.570037842,-3553542.8524017334,-2045111.894607544,-110307.17939138412,-4666576.862335205,19976514.81628418,-22309225.08239746,-3621833.086013794,-8360404.014587402,350000.5006790161,1328938.0073547363,6276075.36315918,-10181968.688964844,6210339.069366455,7565706.729888916,-13881341.934204102,-8540197.372436523,-7783791.542053223,3595465.660095215,9759648.323059082,6275696.277618408,-336280.7631492615,-649969.5777893066,-3596.298163756728,-60726.42654180527,-805104.1960716248,-1788577.0797729492,10812382.698059082,-1031587.7199172974,-1007208.5857391357,-499156.9519042969,1532696.6047286987,1393951.2968063354,-5037300.109863281,-292278.85603904724,2056861.400604248
0.275,9296519.27947998,13422317.504882812,7224705.219268799,-9628001.21307373,8197642.3263549805,-19338897.705078125,-18499067.306518555,-17080760.955810547,-6846090.316772461,-3307229.995727539,183930.96327781677,7119564.533233643,6873754.501342773,17713388.442993164,-30194826.126098633,-14230937.004089355,-5817696.571350098,-3894752.5024414062,-7258452.892303467,732630.6104660034,5064470.7679748535,2243240.3564453125,17646896.362304688,-26744426.727294922,-25872978.21044922,-17339544.29626465,-7012104.034423828,-5883494.853973389,-4001160.144805908,-335687.93535232544,-5077704.429626465,17207284.927368164,-24605834.9609375,-6095141.887664795,-10154336.929321289,-92294.57378387451,1143397.9272842407,7106232.166290283,-9758400.917053223,6307005.882263184,7553257.465362549,-15309041.023254395,-9077245.712280273,-8512768.745422363,3586495.6378936768,9892451.286315918,7085630.416870117,-231555.14895915985,-575312.614440918,48085.302114486694,-1751105.3085327148,-2435527.801513672,-3130199.670791626,10928174.97253418,-914544.5823669434,-805214.8818969727,-504524.94621276855,1545602.0832061768,474.09054241143167,-5543806.552886963,-335828.03606987,1195323.8248825073
0.28,12545928.001403809,15496126.174926758,8275467.872619629,-10186506.271362305,9410778.045654297,-20099369.049072266,-19163864.135742188,-17865446.090698242,-6714127.063751221,-1736713.0517959595,1692757.6065063477,8198836.326599121,7964655.39932251,18811254.501342773,-31915664.672851562,-16584129.333496094,-7670129.299163818,-3559861.183166504,-4703567.028045654,2855974.1973876953,6522715.5685424805,2383855.5812835693,18518548.9654541,-29481359.481811523,-28719141.006469727,-20686874.389648438,-8264810.562133789,-4604902.267456055,-3055686.4738464355,1588684.2012405396,-4676230.430603027,18090257.64465332,-27141159.057617188,-8818157.196044922,-14284605.979919434,-3620320.5585479736,841223.7167358398,7335552.215576172,-10128673.553466797,7484653.472900391,8638593.673706055,-18077615.73791504,-12258502.006530762,-11952536.582946777,-3063662.052154541,4652361.869812012,4667860.507965088,-876224.5774269104,-1310463.1900787354,-681951.1651992798,-4745161.533355713,-5363927.841186523,-6090574.741363525,5711049.556732178,-1899605.5126190186,-1460468.053817749,-1326114.296913147,229602.18787193298,-3448460.102081299,-7893121.719360352,-1170719.3851470947,-331253.40938568115
0.285,18237459.182739258,21148412.704467773,14275750.160217285,-7379555.225372314,14570121.765136719,-18608819.96154785,-17486047.744750977,-16380399.703979492,-3036669.0158843994,4288929.462432861,6938944.339752197,11184894.561767578,11019774.436950684,19792196.27380371,-32444652.557373047,-15776634.216308594,-6002334.5947265625,658475.7566452026,1599009.1562271118,7755943.775177002,9291420.936584473,2764560.4610443115,19463085.174560547,-30940021.514892578,-30253471.37451172,-22499496.459960938,-7579873.561859131,-1475003.2424926758,-594495.415687561,3831464.5290374756,-5063415.050506592,18891586.303710938,-28794822.692871094,-10677700.996398926,-17564760.208129883,-6594558.7158203125,679123.2228279114,7119180.679321289,-10790089.60723877,7696924.686431885,8808838.844299316,-19725137.71057129,-15295352.935791016,-15076813.697814941,-9942908.28704834,-1669458.3892822266,1679396.152496338,-1666405.6777954102,-2204454.8988342285,-1532586.3361358643,-7170669.078826904,-7755059.242248535,-8746024.131774902,-580368.1015968323,-3053689.479827881,-2448105.573654175,-2259103.536605835,-2676162.2428894043,-6489706.993103027,-10115975.379943848,-2106759.3097686768,-1944963.5744094849
0.29,19793777.465820312,23402267.456054688,17046312.33215332,-5292751.312255859,16277324.676513672,-17079692.840576172,-15903915.405273438,-14732883.45336914,-442549.4074821472,7157786.846160889,9068390.846252441,11518465.995788574,11420099.258422852,19039100.646972656,-31612171.173095703,-12651890.754699707,-2811109.781265259,3973463.0584716797,4353219.032287598,9732598.304748535,9746860.50415039,2756981.611251831,18826919.555664062,-29187303.54309082,-27986070.63293457,-20719976.4251709,-5692109.107971191,-447860.2111339569,333257.2877407074,4981065.75012207,-5569388.866424561,18141921.997070312,-26747869.49157715,-8896610.260009766,-15492373.4664917,-5398253.917694092,830166.5782928467,7999742.031097412,-10181806.564331055,7798595.905303955,8977833.74786377,-17362659.454345703,-13204462.051391602,-12905857.08618164,-9135392.189025879,-2870793.104171753,1416643.738746643,-487628.9963722229,-1115132.5702667236,-378577.1131515503,-5849226.951599121,-6440672.874450684,-7621367.454528809,-1807576.298713684,-1917569.875717163,-1480531.3348770142,-1139590.9786224365,-4119976.52053833,-5166622.638702393,-9306872.367858887,-974043.3692932129,-1363153.2192230225
0.295,20031703.94897461,23692598.342895508,16588695.526123047,-4117677.2117614746,14672039.031982422,-14945903.778076172,-13911281.58569336,-12598257.064819336,-765000.3433227539,4839182.8536987305,6883741.37878418,10587497.71118164,10481863.021850586,19686637.87841797,-27779895.782470703,-8578173.637390137,-492438.25674057007,3228007.0781707764,1311422.1096038818,7430452.346801758,7989932.537078857,3432848.4535217285,19568321.228027344,-23482479.095458984,-22301807.403564453,-16772808.074951172,-4352128.505706787,-2263848.7815856934,-996095.8361625671,4919277.191162109,-4697629.928588867,18878883.361816406,-20527227.4017334,-3058052.0629882812,-8788180.351257324,-1750555.2768707275,1194060.6832504272,9708214.75982666,-8831240.6539917,9696541.786193848,11010191.917419434,-11561729.431152344,-6311072.34954834,-5918589.115142822,-1999902.7252197266,1001814.0077590942,3116800.308227539,2797416.2101745605,2118369.1024780273,2896595.239639282,-653166.5921211243,-1276572.346687317,-2485266.2086486816,1998477.578163147,1581497.9076385498,1787685.9903335571,2143993.139266968,-2168947.219848633,175642.04335212708,-6005788.326263428,2368236.780166626,2139220.714569092
0.3,24650918.96057129,27714302.06298828,19136545.181274414,-806134.5815658569,15834349.632263184,-10624323.844909668,-9750924.110412598,-8703995.704650879,-820568.0251121521,2931300.401687622,5436769.008636475,12350851.058959961,12217782.974243164,23670463.56201172,-21095466.61376953,-4593280.792236328,986222.2075462341,1064075.3507614136,-2254281.759262085,4938891.410827637,6701846.122741699,5313739.29977417,23544460.29663086,-16592384.338378906,-16453660.96496582,-13504992.485046387,-4157253.7422180176,-3796086.072921753,-2611191.2727355957,3858020.782470703,-2873634.099960327,22880912.78076172,-13993184.089660645,2986776.59034729,-3300999.879837036,-273953.05037498474,1512110.1140975952,9569124.221801758,-9077745.43762207,12207456.588745117,13582454.681396484,-6437810.897827148,-718060.4338645935,-262952.5065422058,2690620.6607818604,3733396.291732788,3226184.844970703,4931531.4292907715,4262906.074523926,5028749.465942383,4137722.969055176,3457718.61076355,2278366.5657043457,4736090.660095215,3868605.136871338,4079391.4794921875,4272266.387939453,656979.9780845642,4380387.306213379,-4152212.142944336,4582939.624786377,5545464.038848877
0.305,31826414.108276367,35150730.13305664,26157327.65197754,5105934.619903564,21227689.743041992,-5228259.563446045,-4462844.8486328125,-4144735.813140869,2092061.5196228027,5480239.391326904,7627248.764038086,15860638.618469238,15799467.086791992,27186857.223510742,-14860852.241516113,-1638541.1024093628,2782585.382461548,1826698.899269104,-1496491.78981781,5270570.755004883,6709016.799926758,6758857.250213623,27061788.55895996,-12632775.30670166,-12821406.364440918,-11607773.780822754,-4023788.4521484375,-2780989.408493042,-3055421.829223633,1589727.282524109,-2154862.880706787,26376304.626464844,-11239121.437072754,4952112.674713135,-2927754.6405792236,-1872407.9132080078,1614755.630493164,5939245.700836182,-11385352.13470459,11812378.883361816,13129587.173461914,-5146839.618682861,-472884.6848011017,54708.91669392586,884213.1495475769,1516444.6830749512,696345.3888893127,3146427.1545410156,2558453.08303833,3254488.706588745,4537949.562072754,3771782.159805298,2716246.8433380127,2625268.9361572266,2088578.462600708,2439387.083053589,2464651.584625244,714019.0005302429,3940802.3357391357,-5915009.498596191,2801694.15473938,5227990.627288818
0.31,33168186.18774414,38251773.834228516,30677322.387695312,9852281.57043457,24663084.030151367,-2126775.5031585693,-1614992.618560791,-1910400.7482528687,5814187.049865723,9207822.799682617,10224156.379699707,15768749.237060547,15857613.563537598,24980634.689331055,-12038937.56866455,-803928.554058075,3962397.0985412598,5248602.390289307,1797778.0103683472,6289329.051971436,6010699.74899292,5650179.862976074,24983392.7154541,-12292186.737060547,-10444640.159606934,-9681491.85180664,-3049375.057220459,-638697.3261833191,-3054609.775543213,-1921737.551689148,-3441959.1426849365,24256557.46459961,-11500375.747680664,2799033.6418151855,-5742790.699005127,-3108567.953109741,1494586.9445800781,683577.4779319763,-13195899.00970459,7695503.234863281,8943614.00604248,-6380284.309387207,-2936621.66595459,-2389241.4569854736,-2247487.3065948486,-2338529.586791992,-1730424.6425628662,-886393.666267395,-1355506.6585540771,-766405.5824279785,1630475.1634597778,815930.6645393372,103651.62789821625,-1205968.1415557861,-1855814.3377304077,-1542163.372039795,-1542701.7211914062,-1579390.525817871,1275148.1533050537,-8433166.50390625,-1276797.2946166992,1746630.7878494263
0.315,23564830.780029297,30555841.44592285,25514663.696289062,10102691.650390625,20797479.6295166,-2998536.1099243164,-2999756.336212158,-3267440.3190612793,6627792.3583984375,9254505.157470703,9501076.698303223,9954030.03692627,10095673.561096191,17265977.85949707,-11749917.030334473,-2539808.988571167,1916249.394416809,7135169.02923584,3058063.507080078,4727404.1175842285,3182137.7277374268,2198941.469192505,17446733.474731445,-11961254.119873047,-7097440.242767334,-7298538.2080078125,-1991976.3803482056,239845.1417684555,-3503956.5563201904,-5659420.490264893,-5178241.25289917,16741458.892822266,-10386912.34588623,-32291.93016886711,-8144935.607910156,-2105835.9146118164,1201794.7435379028,-2790225.028991699,-12222724.914550781,3428419.828414917,4650331.974029541,-6294270.5154418945,-3686218.023300171,-3290048.599243164,-1317129.135131836,-2977345.4666137695,-1778061.866760254,-2925784.111022949,-3305646.6579437256,-2817028.522491455,-180505.21612167358,-892667.3531532288,-1191306.471824646,-2091328.3824920654,-3588709.1159820557,-3519928.9321899414,-3456650.495529175,-2448300.60005188,799595.1175689697,-7187335.49118042,-3266195.297241211,-486854.4936180115
0.32,6865378.856658936,14518588.066101074,12093665.12298584,6699601.650238037,12154435.157775879,-6057721.6148376465,-6512693.405151367,-6294769.287109375,4571912.2886657715,6303099.632263184,6606928.825378418,2620007.5149536133,2630664.825439453,9491971.969604492,-10968530.654907227,-5578155.994415283,-3462955.7132720947,5533792.495727539,1661225.7957458496,1481536.7460250854,-363293.23053359985,-1070006.012916565,9713484.764099121,-8539954.18548584,-2784118.65234375,-5905841.827392578,-2083581.6860198975,-81354.5286655426,-3586657.0472717285,-8002598.762512207,-5288514.614105225,9136029.243469238,-5991754.531860352,-1097699.8805999756,-9569928.169250488,-1147588.3722305298,805216.0739898682,-3102354.2881011963,-9234515.190124512,2547401.6666412354,3669328.451156616,-3256497.383117676,-2664562.225341797,-2531370.8782196045,1490129.2324066162,-980050.2061843872,-709730.4463386536,-1421797.8715896606,-1781327.9628753662,-1353994.8463439941,1064687.3712539673,602090.2395248413,427144.6466445923,-494630.27715682983,-1786076.1880874634,-1852322.8168487549,-1775648.3554840088,-375354.4092178345,2842671.6327667236,-1909487.247467041,-1582453.6085128784,1129369.1396713257
0.325,-7497469.902038574,187928.11036109924,-378146.29077911377,2858075.8571624756,5605743.408203125,-8399733.543395996,-8812405.586242676,-8262959.4802856445,2742871.9997406006,4454948.425292969,4942716.121673584,-1042000.5321502686,-1207677.0067214966,6102299.690246582,-8835209.846496582,-7290431.022644043,-8065485.954284668,3040739.2978668213,598761.4989280701,198868.64721775055,-2201819.1814422607,-2075207.233428955,6199228.763580322,-3662738.800048828,277948.4987258911,-6238409.996032715,-2919652.7004241943,58954.12713289261,-2256417.2744750977,-8256381.034851074,-3685459.613800049,5815339.088439941,-1398311.1381530762,-633928.120136261,-10880637.168884277,-2054031.8489074707,456980.01980781555,-1860687.6134872437,-6682304.382324219,4352667.808532715,5221337.31842041,555735.4688644409,-2485239.028930664,-2497366.9052124023,1318128.3473968506,-504098.3557701111,-970740.1990890503,910124.0634918213,551997.6019859314,932838.0823135376,3031430.244445801,2788757.801055908,2392232.1796417236,-231396.69001102448,545977.4136543274,659691.0953521729,678456.7832946777,1567909.598350525,3935773.6110687256,2490900.5165100098,882366.3592338562,3884499.7882843018
0.33,-11850234.985351562,-3135107.0404052734,-3527893.06640625,395562.5593662262,4564459.800720215,-8996997.833251953,-8925426.483154297,-8441706.657409668,2361325.50239563,4603940.486907959,4972565.650939941,-346577.9423713684,-561055.8390617371,6963033.676147461,-7519689.559936523,-5924672.603607178,-7836682.319641113,2404818.534851074,1082642.7936553955,1807774.4245529175,-1694144.7257995605,-1076363.8019561768,6949190.616607666,-1751131.6537857056,660773.6349105835,-6953597.545623779,-2879944.8013305664,805391.1924362183,-541679.0246963501,-7335224.151611328,-2197696.6857910156,6713530.540466309,-576821.9232559204,558845.2816009521,-11055483.8180542,-2657046.7948913574,324812.8592967987,-1593077.7788162231,-5859954.833984375,5669897.079467773,6289353.847503662,1987239.0031814575,-3183179.1400909424,-3095828.2947540283,-1036132.5740814209,-2296585.79826355,-2431750.2975463867,930238.4853363037,627946.4960098267,941582.6797485352,2924767.9710388184,2721654.6535491943,2130381.1073303223,-1901185.0357055664,319093.16778182983,711090.8627510071,709580.7790756226,-129155.09939193726,2044360.637664795,1324977.0402908325,842819.094657898,3308387.279510498
0.335,-5088125.228881836,5784130.573272705,3404518.1274414062,-876591.8612480164,7176896.095275879,-8845870.971679688,-8374435.4248046875,-8035753.25012207,1473495.1257705688,3970270.872116089,4575156.688690186,2132230.043411255,1981154.203414917,9681785.583496094,-8953104.972839355,-2483299.732208252,-3689275.2647399902,2713202.476501465,1006920.9337234497,3369834.4230651855,-43926.28371715546,367776.095867157,9694365.501403809,-4641535.758972168,-827403.724193573,-7024455.547332764,-1736277.5802612305,409769.8926925659,-602493.7033653259,-6543259.620666504,-2230243.682861328,9464140.892028809,-3774745.464324951,2466820.71685791,-8949580.192565918,-586321.8903541565,391123.62265586853,-3282697.4391937256,-6436538.6962890625,5414475.917816162,6007153.034210205,140142.88783073425,-2435533.5235595703,-2122509.717941284,-952560.1267814636,-2727829.2179107666,-2741043.0908203125,-1180920.124053955,-1426761.3887786865,-1138162.8513336182,1081301.0931015015,797553.2412528992,286333.76955986023,-2093933.8207244873,-1983359.8136901855,-1559807.7774047852,-1482615.59009552,-4833538.53225708,-1128633.1415176392,-4658880.233764648,-1411708.8317871094,-971966.028213501
0.34,7970908.164978027,20451639.17541504,14837185.859680176,-1021707.6539993286,10743480.682373047,-8749579.429626465,-8282507.89642334,-7848858.833312988,-1079755.9022903442,1495989.7994995117,3255444.049835205,5007245.063781738,4892664.432525635,12911363.60168457,-12190282.821655273,462988.0487918854,169406.6822528839,1793511.3906860352,-1014553.427696228,2693183.8989257812,1744996.3092803955,1619144.5589065552,12989912.986755371,-9654931.06842041,-2654299.020767212,-7473387.241363525,-1196946.382522583,-1953101.5157699585,-2613976.240158081,-5927837.371826172,-3154610.3954315186,12639762.878417969,-8036950.11138916,4860161.781311035,-6527931.213378906,2191292.5243377686,441872.239112854,-5724435.806274414,-7837523.460388184,5294928.073883057,6072185.99319458,-3368272.7813720703,78266.27790927887,534972.6676940918,1956358.1943511963,-105438.38143348694,-1048639.0590667725,-2941804.885864258,-3285961.866378784,-2858087.5396728516,-86467.06491708755,-432677.7160167694,-837935.6861114502,611964.1661643982,-3759201.0498046875,-3539407.0148468018,-3370142.2214508057,-8773801.803588867,-2976861.000061035,-10391274.452209473,-3199211.835861206,-4962894.439697266
0.345,21442459.106445312,33691646.575927734,25256435.39428711,906407.1774482727,14952475.547790527,-7956927.299499512,-7629027.366638184,-6932859.420776367,-2985399.7230529785,-9040.282107889652,3097991.466522217,8928096.771240234,8765898.704528809,16391736.98425293,-14571859.359741211,1910367.8464889526,2283920.0496673584,304611.11664772034,-2960985.4221343994,1522428.9894104004,3856063.3659362793,3305900.3353118896,16436088.562011719,-12956809.043884277,-4045862.6747131348,-8976039.88647461,-2099615.5738830566,-4454742.431640625,-4226548.671722412,-4549431.324005127,-3456863.1649017334,15957439.422607422,-10883677.48260498,6891637.802124023,-6616226.1962890625,2087389.7075653076,341247.94602394104,-6999045.372009277,-9908622.741699219,6262178.421020508,7234473.22845459,-6361985.683441162,2047442.4362182617,2482833.8623046875,3050388.5746002197,1755932.5695037842,212321.10261917114,-3381441.116333008,-3989152.9083251953,-3278242.1112060547,633753.0612945557,215494.70722675323,-394847.21422195435,2400416.374206543,-4223579.883575439,-4088724.6131896973,-3918020.486831665,-9733442.306518555,-3074842.4530029297,-12444324.493408203,-3560116.5294647217,-5821805.953979492
0.35,32348827.362060547,43067764.28222656,32901294.708251953,5066370.010375977,20268083.572387695,-5546132.0877075195,-5067361.354827881,-4149080.753326416,-1376539.5879745483,2059317.8272247314,5470123.767852783,13870525.360107422,13629475.593566895,19467786.78894043,-14847524.642944336,3224114.8948669434,5274661.064147949,758546.8292236328,-2159290.313720703,2678377.151489258,6623826.503753662,5649645.3285217285,19409471.51184082,-13570652.961730957,-4717433.929443359,-9568994.522094727,-2644402.9808044434,-4618563.175201416,-3637588.5009765625,-2313621.759414673,-2899960.75630188,18870393.753051758,-12155764.57977295,8274248.123168945,-8133913.040161133,-410767.70424842834,200587.85378932953,-6509296.894073486,-12403507.232666016,6653235.43548584,7721621.513366699,-7913332.462310791,2125141.143798828,2472923.0403900146,-53669.13601756096,-1444366.455078125,-1875512.2423171997,-4298993.5874938965,-5107214.92767334,-4174314.9757385254,2013908.6246490479,1398327.7082443237,388757.1394443512,-870116.7702674866,-5340902.805328369,-4968770.0271606445,-4853856.086730957,-9259500.503540039,-2988309.383392334,-12591284.75189209,-4467998.504638672,-5467380.523681641
0.355,39003864.28833008,48183105.46875,36811813.35449219,8764202.117919922,24605606.079101562,-3002890.3484344482,-2080771.9230651855,-986690.8192634583,2557661.294937134,6033660.411834717,8478309.631347656,17394933.700561523,17087121.963500977,20839599.609375,-14622827.529907227,5119095.802307129,10128751.754760742,3045484.5428466797,640912.652015686,5423673.629760742,8995447.158813477,7100095.748901367,20727001.190185547,-13518136.024475098,-4674916.744232178,-7636329.650878906,-1165967.9412841797,-2645041.4657592773,-2031150.8178710938,-747238.9340400696,-2804368.257522583,20164793.014526367,-12837585.44921875,9394423.484802246,-7472367.763519287,-1533008.2178115845,188106.07492923737,-5234466.075897217,-14579358.100891113,4879625.32043457,6000230.312347412,-8601918.22052002,1296865.463256836,1654401.5407562256,-3829547.882080078,-7782518.38684082,-6465432.167053223,-7167630.195617676,-7932222.843170166,-6974833.4884643555,2027892.5895690918,1168358.8027954102,-29958.654195070267,-7216214.656829834,-8471278.190612793,-7764409.54208374,-7659509.181976318,-10125290.870666504,-4127773.2849121094,-14477602.9586792,-7438291.072845459,-7326664.924621582
0.36,37657875.061035156,45588298.79760742,33232704.162597656,7423336.982727051,23289222.717285156,-4125297.5463867188,-2816998.243331909,-1529519.5579528809,3762325.2868652344,7246592.044830322,8281185.150146484,16155200.958251953,15796487.808227539,19376237.869262695,-16717638.01574707,5386829.376220703,12558084.487915039,3674140.453338623,1561139.702796936,5768763.065338135,8579561.233520508,5238134.384155273,19272914.88647461,-14892214.77508545,-4951157.093048096,-5970426.559448242,521294.89183425903,-1648159.384727478,-2166749.954223633,-1413475.0366210938,-4214373.1117248535,18681053.161621094,-13586929.321289062,9858454.704284668,-4569599.151611328,-127880.58817386627,304903.2986164093,-3922031.4025878906,-15474222.183227539,2358990.19241333,3513707.6377868652,-9455194.473266602,526515.7222747803,1027764.6780014038,-3587993.383407593,-10275273.323059082,-8743386.268615723,-9933728.218078613,-10553082.466125488,-9658071.517944336,194369.0925836563,-714599.6689796448,-1772885.799407959,-9677394.86694336,-11336549.758911133,-10540676.11694336,-10412079.811096191,-12650879.859924316,-6105232.238769531,-17806381.225585938,-10285261.154174805,-10985709.190368652
0.365,25634660.720825195,32044292.449951172,19511014.938354492,-902588.3674621582,13886594.772338867,-10781528.47290039,-9360237.121582031,-7977645.397186279,-1117768.7644958496,2979707.717895508,2924827.814102173,9334519.386291504,8969460.487365723,15139885.902404785,-21798511.505126953,1738014.6980285645,8337241.172790527,342787.2955799103,-1925367.7129745483,1647603.7502288818,4078877.4490356445,-439247.16114997864,15056909.561157227,-17357969.284057617,-6942568.302154541,-8994544.02923584,-920941.3528442383,-4030231.475830078,-5062458.9920043945,-3860558.9866638184,-6482451.438903809,14449509.620666504,-14251059.532165527,8798451.42364502,-3492169.6186065674,1027738.2135391235,457648.9329338074,-1977746.844291687,-14543154.7164917,2096098.4230041504,3190622.8065490723,-10326941.49017334,-102536.00031137466,503578.96089553833,1289836.049079895,-4816905.498504639,-5127357.482910156,-8485940.933227539,-9113618.850708008,-8220535.2783203125,-1347995.9964752197,-2077303.6479949951,-2940227.270126343,-4105966.567993164,-9779363.632202148,-9161398.887634277,-9095269.203186035,-13946327.209472656,-6439774.990081787,-17907081.604003906,-8827550.888061523,-12104767.799377441
0.37,8433432.579040527,13056609.153747559,1435695.1713562012,-12124061.584472656,897459.7454071045,-19377944.946289062,-18027677.536010742,-16799551.010131836,-9491998.672485352,-4565557.479858398,-5087872.02835083,693815.6485557556,397350.2814769745,10239184.379577637,-26953678.131103516,-3956992.1493530273,224920.6006526947,-4888837.814331055,-7940437.793731689,-3975856.304168701,-2138605.1177978516,-6777219.295501709,10207356.452941895,-18681407.928466797,-10182269.096374512,-15968462.944030762,-5437748.432159424,-8384156.227111816,-8771875.381469727,-5657034.397125244,-7898445.129394531,9609956.741333008,-14119902.610778809,7039923.667907715,-6035289.287567139,200026.36313438416,634810.8649253845,1056240.439414978,-12132185.935974121,4914832.11517334,5841109.752655029,-9620176.315307617,340326.2794017792,829378.8433074951,8081199.645996094,5130867.004394531,1924105.7634353638,-1653728.96194458,-2396110.0578308105,-1533287.0483398438,626572.0725059509,37356.34684562683,-802303.13539505,6071981.906890869,-2768026.351928711,-2327292.9191589355,-2421912.19329834,-10654833.793640137,-2271509.885787964,-11640612.602233887,-1956511.9743347168,-7569112.777709961
0.375,-2328295.4692840576,1187620.5205917358,-9223949.432373047,-19113700.86669922,-6868406.295776367,-23822118.759155273,-22565382.00378418,-21625547.409057617,-15349411.010742188,-10306461.334228516,-10434916.496276855,-3781884.6702575684,-3983077.5260925293,8118092.5369262695,-28450881.958007812,-6977840.900421143,-4562968.730926514,-8322072.982788086,-12262548.446655273,-6426340.103149414,-5247476.577758789,-9124125.480651855,8213103.294372559,-17465551.376342773,-12059572.219848633,-20788965.225219727,-9222066.879272461,-11075516.700744629,-10341516.494750977,-4748722.553253174,-7319892.883300781,7590236.186981201,-12618580.81817627,6963852.405548096,-8607018.47076416,-580643.4154510498,863637.6857757568,3780269.8612213135,-9321301.460266113,8655808.448791504,9442609.786987305,-6152634.620666504,3316614.866256714,3565060.615539551,14103563.30871582,12680525.779724121,6178411.960601807,6708701.133728027,6039900.779724121,6664839.744567871,7044890.403747559,6383906.841278076,5457953.453063965,13837704.6585083,5728699.684143066,6157299.518585205,5977758.884429932,-2430087.8047943115,6449006.5574646,-1738125.5626678467,6476837.158203125,988770.0080871582
0.38,-1709677.6962280273,1994524.9557495117,-7723330.974578857,-19083690.643310547,-5455668.926239014,-22398391.723632812,-21189594.268798828,-20396183.013916016,-15770583.152770996,-11261435.508728027,-10132836.34185791,-1672288.417816162,-1839632.7495574951,10483592.03338623,-25945852.279663086,-5583889.007568359,-3509774.4464874268,-9004908.561706543,-12932018.280029297,-4874566.078186035,-2980083.227157593,-6087729.930877686,10714741.706848145,-14810874.938964844,-10928746.223449707,-19907329.559326172,-9824805.25970459,-10660689.353942871,-8682469.367980957,-1654356.3604354858,-4988228.321075439,10002474.784851074,-10086580.276489258,9144136.428833008,-7759177.684783936,701824.426651001,1084378.4809112549,4167150.4974365234,-7005722.522735596,11158256.530761719,11962950.706481934,-1226712.2268676758,7741119.384765625,7924267.768859863,17673099.517822266,14788975.715637207,5031951.427459717,11685796.737670898,11333683.013916016,11599573.135375977,14588740.348815918,13832162.857055664,12845582.008361816,15973798.751831055,10783571.243286133,11266640.663146973,11206850.051879883,7073010.444641113,15506389.617919922,6196293.830871582,11660524.368286133,9166508.674621582
0.385,2057646.2745666504,6514674.663543701,-2819696.9032287598,-16487852.096557617,-694113.1353378296,-19629753.11279297,-18383214.950561523,-17542407.989501953,-13525137.901306152,-9268270.492553711,-6923717.498779297,2769396.3050842285,2570759.7732543945,14606937.408447266,-23021017.07458496,-3034619.8081970215,-1283371.925354004,-8671513.557434082,-11855459.213256836,-2926867.961883545,1336113.452911377,-1646246.4332580566,14862703.323364258,-13177738.189697266,-8442196.8460083,-16850898.74267578,-9014150.619506836,-9282901.763916016,-5590184.211730957,818247.9739189148,-2454204.0824890137,14091655.731201172,-8035999.298095703,10895914.077758789,-5495216.369628906,2533693.552017212,1204353.0941009521,2289767.5037384033,-5362585.067749023,12265775.680541992,13216584.205627441,1813609.4808578491,9773180.961608887,10129362.106323242,17776357.650756836,13830231.666564941,2368514.5378112793,12309082.984924316,12187280.654907227,12282039.642333984,18153902.053833008,17501688.00354004,16488544.464111328,14903577.80456543,11426420.211791992,11917560.577392578,12042063.71307373,12666942.596435547,19498497.009277344,9439875.602722168,12577445.030212402,13681349.754333496
0.39,-1163133.144378662,3433653.3546447754,-5320015.430450439,-17081708.908081055,-1084628.1051635742,-20292322.158813477,-18897415.161132812,-18030637.741088867,-12850007.057189941,-8337527.275085449,-6108967.7810668945,3209369.659423828,2986426.591873169,15476438.522338867,-23219118.118286133,-2957328.3195495605,-2222802.4005889893,-8484978.675842285,-11809601.783752441,-3707162.1417999268,2464303.2550811768,-1115145.6832885742,15647087.097167969,-14002544.403076172,-7581185.340881348,-16686357.498168945,-9303750.991821289,-9350337.028503418,-4057277.202606201,277925.67014694214,-1809222.936630249,14932909.965515137,-8287322.998046875,9629802.703857422,-5951429.843902588,2419284.3437194824,1211808.681488037,314584.4340324402,-4490283.012390137,12453677.1774292,13557575.225830078,535808.4440231323,7304418.087005615,7768055.9158325195,14997604.370117188,12972153.663635254,2739984.5123291016,11248866.081237793,11020805.358886719,11230847.358703613,15782695.770263672,15291326.522827148,14289258.95690918,14008194.923400879,10299245.834350586,10816658.020019531,10940893.173217773,11612594.604492188,16915752.410888672,9034086.227416992,11619529.724121094,13712546.348571777
0.395,-9502088.54675293,-5271147.727966309,-13492239.952087402,-20939371.10900879,-7064123.630523682,-23963026.04675293,-22406539.916992188,-21655759.811401367,-14491319.65637207,-9972046.852111816,-9202965.73638916,-1198589.6825790405,-1413499.7129440308,11506258.964538574,-26836820.602416992,-5251256.942749023,-4713329.792022705,-8239253.044128418,-13193472.862243652,-6226134.300231934,-539278.9244651794,-5191659.927368164,11598098.754882812,-17078859.329223633,-9296373.36730957,-19203083.038330078,-10163471.221923828,-10497321.128845215,-5378428.936004639,-2803853.0349731445,-4162273.88381958,10970193.862915039,-11716887.474060059,6132565.498352051,-9076628.684997559,931400.716304779,1131952.404975891,-326525.36034584045,-4999613.7619018555,11237395.286560059,12417675.018310547,-4365783.69140625,2763910.5319976807,3046598.9112854004,11964816.093444824,12458312.034606934,5089087.009429932,10446725.845336914,9960357.666015625,10321689.60571289,10385506.629943848,9808979.034423828,8958454.132080078,13576093.673706055,9372068.405151367,10007993.698120117,9946192.741394043,5594408.03527832,11283423.42376709,6307817.459106445,10565851.211547852,10122385.025024414
0.4,-13176792.14477539,-8402306.55670166,-16544847.48840332,-23766481.399536133,-11279918.670654297,-27221582.412719727,-25673273.08654785,-25009542.46520996,-16252059.936523438,-12261054.992675781,-12658452.987670898,-5166687.488555908,-5372976.303100586,6713900.089263916,-31874252.319335938,-7893012.523651123,-5332735.061645508,-8351302.146911621,-14539331.436157227,-7534082.889556885,-3901965.856552124,-9454807.28149414,6786916.732788086,-21380123.138427734,-12099272.727966309,-20693202.97241211,-9787293.434143066,-10907948.49395752,-8031734.466552734,-5682846.0693359375,-8146777.153015137,6141760.349273682,-17161586.76147461,3174709.3200683594,-11141143.798828125,627110.3620529175,965358.6745262146,-348297.95360565186,-7088633.5372924805,8515216.827392578,9659090.042114258,-9578896.522521973,59507.887810468674,75839.65361118317,11196545.600891113,11132301.330566406,5020471.572875977,9380701.065063477,8807149.887084961,9144766.807556152,6387259.483337402,5526561.737060547,4982965.94619751,12257585.525512695,8235418.319702148,8967666.625976562,8805555.34362793,-755027.2941589355,7236878.395080566,1825146.4366912842,9141963.005065918,5199111.9384765625
0.405,-10117157.936096191,-3262116.6706085205,-11272951.126098633,-23739078.521728516,-9480719.566345215,-29028867.721557617,-27698064.80407715,-26884971.618652344,-16945756.912231445,-13254799.842834473,-13249994.277954102,-4681123.25668335,-4869405.269622803,5926908.96987915,-36455436.70654297,-10309690.475463867,-4805229.187011719,-10007164.95513916,-15136288.6428833,-6911737.91885376,-4741902.828216553,-10054618.835449219,5986194.610595703,-25323608.3984375,-14089446.067810059,-20220790.86303711,-8779694.557189941,-10317906.379699707,-9610098.838806152,-6385936.737060547,-10666499.137878418,5287590.503692627,-21402009.963989258,2128839.4927978516,-10517162.322998047,1965328.0973434448,800717.3538208008,-833539.7243499756,-9365924.835205078,6261964.321136475,7253549.575805664,-11677724.838256836,245329.69295978546,217757.6869726181,12599533.081054688,9524255.752563477,1831071.4960098267,7690980.434417725,7208125.591278076,7479675.29296875,5664022.445678711,4694910.526275635,4380027.294158936,10464812.278747559,6611476.421356201,7258475.303649902,7255940.4373168945,-3207711.696624756,6557960.510253906,-2246455.669403076,7395719.528198242,2292586.5650177
0.41,-8696434.97467041,289056.30111694336,-6740243.911743164,-23450037.002563477,-6167066.0972595215,-31020730.97229004,-29934972.763061523,-28801807.403564453,-17507999.420166016,-13413243.293762207,-12293306.350708008,-2131745.3384399414,-2256954.6699523926,9011158.94317627,-39429508.209228516,-12903618.812561035,-6093501.567840576,-12858938.217163086,-15727623.93951416,-6311124.801635742,-4491114.616394043,-8152257.919311523,9028992.652893066,-26964113.235473633,-14461874.961853027,-20356657.028198242,-9385869.979858398,-10076213.836669922,-9567378.997802734,-5688876.628875732,-10112892.150878906,8438973.426818848,-21495889.66369629,2380769.2527770996,-9607995.986938477,2808868.408203125,852822.6613998413,-1521720.7670211792,-9955849.647521973,6681533.336639404,7490540.027618408,-9848197.937011719,1464008.3312988281,1565468.7881469727,13859510.42175293,9367856.979370117,-459553.1225204468,6790401.935577393,6350723.743438721,6731888.294219971,6944389.820098877,6200854.778289795,5785068.988800049,10083973.88458252,5864484.3101501465,6297633.171081543,6557157.99331665,-858721.6138839722,8041609.764099121,-2594538.927078247,6797925.4722595215,3250254.6310424805
0.415,-13922280.311584473,-4658054.351806641,-10360139.846801758,-24985292.434692383,-7315532.684326172,-33582149.505615234,-32577121.73461914,-31220140.45715332,-18583440.78063965,-14137125.968933105,-13040246.00982666,-2222656.726837158,-2303684.711456299,11537796.974182129,-40138095.85571289,-14964865.684509277,-8817480.087280273,-14819746.017456055,-16960256.576538086,-7357656.955718994,-5774325.370788574,-7566926.002502441,11538105.010986328,-25685466.766357422,-13673887.252807617,-22447156.90612793,-11769460.678100586,-10849897.384643555,-9390905.380249023,-5673349.380493164,-8363434.791564941,11214391.708374023,-18116935.72998047,2979903.9363861084,-10881445.88470459,1864094.0189361572,1195492.8636550903,-1649125.576019287,-8955414.772033691,8884820.938110352,9633621.215820312,-6724987.506866455,1772827.0292282104,1905039.0720367432,13168935.775756836,10816227.912902832,843806.3263893127,7567385.673522949,7080926.418304443,7662225.246429443,8054584.503173828,7579898.834228516,6806859.493255615,11470212.936401367,6773125.648498535,7062432.765960693,7431275.844573975,3441010.7135772705,9789202.690124512,809918.8804626465,7878106.594085693,6091830.253601074
0.42,-19785470.962524414,-11782731.056213379,-17324153.900146484,-26851598.739624023,-11910814.28527832,-35015331.26831055,-33927570.34301758,-32590332.03125,-19446580.88684082,-15603551.864624023,-15902054.786682129,-5248494.1482543945,-5439907.550811768,10638075.828552246,-39104839.32495117,-15555625.915527344,-9900902.74810791,-15145948.41003418,-18565736.770629883,-9579912.185668945,-8215450.286865234,-9437600.135803223,10695456.504821777,-23665412.90283203,-13049642.562866211,-24787508.010864258,-13689511.2991333,-11887967.109680176,-10162370.681762695,-6911720.275878906,-8368449.2111206055,10524660.110473633,-15522700.309753418,3205251.2168884277,-13887368.202209473,349973.7083911896,1565035.8200073242,-1389641.7617797852,-8418848.037719727,9735372.543334961,10593184.471130371,-5839303.016662598,552821.6361999512,567038.4764671326,10991410.255432129,12108075.141906738,3525066.375732422,8588647.842407227,8154928.207397461,8748957.633972168,7952652.931213379,7467344.284057617,6421711.444854736,12851665.496826172,7881231.784820557,8153425.216674805,8461514.472961426,5845449.447631836,10838819.50378418,3797371.8643188477,8896796.226501465,7231659.412384033
0.425,-19323440.551757812,-11828997.611999512,-18779920.57800293,-27080989.837646484,-14351444.244384766,-34587364.196777344,-33397850.036621094,-32217071.533203125,-19719932.556152344,-17045595.169067383,-18336360.931396484,-7235104.084014893,-7685710.906982422,8352954.864501953,-37864147.1862793,-15327545.166015625,-8917516.708374023,-15658265.113830566,-20048082.35168457,-11441408.157348633,-9252715.110778809,-11101725.578308105,8524947.166442871,-23529132.843017578,-13505565.643310547,-25675308.227539062,-13839217.185974121,-12371653.55682373,-10963659.286499023,-7986840.724945068,-10045771.598815918,8218030.92956543,-16554710.388183594,2446528.673171997,-16810035.705566406,-236901.47697925568,1655939.9366378784,-1383147.3588943481,-9407207.489013672,8465687.75177002,9467544.555664062,-7448691.368103027,-1685934.30519104,-1780272.364616394,9299309.730529785,12072267.532348633,4171039.581298828,8406307.220458984,8201210.021972656,8583822.250366211,7328524.112701416,6608465.671539307,5575832.843780518,12930072.784423828,7826723.098754883,8080792.427062988,8335820.198059082,5540598.392486572,11494912.147521973,3755845.546722412,8538516.0446167,6469468.116760254
0.43,-15250234.603881836,-6259274.005889893,-14719769.477844238,-26390230.178833008,-12600992.202758789,-33613903.0456543,-32417369.842529297,-31351511.001586914,-20144794.464111328,-17957195.281982422,-18477666.8548584,-5720994.94934082,-6375119.209289551,8583889.00756836,-37002075.1953125,-15280377.388000488,-8626596.450805664,-17559040.069580078,-21061403.274536133,-11816370.010375977,-7868310.451507568,-9981038.093566895,8866013.526916504,-24499420.166015625,-13998936.653137207,-25334606.170654297,-13232069.01550293,-12148872.375488281,-10252872.467041016,-7642997.264862061,-10304537.773132324,8309057.235717773,-18657968.521118164,1200108.4089279175,-18577966.690063477,-152264.47582244873,1533856.0342788696,-1486447.811126709,-10397200.584411621,8085830.6884765625,9141465.187072754,-7967013.359069824,-3367349.147796631,-3531169.891357422,9574456.214904785,11399668.69354248,2689569.9501037598,8143181.800842285,8153143.882751465,8389647.483825684,7862723.827362061,6958024.501800537,6090426.445007324,12390497.207641602,7770998.954772949,7947034.3589782715,8234761.2380981445,5614644.0505981445,12868227.9586792,3615353.82270813,8287821.7697143555,7471251.964569092
0.435,-14964962.95928955,-3866191.864013672,-12441976.547241211,-26488351.821899414,-9950973.510742188,-33253177.642822266,-32156452.178955078,-31114669.799804688,-20995002.74658203,-18121063.232421875,-17007415.771484375,-2716239.2139434814,-3358917.9515838623,11792118.072509766,-35792369.8425293,-15034479.141235352,-10130353.927612305,-19038318.634033203,-21132211.685180664,-10548181.533813477,-5813837.52822876,-6992596.14944458,12110573.768615723,-23567834.854125977,-12646463.394165039,-24427885.055541992,-13032455.444335938,-11201864.242553711,-8147275.924682617,-6520485.401153564,-7728632.45010376,11461091.995239258,-17453025.817871094,1150732.7556610107,-18789665.22216797,-370184.8089694977,1498026.1325836182,-1035522.9377746582,-9701707.83996582,10651360.511779785,11726837.158203125,-4981029.987335205,-2877828.359603882,-3154834.747314453,11327422.142028809,10983721.733093262,1264020.4429626465,9537201.881408691,9547237.396240234,9919031.143188477,10281285.285949707,9351984.977722168,8578464.50805664,12198619.842529297,9327606.201171875,9474222.183227539,9786861.419677734,8672579.765319824,15385480.880737305,6906501.770019531,9961395.263671875,11940672.874450684
0.44,-19330911.63635254,-7520844.93637085,-15137106.895446777,-27252025.604248047,-9653832.43560791,-33336193.084716797,-32386104.583740234,-31340330.123901367,-21290815.353393555,-17439979.553222656,-15775052.070617676,-1760501.2655258179,-2263446.807861328,14147641.1819458,-34735015.869140625,-14333152.770996094,-11125500.679016113,-17859869.0032959,-20114278.79333496,-8681165.69519043,-5597778.3203125,-5494448.184967041,14400308.609008789,-21012546.53930664,-10065659.523010254,-23126258.850097656,-13000622.749328613,-9600763.320922852,-6458105.087280273,-6379532.814025879,-5388223.171234131,13805841.445922852,-13727561.950683594,2616557.5981140137,-17562347.412109375,-876848.6380577087,1572349.4291305542,-24207.796901464462,-8372722.625732422,13305851.936340332,14473836.898803711,-1625217.318534851,-1004438.2810592651,-1349764.5854949951,12253243.446350098,10352071.762084961,743572.1755027771,11316482.543945312,11136308.670043945,11762866.973876953,12607030.868530273,11724678.039550781,10949451.446533203,11810050.964355469,11052029.609680176,11275410.652160645,11542947.769165039,12167971.61102295,17200981.14013672,10952300.071716309,11939674.377441406,15664270.401000977
0.445,-22868684.768676758,-11673493.385314941,-18679710.388183594,-27576478.958129883,-11387470.245361328,-33813293.45703125,-32970523.834228516,-31927978.515625,-20486831.665039062,-16589487.075805664,-15964481.353759766,-3925281.286239624,-4345604.419708252,12158788.681030273,-36315040.588378906,-14881588.93585205,-9995487.213134766,-14945521.354675293,-18966974.25842285,-8027982.711791992,-8326357.841491699,-7470823.287963867,12331004.14276123,-21353696.823120117,-9678607.940673828,-22290477.752685547,-12716750.144958496,-8071301.460266113,-6596225.738525391,-8095983.505249023,-7241647.720336914,11708452.224731445,-13281057.357788086,3020327.091217041,-16362873.077392578,-1078612.9236221313,1453650.4745483398,749471.7240333557,-9099915.504455566,11642359.733581543,12921055.793762207,-3281863.4510040283,-1094219.5653915405,-1300672.7695465088,10350389.48059082,8595499.992370605,148621.48463726044,10224532.127380371,9825401.306152344,10508195.877075195,11491967.20123291,10677220.344543457,9921194.076538086,10107625.007629395,9708015.441894531,9977207.18383789,10203371.047973633,10553158.7600708,15344261.169433594,9554095.268249512,10642910.00366211,13247281.074523926
0.45,-22796527.862548828,-11750606.536865234,-19015178.680419922,-27542711.25793457,-13051964.75982666,-35182384.4909668,-34346546.1730957,-33287971.49658203,-19600919.723510742,-16802621.841430664,-17409061.431884766,-7231233.596801758,-7653257.369995117,7110073.089599609,-41215141.29638672,-17984954.833984375,-8595984.45892334,-13309501.647949219,-18967203.14025879,-9400971.412658691,-13017925.262451172,-11389883.995056152,7347860.336303711,-26776121.139526367,-13140168.190002441,-23426437.377929688,-12731096.267700195,-7567735.67199707,-8143168.4494018555,-10781567.573547363,-12736956.596374512,6537326.812744141,-18842844.009399414,-3629.2672157287598,-17361104.96520996,-1193055.7489395142,1027939.2004013062,644083.0826759338,-12485552.787780762,5993656.158447266,7262267.589569092,-10170434.951782227,-5046591.281890869,-5024593.830108643,6257900.238037109,6077804.5654296875,-1201752.1858215332,5791800.498962402,5252729.892730713,5750310.897827148,6222286.701202393,5527353.286743164,4852226.734161377,7377786.159515381,5068259.239196777,5239108.085632324,5486703.395843506,2644033.670425415,9464887.619018555,2029153.3470153809,5767752.647399902,5661695.0035095215
0.455,-21786506.65283203,-9397574.424743652,-16984756.469726562,-27749305.725097656,-13216555.59539795,-36785984.03930664,-35871974.94506836,-34781547.54638672,-19531976.6998291,-17981624.603271484,-18582084.65576172,-8726572.036743164,-9130010.604858398,3854103.5652160645,-45699096.6796875,-21401149.74975586,-9287345.886230469,-14079415.321350098,-19850496.292114258,-11276618.957519531,-17069805.145263672,-13677121.16241455,4312242.9847717285,-32696117.401123047,-17356290.817260742,-26477113.723754883,-13498996.73461914,-8012286.186218262,-9511823.654174805,-12599068.641662598,-16981489.181518555,3344011.7835998535,-25681591.033935547,-4844400.405883789,-20837034.225463867,-2005756.139755249,636892.0207023621,-174971.72951698303,-15907510.757446289,1516649.603843689,2673185.5869293213,-16413694.381713867,-10297960.28137207,-10236742.973327637,2872588.872909546,4114691.2574768066,-2873033.285140991,1650553.2264709473,1072167.0389175415,1428846.9552993774,324713.73677253723,-243328.42230796814,-830866.2176132202,5141759.395599365,950295.1502799988,1004337.9068374634,1283272.2663879395,-5818799.97253418,3302638.7691497803,-5099979.877471924,1426594.3765640259,-365958.66084098816
0.46,-22054248.809814453,-7597486.0191345215,-14826983.451843262,-27452754.974365234,-11407193.183898926,-36537193.298339844,-35536407.470703125,-34458564.75830078,-19324676.513671875,-18103261.947631836,-17649566.650390625,-6888006.687164307,-7232036.590576172,5372916.221618652,-45439113.61694336,-21458520.889282227,-11307396.88873291,-15535606.384277344,-19885641.09802246,-11392034.530639648,-18114330.291748047,-12249977.111816406,5970929.145812988,-33034259.796142578,-18113447.189331055,-29201295.852661133,-14261617.660522461,-8333012.580871582,-9562991.14227295,-12330827.713012695,-16367450.714111328,5053564.071655273,-27445154.190063477,-7455355.644226074,-24277563.095092773,-3338267.3263549805,646352.1718978882,-927517.0564651489,-16448484.420776367,1960667.4909591675,3052778.2440185547,-17156751.63269043,-12578506.469726562,-12625604.629516602,2407532.4535369873,3453706.0260772705,-4014755.7258605957,1378880.262374878,851304.7099113464,1333309.4120025635,-1882113.5759353638,-2456554.889678955,-2952071.9051361084,4443984.508514404,835202.5151252747,939146.6379165649,1214968.204498291,-8506479.263305664,1166257.381439209,-6402021.408081055,1361070.0368881226,-467508.85248184204
0.465,-21729391.09802246,-5715987.205505371,-12268831.253051758,-25202564.239501953,-7968441.486358643,-33304100.036621094,-32261188.507080078,-31262905.12084961,-17341623.306274414,-15638056.755065918,-14440968.51348877,-2783938.16947937,-3122182.3692321777,9796643.257141113,-40784793.853759766,-17877624.51171875,-11963244.438171387,-15757859.230041504,-18163406.372070312,-9541398.048400879,-16312402.725219727,-8550720.21484375,10257341.384887695,-27853950.50048828,-15211714.744567871,-29642526.626586914,-13933112.144470215,-7893027.782440186,-8409472.465515137,-10511522.29309082,-12398089.408874512,9541198.73046875,-23627784.729003906,-6187883.377075195,-25036090.850830078,-3876308.2027435303,967852.2944450378,-893174.8867034912,-14076612.47253418,5769558.429718018,6867204.189300537,-13692373.275756836,-10791667.938232422,-10772878.646850586,4320711.135864258,3864533.9012145996,-3737250.328063965,4659546.375274658,4235900.87890625,4964163.303375244,390807.24120140076,-365961.0450267792,-707558.0358505249,5124987.602233887,4184726.2382507324,4436194.41986084,4734723.091125488,-5427934.646606445,3599799.871444702,-3521886.8255615234,4883831.50100708,3030504.9419403076
0.47,-18626207.35168457,-1952406.7640304565,-8356268.882751465,-21140739.44091797,-4365739.345550537,-28507961.27319336,-27450700.759887695,-26535964.965820312,-13647238.731384277,-11752610.206604004,-11019484.519958496,809293.5681343079,391945.3024864197,13200120.92590332,-35703208.923339844,-13881372.451782227,-10360583.305358887,-14541484.832763672,-15774018.287658691,-7568702.220916748,-14332917.213439941,-5905366.897583008,13393321.03729248,-22373777.389526367,-11724564.552307129,-28153572.08251953,-12553132.057189941,-7105424.880981445,-6994738.1019592285,-9108180.046081543,-9292387.008666992,12852416.038513184,-18585428.23791504,-3009814.2623901367,-23234643.936157227,-3054141.9982910156,1203998.2080459595,-138423.71106147766,-11355309.48638916,9059259.414672852,10103065.490722656,-10139148.712158203,-7344180.107116699,-7070325.3746032715,6339498.043060303,4850887.775421143,-1566750.2880096436,8444319.725036621,8114335.060119629,8890087.127685547,4511334.8960876465,3548736.810684204,3370888.9484405518,6451967.716217041,7921019.554138184,8171512.603759766,8554832.458496094,-1381576.1804580688,7713122.367858887,-1072719.8123931885,8568085.670471191,5771096.706390381
0.475,-14338159.561157227,2385873.794555664,-4542505.264282227,-17274927.139282227,-2201673.0308532715,-24697340.01159668,-23600473.403930664,-22717695.236206055,-9993425.369262695,-8696377.754211426,-9264751.434326172,2054116.4875030518,1570450.0675201416,14048292.16003418,-32625156.40258789,-11778233.528137207,-8227537.155151367,-12574860.572814941,-14005555.152893066,-6543324.4705200195,-14169840.812683105,-5829728.126525879,14154170.989990234,-19839159.01184082,-9465166.091918945,-26368032.455444336,-11097398.75793457,-6443483.352661133,-6099526.882171631,-9626952.171325684,-9074823.379516602,13699367.52319336,-15445034.02709961,-367382.4369907379,-21294378.28063965,-2241698.0266571045,1139938.5929107666,349828.21345329285,-10540598.86932373,10184110.641479492,11116176.60522461,-8060364.723205566,-4605539.798736572,-4284448.146820068,6847524.166107178,5852381.706237793,1344762.0868682861,10489308.35723877,10208674.430847168,10770535.469055176,7817792.4156188965,6814759.731292725,6616521.35848999,7559735.298156738,9964991.569519043,10034096.717834473,10453742.980957031,679390.549659729,10963515.281677246,-151317.49212741852,10323397.636413574,7039626.121520996
0.48,-12263427.734375,4110324.3827819824,-3344844.341278076,-15221000.671386719,-1418561.577796936,-23216020.584106445,-22018836.975097656,-21157524.10888672,-7549803.733825684,-6682635.307312012,-8452915.19165039,1742862.7014160156,1286445.3792572021,13581751.823425293,-31098449.70703125,-11112987.518310547,-7395746.231079102,-10184936.5234375,-12419240.951538086,-5532677.173614502,-14805540.084838867,-6747268.199920654,13805410.385131836,-19125545.501708984,-8031419.75402832,-25286333.084106445,-10206710.815429688,-5683180.809020996,-5740849.018096924,-11575950.622558594,-10385617.25616455,13411991.119384766,-14299536.70501709,870185.0771903992,-21177400.588989258,-3092157.6023101807,889366.4479255676,-424552.7684688568,-11795581.817626953,9757581.71081543,10740916.25213623,-6801761.150360107,-3262061.357498169,-3267257.2135925293,5883228.302001953,5896368.026733398,2268285.036087036,10353258.13293457,10089034.080505371,10450742.721557617,9328104.019165039,8472244.262695312,7971192.836761475,7401634.216308594,9930307.388305664,9909903.526306152,10200700.759887695,1538514.7333145142,12767296.79107666,827999.1745948792,10149930.000305176,8345492.362976074
0.485,-12937124.252319336,2718055.009841919,-4746745.586395264,-14454578.399658203,-434036.9701385498,-23389085.76965332,-22057420.73059082,-21253820.419311523,-5789824.00894165,-4107289.3142700195,-6560065.746307373,1886718.511581421,1504174.7093200684,12899069.786071777,-30483350.75378418,-10980867.385864258,-7718065.7386779785,-7472366.3330078125,-9892111.778259277,-3731968.879699707,-14168085.098266602,-6656330.585479736,13164359.092712402,-18741765.97595215,-7432356.834411621,-24936708.450317383,-9721451.759338379,-4537479.400634766,-5548798.084259033,-13311419.486999512,-11374299.049377441,12858734.130859375,-14853994.369506836,557165.6227111816,-22793651.580810547,-5063595.294952393,653960.108757019,-2352537.3935699463,-14066136.360168457,7989102.840423584,9289405.822753906,-6714137.077331543,-3549015.522003174,-3852388.858795166,4447802.0668029785,4050649.642944336,-353343.51658821106,8056942.939758301,7783589.3630981445,8193974.494934082,8815470.695495605,8162253.379821777,7247000.217437744,5247176.170349121,7683576.583862305,7854540.3480529785,7926809.787750244,1808640.8376693726,12834156.036376953,1440348.0291366577,8140386.581420898,8953993.797302246
0.49,-13144538.879394531,1581585.5264663696,-5745095.252990723,-13273822.784423828,1550323.1287002563,-23403820.037841797,-22012937.545776367,-21245635.986328125,-4203176.975250244,-1067952.6329040527,-3898664.712905884,2909616.9471740723,2560164.451599121,11637272.834777832,-30775186.53869629,-11415760.99395752,-7815024.852752686,-5176198.482513428,-7316120.624542236,-2509175.5390167236,-12714570.999145508,-6099847.793579102,11736919.403076172,-19109540.939331055,-8410662.651062012,-24977537.155151367,-9366974.830627441,-3540294.408798218,-5683949.947357178,-14314857.482910156,-12122137.069702148,11524166.107177734,-17060022.354125977,-1048587.679862976,-24630687.713623047,-5726310.729980469,548706.2335014343,-4394455.909729004,-16768125.534057617,4375559.329986572,5986898.422241211,-8658576.965332031,-5459366.798400879,-5637941.360473633,3643721.103668213,720387.876033783,-4628796.100616455,3652514.934539795,3334973.8121032715,3942981.243133545,6332319.259643555,5821711.06338501,4668443.202972412,1729412.6749038696,3177911.0431671143,3628077.983856201,3589884.042739868,-141759.12737846375,10312677.383422852,-653521.478176117,3952311.5158081055,6327548.027038574
0.495,-10383749.961853027,3569121.5991973877,-4187039.852142334,-11674091.339111328,2953227.2815704346,-22462299.346923828,-21200616.83654785,-20373403.549194336,-4533665.180206299,-1085497.260093689,-4026393.8903808594,2992984.5333099365,2627271.1753845215,9527194.97680664,-31140077.590942383,-12204289.436340332,-7498732.566833496,-5146099.56741333,-7999819.755554199,-4359472.751617432,-13454346.656799316,-7309612.75100708,9481978.416442871,-20294965.744018555,-10108716.96472168,-25088708.877563477,-9519411.087036133,-3906758.0699920654,-7047938.823699951,-15664080.619812012,-13600464.820861816,9326590.538024902,-19317720.413208008,-2298021.3165283203,-25250249.8626709,-3863612.8902435303,613877.9520988464,-5781110.763549805,-19782169.342041016,-102124.10241365433,1457492.5899505615,-11288110.733032227,-7457906.246185303,-7264276.027679443,4193161.964416504,-1996297.1210479736,-6977067.470550537,-1564009.0703964233,-1928974.1516113281,-1222059.4882965088,3079904.794692993,2655628.6811828613,1562003.0164718628,-1042099.5950698853,-2151472.806930542,-1662901.9975662231,-1633134.126663208,-5115659.713745117,5606340.8851623535,-5393673.419952393,-1385196.9242095947,573973.6557006836
0.5,-7210514.068603516,6509804.725646973,-2114141.2258148193,-12600877.76184082,1071317.6727294922,-22489404.678344727,-21495365.142822266,-20574720.38269043,-9711268.424987793,-7727077.484130859,-9987478.256225586,339699.5961666107,-36695.487797260284,7617061.138153076,-30656055.450439453,-12720434.188842773,-8575345.993041992,-9324658.393859863,-14246950.149536133,-10085120.20111084,-18048042.29736328,-10663778.305053711,7665420.055389404,-20810922.622680664,-10303410.530090332,-25334648.13232422,-10933532.71484375,-6380424.499511719,-10071005.821228027,-17785179.138183594,-15252530.097961426,7509192.943572998,-19301280.975341797,-1111980.91506958,-24305952.072143555,-1221469.1638946533,795597.493648529,-6354840.278625488,-22036073.684692383,-2362442.2550201416,-1187737.4649047852,-11866888.046264648,-7244862.079620361,-6866973.400115967,6018649.578094482,-1956208.4674835205,-5923697.948455811,-4698022.842407227,-5044897.079467773,-4388274.192810059,1349079.1320800781,1008159.2798233032,160763.7107372284,-1067553.997039795,-5257050.514221191,-4992123.126983643,-4825871.467590332,-10347483.63494873,1542233.8247299194,-9234642.028808594,-4750505.9242248535,-4408647.537231445
0.505,-8877378.463745117,5287531.852722168,-3542401.5522003174,-18715944.290161133,-4746907.711029053,-26298032.760620117,-25479660.034179688,-24564468.383789062,-19442153.930664062,-19382867.81311035,-19914758.682250977,-4358416.557312012,-4717301.368713379,7219799.518585205,-30415956.497192383,-13287519.454956055,-12337613.105773926,-17076913.833618164,-23508323.669433594,-17309467.315673828,-23993282.318115234,-13531129.837036133,7469683.647155762,-19988111.49597168,-8625012.397766113,-26216117.85888672,-13470385.551452637,-10025796.890258789,-13392365.455627441,-18881830.2154541,-15006467.819213867,7240309.715270996,-17109205.24597168,2216590.8813476562,-22638177.8717041,-381735.1758480072,914927.4230003357,-5816087.245941162,-21495807.647705078,43486.39026284218,888445.3177452087,-9785761.833190918,-4650548.458099365,-4373845.57723999,8026352.882385254,750555.6344985962,-3144599.437713623,-3346142.292022705,-3615269.184112549,-3020343.542098999,2588708.6391448975,2304483.8905334473,1704844.59400177,1519725.4419326782,-3831701.5171051025,-3768153.667449951,-3497038.1259918213,-11861809.730529785,1096302.1516799927,-9039830.207824707,-3412398.57673645,-4969188.690185547
