time,Fp1,Fpz,Fp2,AF3,AF4,F7,F5,F3,F1,Fz,F2,F4,F6,F8,FT7,FC5,FC3,FC1,FCz,FC2,FC4,FC6,FT8,T7,C5,C3,C1,Cz,C2,C4,C6,T8,TP7,CP5,CP3,CP1,CPz,CP2,CP4,CP6,TP8,P7,P5,P3,P1,Pz,P2,P4,P6,P8,PO7,PO5,PO3,POz,PO4,PO6,PO8,CB1,O1,Oz,O2,CB2
0.0,750137.5079154968,1344298.243522644,1505470.2758789062,593357.9206466675,789600.1935005188,327342.4208164215,-22438.60438466072,-36303.61333489418,-14543.220400810242,-157853.08182239532,303160.01176834106,829124.1526603699,1348952.293395996,-46715.78109264374,16738.196834921837,248737.4246120453,-262379.08005714417,-242626.97994709015,-258588.91010284424,62958.10639858246,288796.8122959137,94472.65416383743,-418024.1525173187,-24508.32910835743,126753.03220748901,-97291.03744029999,-404580.38449287415,-132056.6087961197,3739.612875506282,1115577.6977539062,-7432.570215314627,787824.9287605286,-848864.2573356628,-433734.38715934753,662217.0805931091,-289223.2835292816,-147076.353430748,75332.11261034012,229400.59006214142,1708018.6605453491,-2077399.2538452148,-857802.5698661804,-837993.1449890137,-495784.4018936157,-550261.7359161377,-597039.520740509,-256930.02343177795,50750.941038131714,72256.31177425385,-619305.6106567383,-880412.6977920532,-854845.941066742,-853246.6888427734,-705248.5942840576,-838028.609752655,-782249.8679161072,-808380.9614181519,-869551.5394210815,-876401.3051986694,-730396.4495658875,-829018.6524391174,-823589.4441604614
0.005,-38542758.94165039,-22298582.077026367,-13214178.085327148,-14618546.485900879,-7176332.473754883,-20323242.1875,-15937064.170837402,-14328056.335449219,-13702025.413513184,-11684311.866760254,-6684266.567230225,676018.5360908508,7434264.183044434,-15435481.071472168,-10770019.53125,-11942625.045776367,-9457468.98651123,-9835271.835327148,-9102645.874023438,-7173747.539520264,-5641817.569732666,-9106711.387634277,-17426361.083984375,-11457845.687866211,-8644587.516784668,-5881048.679351807,-8209398.26965332,-6492446.8994140625,-4958316.326141357,-5065366.744995117,-12482706.069946289,-24246547.69897461,-8998858.451843262,-11858643.531799316,-9070015.907287598,-6819333.076477051,-6752892.971038818,235902.39882469177,-5073710.4415893555,27943691.25366211,-56069946.2890625,-9511382.102966309,-10044910.430908203,-9023752.212524414,-6147629.261016846,-6031215.190887451,-4076710.7009887695,-1389944.1957473755,-6512564.659118652,-13041907.31048584,-9724715.232849121,-9045704.84161377,-8889421.463012695,-5615180.492401123,-12175670.623779297,-10704840.660095215,-11324466.705322266,-9270938.873291016,-9358213.424682617,-5996713.638305664,-11912043.571472168,-10888646.125793457
0.01,-53564437.86621094,-31031141.28112793,-18284688.94958496,-20841405.868530273,-11466724.395751953,-27788574.21875,-22158597.946166992,-20581727.981567383,-19723680.49621582,-17289875.030517578,-10367980.003356934,670575.9167671204,11139347.076416016,-16952920.91369629,-15421698.570251465,-17440778.732299805,-13572324.752807617,-14111835.479736328,-12921312.33215332,-9453418.731689453,-6258622.646331787,-8763933.181762695,-17355760.57434082,-16300098.419189453,-12552528.381347656,-8625276.565551758,-11507874.488830566,-8919329.643249512,-6220711.231231689,-5898960.590362549,-11961044.311523438,-26307638.16833496,-11423277.854919434,-17056097.03063965,-13347833.633422852,-9691691.398620605,-9258556.365966797,512205.3623199463,-5428735.733032227,44210918.42651367,-70488548.2788086,-11950640.678405762,-12807150.840759277,-13093471.52709961,-8413216.590881348,-7564434.52835083,-4534085.750579834,1007172.8229522705,-4103250.026702881,-10280949.592590332,-12252512.93182373,-11220523.834228516,-11157471.656799316,-4848374.366760254,-11695856.094360352,-9620564.460754395,-10399750.709533691,-11483805.656433105,-11576902.389526367,-5464137.077331543,-11195500.373840332,-9746960.639953613
0.015,-48432071.685791016,-28505706.787109375,-16809062.957763672,-19650472.64099121,-13142989.158630371,-22858686.447143555,-19293197.631835938,-19588001.251220703,-18862844.467163086,-17790941.23840332,-11394460.678100586,-120268.15861463547,11393267.631530762,-9059152.603149414,-12743238.44909668,-15419857.9788208,-12470826.148986816,-13002281.188964844,-12062884.330749512,-7630602.836608887,-3124285.4595184326,-1937785.9830856323,-5100793.361663818,-13423122.40600586,-10286631.58416748,-7405425.548553467,-10001866.340637207,-7652193.546295166,-4268973.350524902,-2131983.995437622,-1791906.8336486816,-11411391.258239746,-8420768.737792969,-14985677.719116211,-11239048.00415039,-8646242.141723633,-7885096.549987793,948097.0501899719,-1607326.1499404907,48937984.466552734,-51453769.68383789,-8655735.01586914,-9552822.11303711,-11974176.406860352,-7272208.213806152,-5991932.8689575195,-2260506.1531066895,5916278.36227417,4349853.992462158,2539059.1621398926,-8918561.935424805,-7891713.1423950195,-8113382.339477539,-301768.2135105133,-3897562.5038146973,-1947087.4071121216,-2577685.832977295,-8098901.748657227,-8144337.6541137695,-1046614.2892837524,-3289813.995361328,-2000560.998916626
0.02,-43912101.74560547,-27902051.92565918,-17977003.09753418,-18611452.102661133,-15659362.79296875,-16092733.383178711,-14966580.390930176,-17793445.587158203,-17274436.950683594,-18285316.467285156,-12901494.979858398,-2871973.2761383057,8768213.272094727,-5950120.449066162,-6580248.3558654785,-10305617.332458496,-9772047.04284668,-10358321.189880371,-10789122.581481934,-6528279.3045043945,-2170974.2546081543,947769.3438529968,1752557.396888733,-7037058.8302612305,-4585638.046264648,-3740449.905395508,-6921894.550323486,-6010324.001312256,-2581522.4647521973,882225.6922721863,4520667.552947998,-2768645.763397217,-4142585.7543945312,-9390940.66619873,-6353531.360626221,-6253720.283508301,-6084891.319274902,1385158.0619812012,1724628.8061141968,48248985.290527344,-35128410.33935547,-4293135.643005371,-5090939.998626709,-8358287.811279297,-5203987.121582031,-4853960.990905762,-436606.228351593,9160975.456237793,9273762.702941895,9529184.341430664,-4441635.608673096,-3603293.6573028564,-4040510.654449463,2443871.9749450684,-744665.2054786682,986942.2316551208,399310.4696273804,-3852303.2665252686,-3866729.259490967,1646006.464958191,-233556.50901794434,809390.9025192261
0.025,-46847949.98168945,-31249526.977539062,-22144428.253173828,-19763229.370117188,-18873094.55871582,-13835918.426513672,-13443429.946899414,-17959815.979003906,-17508455.276489258,-20556604.385375977,-15673509.59777832,-6720103.2638549805,5362588.882446289,-10533807.754516602,-1957694.64969635,-6691586.971282959,-8067386.627197266,-8831028.938293457,-11504554.748535156,-8363287.925720215,-5492740.631103516,-3256494.9989318848,-2401824.2359161377,-2293239.3550872803,210407.61470794678,-194292.6049232483,-5061007.499694824,-6079844.4747924805,-3089548.349380493,-173294.97635364532,1591713.1900787354,-8602163.314819336,-1114344.2392349243,-4747593.879699707,-3107173.9196777344,-4855008.125305176,-6096188.545227051,1512146.7113494873,2128341.6748046875,48197257.99560547,-38718379.974365234,-1481618.6428070068,-2224638.7004852295,-5464924.335479736,-4324810.028076172,-5578206.539154053,-619759.8576545715,9285453.796386719,7850561.141967773,6786774.158477783,-1516172.170639038,-841725.5878448486,-1287243.366241455,2206651.6876220703,-3582451.343536377,-1892806.5299987793,-2616817.7127838135,-1250830.054283142,-1254273.0569839478,1517386.555671692,-3254080.5339813232,-2180994.2722320557
0.03,-46809783.935546875,-29664979.934692383,-21230894.088745117,-18816135.40649414,-18570552.825927734,-14227998.733520508,-13105020.523071289,-17406637.19177246,-16895410.537719727,-21251094.818115234,-16688125.610351562,-8238617.897033691,4198482.036590576,-12825120.92590332,-1414138.3171081543,-6147166.2521362305,-7179763.7939453125,-8090423.583984375,-12511973.38104248,-10410750.389099121,-8732452.392578125,-7455271.244049072,-7235683.441162109,-1587465.6438827515,1293234.944343567,1412113.3089065552,-4699427.127838135,-7025664.806365967,-4411757.469177246,-3303222.417831421,-3352555.751800537,-16193777.084350586,291257.381439209,-3549694.538116455,-3371459.484100342,-4994631.767272949,-7129595.756530762,1187702.7750015259,1236042.1419143677,49679283.142089844,-47507980.34667969,-257501.63197517395,-1063423.1567382812,-5135255.813598633,-5150645.2560424805,-6991876.602172852,-1852014.3032073975,8051222.801208496,5578888.893127441,4068741.3215637207,-232954.18918132782,389421.10538482666,62152.98920869827,1706202.6262283325,-4604495.525360107,-2987624.8836517334,-3764346.3611602783,-147431.82063102722,-92665.62759876251,1318732.2616577148,-4345695.972442627,-3072153.5682678223
0.035,-39360023.498535156,-21490301.13220215,-13186505.317687988,-14468090.057373047,-12870009.422302246,-14402080.535888672,-12304543.495178223,-14482320.785522461,-13884367.942810059,-17695074.0814209,-13311054.229736328,-4817196.369171143,6807010.650634766,-7446636.199951172,-3831362.724304199,-7739670.753479004,-6370512.48550415,-7281553.268432617,-11433784.484863281,-9393934.24987793,-7245285.511016846,-5617497.92098999,-4735461.235046387,-3760179.5196533203,-868244.6479797363,1037370.3241348267,-4877853.3935546875,-7289899.3492126465,-4528969.764709473,-4627394.199371338,-2913222.074508667,-14568358.421325684,-510260.34355163574,-5864595.413208008,-5885162.830352783,-6048539.161682129,-7557260.990142822,660122.0369338989,906839.907169342,50428363.80004883,-45981487.27416992,-1046470.7612991333,-1970403.0752182007,-7321450.233459473,-7105996.131896973,-8324518.203735352,-3096028.0895233154,6578736.782073975,6184900.760650635,7056265.354156494,-1032949.9244689941,-386245.459318161,-582147.5386619568,1426986.2174987793,-2049327.1350860596,-612257.0037841797,-1290717.601776123,-914470.2553749084,-744018.018245697,1320239.9015426636,-1700051.7845153809,-343788.0575656891
0.04,-34263679.50439453,-16409519.19555664,-6329668.998718262,-11225257.873535156,-5770644.187927246,-14540892.601013184,-12058942.794799805,-11580501.556396484,-10937993.049621582,-11991934.776306152,-7104928.016662598,1822385.549545288,11143975.257873535,-1190817.5945281982,-5871984.958648682,-9541433.334350586,-5784310.817718506,-6593780.517578125,-8629705.429077148,-5800372.60055542,-1997945.0702667236,-520194.53048706055,669158.4587097168,-5619099.140167236,-3320711.851119995,176076.14398002625,-4990438.938140869,-6758260.250091553,-3451519.250869751,-3080603.3611297607,1407560.7061386108,-7956732.749938965,-3481301.3076782227,-9601339.340209961,-7978058.815002441,-7077395.439147949,-7168115.615844727,292921.245098114,487729.16197776794,49566638.9465332,-39328411.10229492,-3989853.858947754,-4989984.512329102,-10131069.18334961,-8953699.111938477,-9933763.50402832,-4396481.037139893,4262071.60949707,7001929.759979248,10324709.89227295,-4031343.460083008,-3363915.6818389893,-3429048.2997894287,-705197.5131034851,-2200590.6105041504,-805773.5562324524,-1495845.1986312866,-3766486.406326294,-3528772.3541259766,-810759.0675354004,-1705989.3608093262,-435975.5516052246
0.045,-37493385.314941406,-19144094.467163086,-6403207.302093506,-11487040.519714355,-1988200.068473816,-14719252.586364746,-12566081.047058105,-10602765.083312988,-9980948.448181152,-7758518.695831299,-1837487.9360198975,7294896.125793457,13772510.528564453,-543846.9052314758,-5336329.936981201,-9832894.325256348,-5335219.860076904,-6028223.991394043,-6153304.100036621,-2522604.465484619,2554425.2395629883,2146703.4816741943,2512591.3619995117,-5029160.499572754,-3655264.8544311523,382076.8892765045,-4732820.0340271,-6306718.826293945,-2455492.0196533203,-576247.8113174438,4444226.7417907715,-4270599.842071533,-6178465.366363525,-12003369.331359863,-8071996.688842773,-7302910.804748535,-6778031.349182129,107447.43794202805,-1077372.5509643555,48796226.501464844,-38403976.44042969,-6721155.166625977,-7709563.732147217,-11298476.219177246,-9500550.270080566,-11615453.720092773,-5677060.127258301,1368820.5480575562,5359426.021575928,9140522.956848145,-6801408.290863037,-6168529.033660889,-6095619.201660156,-4403000.831604004,-6844103.3363342285,-5249079.704284668,-6178312.301635742,-6387697.219848633,-6232770.4429626465,-4718605.041503906,-6206398.487091064,-4997288.703918457
0.05,-40193515.77758789,-21121950.149536133,-7715072.154998779,-11243261.337280273,-826687.1571540833,-13472011.56616211,-11837918.281555176,-9851114.273071289,-9276424.407958984,-5594459.533691406,961750.6861686707,9653088.569641113,14493824.95880127,-1427288.7706756592,-3472387.5522613525,-8422139.167785645,-4296668.529510498,-4901436.328887939,-4960616.111755371,-967873.3944892883,4411415.100097656,2257060.2893829346,2806564.3310546875,-3122965.097427368,-2413092.1363830566,1689905.1666259766,-3867675.304412842,-6386281.967163086,-1920398.1161117554,1254804.253578186,5536323.070526123,-2580899.477005005,-6000197.410583496,-12094934.463500977,-6888038.158416748,-6731780.529022217,-6813834.667205811,-185184.83638763428,-2437134.5043182373,50188667.29736328,-40746917.724609375,-6461353.302001953,-7338554.382324219,-10546119.689941406,-8913339.614868164,-12559067.726135254,-6136874.675750732,33895.04179358482,3962343.692779541,7822138.30947876,-6513059.139251709,-5949236.869812012,-5790248.394012451,-6526358.604431152,-9368592.262268066,-7583121.299743652,-8681383.13293457,-6002769.947052002,-6035957.813262939,-6924743.175506592,-8553168.296813965,-7250018.119812012
0.055,-33582199.09667969,-14756407.737731934,-2958652.7347564697,-7210428.714752197,1504841.4468765259,-10980944.633483887,-9413808.822631836,-7755521.297454834,-7170199.871063232,-4105491.1613464355,2515774.965286255,10898299.217224121,16487236.022949219,2761682.9872131348,-2988263.6070251465,-6939309.120178223,-2875398.3974456787,-3461320.638656616,-4572492.1226501465,-309025.7942676544,5308713.912963867,3683653.5930633545,6624133.586883545,-2523386.9552612305,-1916898.1313705444,2674900.770187378,-2856799.840927124,-6809459.209442139,-1166073.9183425903,2772556.0665130615,7489495.277404785,1742934.3461990356,-3601835.012435913,-11181965.827941895,-6181771.278381348,-6344326.019287109,-7096174.716949463,-663430.9887886047,-1097791.1949157715,54071063.99536133,-37749233.24584961,-3846555.233001709,-4502418.518066406,-9790700.912475586,-8783838.272094727,-13028202.056884766,-5434200.286865234,1708909.034729004,6819866.65725708,11880817.413330078,-3818901.0620117188,-3280339.7178649902,-3149407.6251983643,-5915503.978729248,-5622860.908508301,-3881874.5613098145,-4770945.5490112305,-3292350.5306243896,-3480203.151702881,-6117132.663726807,-4635484.69543457,-3164383.64982605
0.06,-23962902.069091797,-6430804.72946167,4586314.2013549805,-3073268.6519622803,5400758.743286133,-9803998.947143555,-7963885.78414917,-6272437.09564209,-5606286.04888916,-3214882.6122283936,3962089.0617370605,13392312.049865723,21312984.466552734,9770591.735839844,-4273107.051849365,-7095151.424407959,-2626665.3537750244,-3282648.5633850098,-4435832.500457764,441835.2246284485,7125006.675720215,7275857.925415039,12613526.344299316,-3689019.4416046143,-3246826.8871307373,2152543.544769287,-2892508.5067749023,-7318843.841552734,103060.24551391602,4892327.785491943,10841917.037963867,7417254.447937012,-1631590.1279449463,-10689531.326293945,-6619495.391845703,-7062216.758728027,-7440131.187438965,-928952.3959159851,3085489.7499084473,58824440.002441406,-30608589.17236328,-1819582.462310791,-2185198.0686187744,-10428181.648254395,-10053339.004516602,-14191438.674926758,-4384397.506713867,5126391.410827637,12936536.78894043,18862237.93029785,-1742538.4521484375,-1118846.2972640991,-1112899.661064148,-4903271.198272705,-290304.9886226654,1274434.4472885132,833811.9983673096,-1259510.87474823,-1509227.2758483887,-4865282.05871582,710322.5588798523,2283926.248550415
0.065,-22237108.23059082,-5874317.646026611,7051682.949066162,-3379652.500152588,8373594.284057617,-11042894.36340332,-9139476.776123047,-7267986.297607422,-6568571.090698242,-3189860.5823516846,5778582.0960998535,17424547.19543457,26854473.114013672,12900805.473327637,-5643808.364868164,-8878720.2835083,-4050612.9264831543,-4777513.50402832,-3958214.521408081,1749090.7907485962,10050990.104675293,10412485.122680664,15623759.269714355,-5048527.717590332,-5641293.048858643,486052.7515411377,-4381425.857543945,-7724671.363830566,1513734.9367141724,7575309.753417969,13573619.842529297,9864223.48022461,-1269898.6530303955,-11021139.144897461,-7642127.990722656,-8703564.643859863,-7788050.651550293,-541663.408279419,7418192.8634643555,62266304.01611328,-27509700.775146484,-1697779.1786193848,-1839792.6092147827,-11785935.401916504,-11865649.223327637,-16275335.311889648,-3983530.7598114014,7614645.004272461,17198493.95751953,22215049.743652344,-1650143.5041427612,-833827.4955749512,-984546.2441444397,-5547791.004180908,737760.9610557556,2201704.0252685547,2048022.5086212158,-1173099.7562408447,-1449638.4859085083,-5516118.049621582,1553481.6980361938,3117974.9965667725
0.07,-26296148.3001709,-9835960.388183594,5627083.778381348,-5173342.227935791,10825955.390930176,-12837199.211120605,-10577616.691589355,-8129218.101501465,-7542899.131774902,-1948959.3505859375,9226274.490356445,22585296.630859375,31188165.66467285,12411616.325378418,-7014092.922210693,-11020522.117614746,-5081007.480621338,-5752649.307250977,-1979113.3403778076,4350126.266479492,14012598.991394043,12268329.620361328,15270335.19744873,-6579333.782196045,-8426749.229431152,-980956.7928314209,-5968408.584594727,-7773954.86831665,2965957.6416015625,10148463.249206543,15077550.888061523,8951443.672180176,-2393604.7554016113,-12931052.207946777,-9022058.486938477,-10442792.892456055,-7970775.127410889,378206.4914703369,9300578.117370605,63272365.57006836,-30042173.385620117,-3032076.120376587,-3133908.0333709717,-13047463.417053223,-13280754.089355469,-18408201.217651367,-4468345.642089844,7516392.230987549,16269018.173217773,20063488.006591797,-3038669.1093444824,-1997315.0491714478,-2279274.7020721436,-7514146.327972412,-2138404.130935669,-675458.6100578308,-831829.7863006592,-2460823.5359191895,-2762288.808822632,-7696791.172027588,-1505834.1026306152,-44409.286230802536
0.075,-25476627.349853516,-7620719.909667969,8346937.17956543,-2292348.861694336,15625280.380249023,-13755694.389343262,-9444139.48059082,-5139954.566955566,-4733267.784118652,2604290.9622192383,14910848.617553711,28383623.123168945,34982551.57470703,14247316.360473633,-10205420.49407959,-12597396.850585938,-3582821.3691711426,-4106789.1120910645,1784863.4719848633,8370077.133178711,18777423.858642578,14635617.25616455,15582022.666931152,-10138577.461242676,-11494479.179382324,-1316451.4303207397,-5977151.393890381,-7387591.361999512,4577827.930450439,11945139.88494873,16610187.530517578,7991357.326507568,-5464409.828186035,-17414165.496826172,-10937017.440795898,-11786604.881286621,-7827314.376831055,1178668.49899292,8266423.225402832,62317474.365234375,-32428272.247314453,-5949703.216552734,-6131483.07800293,-14803234.100341797,-14757921.21887207,-20159706.115722656,-5629650.115966797,4969908.237457275,11394925.117492676,15515677.452087402,-5953696.250915527,-4770225.524902344,-5089640.6173706055,-10087399.48272705,-5787548.542022705,-4306821.346282959,-4509146.690368652,-5248175.144195557,-5503884.315490723,-10430419.921875,-5132386.684417725,-3846114.8738861084
0.08,-18978240.966796875,257268.7268257141,15256835.9375,3774621.2482452393,21140602.111816406,-14693835.258483887,-6878758.907318115,-27864.504605531693,295153.1112194061,7734000.682830811,19613142.013549805,32276054.38232422,38026355.7434082,18766847.610473633,-14567701.33972168,-13211134.910583496,-553383.469581604,-1027207.1361541748,5017481.803894043,11578073.501586914,22086132.049560547,17167373.657226562,17420936.584472656,-15022063.255310059,-13556814.193725586,-461579.02479171753,-4536491.870880127,-6879501.819610596,5655182.838439941,12177442.55065918,18058277.130126953,7517879.009246826,-10020595.55053711,-22732866.287231445,-12400157.928466797,-12499602.317810059,-7463518.142700195,1310082.9124450684,5202598.094940186,60734558.10546875,-32228294.372558594,-10163675.308227539,-10389404.296875,-17254585.26611328,-16627723.693847656,-21662221.908569336,-7172601.222991943,1445319.5333480835,6272191.524505615,11244394.302368164,-10146145.820617676,-8998225.212097168,-9195322.99041748,-13074550.62866211,-9637601.852416992,-8130537.986755371,-8236525.535583496,-9420783.996582031,-9525365.829467773,-13390338.897705078,-8820507.049560547,-7707794.189453125
0.085,-17441772.4609375,1590995.9077835083,16519060.134887695,4826225.757598877,20959789.276123047,-16166273.11706543,-6185087.68081665,1433955.430984497,1794382.095336914,7789279.937744141,18509843.826293945,30658397.674560547,37210819.244384766,19224285.125732422,-15826970.100402832,-12347050.666809082,958194.1366195679,364602.38695144653,4741953.372955322,11024231.910705566,20866390.228271484,16411153.793334961,17048473.358154297,-16717813.491821289,-12457855.224609375,1145275.2351760864,-3383546.3523864746,-6623362.5411987305,5023336.887359619,10252806.663513184,17342695.236206055,5306584.83505249,-12595011.711120605,-24249639.5111084,-11592763.900756836,-12195199.966430664,-7127415.180206299,820159.0180397034,1107141.4947509766,59580615.99731445,-33156936.645507812,-12633021.354675293,-12866467.475891113,-18618982.315063477,-17482160.568237305,-22431377.410888672,-8471591.94946289,-1152876.2578964233,3708259.8209381104,7901731.491088867,-12710998.53515625,-11769811.630249023,-11717281.341552734,-15123013.496398926,-13543457.03125,-11993462.562561035,-12029520.988464355,-12058906.555175781,-12033936.500549316,-15313036.918640137,-12649507.522583008,-11570433.616638184
0.09,-25165473.93798828,-7916730.880737305,8315535.545349121,-1402851.8199920654,13629444.122314453,-16696914.672851562,-7815499.305725098,-2311497.449874878,-1906593.680381775,2219175.338745117,12093666.076660156,24253376.007080078,31574771.881103516,13169677.734375,-11892092.70477295,-10075708.389282227,-171208.90319347382,-890546.3218688965,1381209.0158462524,7226997.852325439,15847264.289855957,11548492.431640625,12924566.268920898,-12867510.795593262,-8625294.68536377,2677644.729614258,-3711204.5288085938,-6622304.916381836,2908567.9054260254,7117550.373077393,13972506.523132324,1649213.433265686,-10034167.289733887,-19958173.751831055,-8723241.806030273,-10941854.476928711,-6919514.6560668945,215001.10626220703,-2544316.7686462402,59410751.34277344,-36926296.23413086,-10272362.70904541,-10626675.605773926,-17408912.658691406,-16038843.154907227,-21768081.665039062,-8696607.58972168,-1698227.047920227,4145554.0657043457,6344027.042388916,-10559959.411621094,-9877110.481262207,-9590963.363647461,-14235745.429992676,-14803024.291992188,-13254206.657409668,-13503573.417663574,-9947873.11553955,-9968525.886535645,-14322470.664978027,-13969912.5289917,-12721162.796020508
0.095,-32383605.95703125,-16493623.733520508,816335.5588912964,-6805443.286895752,7240742.206573486,-15606353.759765625,-9038254.737854004,-6028676.986694336,-5634998.321533203,-2347486.734390259,7318850.994110107,19538440.704345703,26378253.936767578,7825788.974761963,-6984800.338745117,-8029704.0939331055,-2001636.028289795,-2695754.051208496,-1143663.1679534912,4522863.388061523,12294054.03137207,7419956.684112549,9199273.109436035,-7712105.751037598,-6002127.647399902,3074231.6246032715,-5035528.182983398,-6616103.649139404,1292408.4663391113,5324987.888336182,10898859.024047852,85214.30939435959,-4589378.833770752,-14293578.147888184,-6763852.119445801,-9859042.167663574,-6782222.270965576,-34688.87880444527,-3684338.331222534,60546741.4855957,-39596782.68432617,-5029466.152191162,-5604221.820831299,-15167536.735534668,-13721609.115600586,-20411043.167114258,-7731108.18862915,-680328.7267684937,6184424.40032959,7604826.927185059,-5398073.196411133,-4894813.060760498,-4492038.726806641,-11115643.501281738,-11768979.0725708,-10291703.224182129,-10953452.110290527,-4787010.669708252,-4970711.708068848,-11155359.268188477,-10965960.502624512,-9481947.898864746
0.1,-29562828.063964844,-12883977.890014648,4393864.631652832,-4340181.350708008,9603425.025939941,-15099011.421203613,-8429239.273071289,-5037096.977233887,-4659549.713134766,-452151.5667438507,9313550.94909668,21504356.384277344,27449291.229248047,10213500.9765625,-6725345.134735107,-8188670.1583862305,-2588171.2436676025,-3170942.783355713,-251510.91814041138,5871789.455413818,13947407.722473145,8809660.911560059,10297060.012817383,-7209010.124206543,-7559749.126434326,1902502.6559829712,-6222452.163696289,-6493112.564086914,1594125.1516342163,6549018.859863281,11288248.062133789,2508777.618408203,-2127501.2493133545,-13339661.598205566,-7883637.90512085,-10056350.708007812,-6675130.844116211,186510.5777978897,-1546048.0451583862,62785793.30444336,-38093357.08618164,-2594083.786010742,-3224225.2826690674,-14676522.254943848,-13205395.698547363,-20088602.06604004,-6480897.903442383,560674.786567688,8129328.727722168,10770679.473876953,-2720752.000808716,-2293354.034423828,-1843845.9634780884,-9301771.16394043,-7564126.968383789,-6136999.130249023,-7019336.700439453,-2206214.427947998,-2430603.9810180664,-9361042.976379395,-6657141.208648682,-5093176.84173584
0.105,-20880886.07788086,-1928984.28440094,15109299.659729004,1963483.8104248047,17797733.306884766,-17363634.10949707,-7964035.511016846,-1537083.1489562988,-1134975.0757217407,5089385.509490967,14985852.241516113,27298353.19519043,33264446.258544922,17333749.771118164,-10862061.500549316,-10494329.452514648,-2431881.904602051,-2937792.7780151367,2263814.2108917236,9233893.394470215,18327610.01586914,14015644.073486328,15001362.800598145,-11398605.346679688,-11432074.546813965,51519.46097612381,-6797106.742858887,-6391939.163208008,2877607.583999634,9403211.59362793,14445609.092712402,6443773.7464904785,-5010409.832000732,-17382823.944091797,-10535320.281982422,-11157155.03692627,-6615812.301635742,657222.7478027344,1621501.8033981323,64794860.83984375,-35199081.42089844,-5437012.195587158,-5833104.133605957,-16121997.833251953,-14731837.272644043,-21161483.764648438,-5955463.886260986,1182702.4221420288,8991164.207458496,13133445.739746094,-5191391.944885254,-4777592.182159424,-4287137.031555176,-10718374.252319336,-6505065.91796875,-5022678.852081299,-5706334.114074707,-4879281.044006348,-4911284.923553467,-10882962.226867676,-5471925.258636475,-4039008.140563965
0.11,-16795499.801635742,3996171.236038208,21578525.54321289,3666497.4689483643,22968046.188354492,-21036676.40686035,-9629096.984863281,-645919.0845489502,-191422.32835292816,7796965.1222229,17962095.260620117,30530681.610107422,37260097.50366211,21335807.80029297,-14255766.868591309,-12702963.829040527,-2927515.2683258057,-3333117.961883545,3387779.474258423,10864871.02508545,20520320.892333984,17344764.709472656,18587739.944458008,-15089854.24041748,-13545664.78729248,-1056012.3920440674,-6928972.244262695,-6455481.052398682,3321815.9675598145,10918207.168579102,16586942.672729492,8203026.77154541,-9821587.562561035,-21358455.657958984,-11799805.641174316,-11881421.089172363,-6627106.189727783,1019856.5721511841,2295632.6007843018,64859054.56542969,-35090652.46582031,-10226565.36102295,-10395523.071289062,-17281576.15661621,-16022651.672363281,-22280393.600463867,-6381127.834320068,952627.0627975464,8268330.5740356445,12808070.182800293,-9896280.288696289,-9418110.847473145,-8969305.992126465,-13337640.762329102,-8644956.588745117,-7045706.748962402,-7331544.399261475,-9683904.647827148,-9474230.766296387,-13627402.305603027,-7585520.267486572,-6332844.7341918945
0.115,-18921752.9296875,2604711.5325927734,21264377.59399414,264779.15048599243,22613933.563232422,-22767660.14099121,-12067980.766296387,-2843190.4315948486,-2299340.4865264893,6514425.277709961,17163076.400756836,29861764.907836914,37028034.21020508,20819250.106811523,-14040307.998657227,-12894834.518432617,-3842619.6575164795,-4023142.3377990723,3113287.4488830566,10368567.46673584,19719758.987426758,16565671.920776367,19080017.08984375,-15149055.480957031,-12883794.784545898,-976108.6106300354,-6824234.485626221,-6657566.070556641,2684385.7765197754,9932062.149047852,15368080.139160156,6925028.324127197,-12562353.134155273,-21936967.849731445,-11376737.594604492,-11890604.972839355,-6740270.137786865,1016931.0569763184,-458095.520734787,62735412.59765625,-37495075.22583008,-12900089.263916016,-13190093.994140625,-17116945.266723633,-15789922.714233398,-22644273.75793457,-7345912.456512451,-356346.1899757385,5670595.169067383,10128726.0055542,-12865492.820739746,-12193846.702575684,-11977865.219116211,-14527181.625366211,-10855383.87298584,-9157242.774963379,-9247490.882873535,-12513050.079345703,-12269513.130187988,-14806406.97479248,-9811402.320861816,-8616545.677185059
0.12,-20113517.76123047,1737789.273262024,21155284.881591797,-1483677.0296096802,21833406.448364258,-21477422.7142334,-12315516.471862793,-4126983.642578125,-3427827.1198272705,5481427.6695251465,16442096.710205078,29128246.307373047,36260978.69873047,20995695.114135742,-12037381.172180176,-11249095.916748047,-3847454.786300659,-3806677.1030426025,3377349.376678467,10044407.844543457,18940242.767333984,14520703.315734863,18678537.368774414,-13233688.354492188,-11683703.422546387,-453322.47018814087,-6696012.496948242,-6882330.417633057,2088614.9406433105,7871462.345123291,12287842.750549316,4751567.363739014,-12841801.643371582,-20606557.846069336,-11207581.520080566,-12004316.329956055,-6982430.934906006,668686.3303184509,-3865816.593170166,60294460.29663086,-39274955.74951172,-13084522.247314453,-13708091.735839844,-16848649.978637695,-15184431.076049805,-22983430.862426758,-8290072.441101074,-2446985.7215881348,2035001.0395050049,6901970.386505127,-13332409.858703613,-12400738.716125488,-12521677.97088623,-14470034.5993042,-11533000.946044922,-9757192.611694336,-9972276.68762207,-12768300.05645752,-12725428.581237793,-14545549.392700195,-10450541.496276855,-9196047.78289795
0.125,-17095174.78942871,4911817.0738220215,24569423.67553711,1121647.0003128052,23634592.056274414,-19545957.565307617,-10197489.738464355,-2752317.9054260254,-1893836.3790512085,6714579.5822143555,17461006.16455078,30219692.23022461,37650291.442871094,24184196.47216797,-10697880.744934082,-9436107.635498047,-2997334.9571228027,-2975370.6455230713,4126222.610473633,10480433.464050293,19466842.651367188,13809624.671936035,19408302.307128906,-11829931.259155273,-11460612.297058105,-266879.20093536377,-6964900.493621826,-7058487.415313721,1884818.5539245605,6317824.363708496,10215991.973876953,3976406.0974121094,-12181457.51953125,-19783960.342407227,-12007914.543151855,-12615322.11303711,-7280361.175537109,260826.91550254822,-4737803.4591674805,59600860.595703125,-39562248.22998047,-12451059.341430664,-13181231.498718262,-17417476.654052734,-15331865.310668945,-23734085.083007812,-8628141.403198242,-3757203.1021118164,-311727.6728153229,4986167.907714844,-12614988.327026367,-11537079.811096191,-11855286.598205566,-14634173.393249512,-11297182.083129883,-9466077.80456543,-9887825.012207031,-12018553.733825684,-12206331.253051758,-14483815.19317627,-10201486.587524414,-8889863.967895508
0.13,-15169989.585876465,6455222.606658936,26386920.928955078,2885883.569717407,24715213.775634766,-20104030.60913086,-9133767.127990723,-1856268.1674957275,-977034.4495773315,7143765.449523926,17679315.5670166,30668104.17175293,38977245.33081055,26415792.46520996,-10557132.720947266,-9213059.425354004,-3122063.636779785,-3321649.0745544434,3249250.4119873047,9885493.278503418,19346637.725830078,13575259.2086792,20268486.02294922,-11575516.700744629,-11818562.507629395,-660624.6829032898,-8019814.491271973,-7185550.212860107,1246386.0511779785,5364008.42666626,9960118.293762207,5001651.763916016,-11373245.239257812,-19744661.331176758,-12678636.55090332,-13118397.71270752,-7456964.96963501,95982.52922296524,-2954898.1189727783,60715465.5456543,-39779773.7121582,-11794003.4866333,-12307085.037231445,-18173486.709594727,-15492488.861083984,-23799690.24658203,-7930977.821350098,-2741850.8529663086,444340.37804603577,5171197.414398193,-11676463.12713623,-10657527.923583984,-10916633.605957031,-14796271.324157715,-10483301.162719727,-8691833.49609375,-9164425.84991455,-11204651.832580566,-11478150.367736816,-14625847.816467285,-9546217.918395996,-8244464.874267578
0.135,-19568094.25354004,1457792.5205230713,22163467.407226562,-1041022.4199295044,21653135.299682617,-24146966.9342041,-12124834.060668945,-4712270.259857178,-3982870.578765869,3815812.826156616,15094538.688659668,28328126.907348633,37367679.595947266,24154561.99645996,-12082947.731018066,-11565150.260925293,-5520403.3851623535,-5836968.421936035,168275.32649040222,7567215.919494629,17238351.821899414,12141365.051269531,19413375.854492188,-13013340.950012207,-12931115.15045166,-1852916.0022735596,-9843380.92803955,-7291300.296783447,-130316.03395938873,4605545.520782471,10170179.36706543,6598572.254180908,-11175456.047058105,-20502225.875854492,-12946336.74621582,-13194013.595581055,-7424899.101257324,227347.29945659637,-921040.1773452759,62067554.47387695,-39942214.96582031,-11660665.512084961,-11994755.744934082,-18677082.061767578,-14716693.878173828,-22183712.005615234,-6445133.686065674,-79693.83895397186,3321392.297744751,6539456.367492676,-11486077.308654785,-10619818.687438965,-10687524.795532227,-13810689.926147461,-9135394.096374512,-7496385.097503662,-7903107.166290283,-11057938.575744629,-11283198.356628418,-13827490.80657959,-8471405.029296875,-7233221.530914307
0.14,-27865613.93737793,-7024691.104888916,14718216.896057129,-8247352.600097656,15924493.789672852,-29663782.119750977,-17825424.194335938,-10044689.178466797,-9469484.329223633,-1717690.4678344727,10973473.54888916,24352516.174316406,33431793.212890625,19249286.651611328,-15980692.863464355,-15804512.977600098,-9116200.44708252,-9313714.027404785,-2918605.089187622,5286212.44430542,14469446.182250977,9866363.525390625,17089155.197143555,-16895561.21826172,-15809238.43383789,-3988757.1334838867,-11965438.842773438,-7385160.92300415,-1375241.2796020508,4199653.148651123,9806738.85345459,7347484.588623047,-12842091.56036377,-23199148.178100586,-14049458.503723145,-13556454.6585083,-7330974.102020264,448946.3269710541,-400006.5326690674,62729602.8137207,-38363311.767578125,-13223773.956298828,-13661051.750183105,-19884284.97314453,-13874272.346496582,-19911520.00427246,-5211294.651031494,1662096.8580245972,5628790.855407715,7388272.762298584,-13272939.682006836,-12505970.001220703,-12418756.484985352,-12213840.48461914,-8482522.964477539,-6959580.898284912,-7365046.02432251,-12716677.66571045,-12869049.072265625,-12378374.099731445,-7967974.662780762,-6835495.948791504
0.145,-32989772.79663086,-12514966.96472168,9620546.340942383,-12463156.700134277,11115739.822387695,-32764823.91357422,-21378379.821777344,-13422871.589660645,-12836576.461791992,-5575784.206390381,7365343.09387207,20738910.675048828,29492801.666259766,15708396.911621094,-20313392.639160156,-19071859.35974121,-11221736.907958984,-11305364.608764648,-3862182.378768921,4539445.877075195,12539678.573608398,8090237.617492676,15158390.998840332,-21284420.013427734,-19178602.21862793,-6039004.325866699,-13520522.117614746,-7464937.210083008,-1851875.901222229,4103539.9436950684,9322035.789489746,6743135.929107666,-16041862.487792969,-27450332.641601562,-16149723.052978516,-14755411.148071289,-7427947.044372559,525422.990322113,-1114463.3293151855,63383583.068847656,-35377372.74169922,-16364383.697509766,-16973121.643066406,-22412689.208984375,-14626586.9140625,-19171712.87536621,-5292881.011962891,851087.4509811401,6085035.800933838,7101006.984710693,-16555046.081542969,-15844872.47467041,-15675234.7946167,-11964129.447937012,-9749932.289123535,-8154832.83996582,-8656250.0,-15862686.157226562,-15972999.572753906,-12047120.094299316,-9164000.511169434,-8155101.776123047
0.15,-30763401.03149414,-12000254.63104248,9075201.988220215,-10784129.14276123,8996353.149414062,-30586570.739746094,-19421758.6517334,-12237737.655639648,-11518869.400024414,-5850591.659545898,5042020.320892334,18231302.26135254,26862100.60119629,15258324.62310791,-20747980.11779785,-18332260.131835938,-10158576.965332031,-10362359.046936035,-2937925.338745117,4693602.085113525,11298434.257507324,7438074.588775635,15037860.870361328,-21766942.977905273,-19288286.209106445,-6073882.579803467,-13612717.628479004,-7558128.356933594,-1998842.0009613037,3646735.668182373,9752295.49407959,5745547.294616699,-17955430.98449707,-29824810.028076172,-17252557.7545166,-16032094.955444336,-7794897.079467773,392403.63240242004,-1906229.4960021973,65047225.95214844,-33772773.74267578,-18435476.303100586,-19008455.276489258,-24853601.455688477,-16922574.996948242,-20754198.07434082,-6740343.09387207,-1511045.0983047485,5760395.526885986,6834549.427032471,-18460142.135620117,-17853368.759155273,-17650314.331054688,-13635905.265808105,-11669349.670410156,-9890614.50958252,-10446668.62487793,-17780267.7154541,-17847892.76123047,-13514277.458190918,-10971992.492675781,-9991982.460021973
0.155,-22648370.74279785,-6265488.624572754,12604298.59161377,-5219313.621520996,10245372.772216797,-24135234.832763672,-13638047.218322754,-7974356.174468994,-7192938.327789307,-3273104.190826416,4821161.74697876,17858667.373657227,26754859.924316406,17887443.54248047,-15771569.25201416,-13711547.8515625,-6906828.4034729,-7307492.733001709,-1668450.4747390747,4837160.587310791,10808279.991149902,8465991.020202637,17177412.033081055,-16750341.415405273,-14699201.583862305,-3547224.0447998047,-12140850.067138672,-7720140.9339904785,-2177270.4124450684,3019128.5610198975,11737341.88079834,6403783.321380615,-16597715.377807617,-27647706.985473633,-15964509.963989258,-16249860.763549805,-8241275.787353516,139248.1029033661,-1923497.3192214966,67587371.82617188,-34285877.2277832,-17306146.6217041,-17740911.48376465,-25182777.404785156,-18863672.256469727,-23245998.38256836,-8495806.694030762,-3249641.8952941895,5989051.818847656,7917310.2378845215,-17093307.495117188,-16600168.228149414,-16446596.145629883,-15642941.47491455,-11889953.61328125,-10032313.346862793,-10505336.76147461,-16533821.105957031,-16511974.334716797,-15467533.111572266,-11231606.483459473,-10080412.864685059
0.16,-13424017.906188965,2333474.1592407227,19481943.130493164,517720.5801010132,15578282.356262207,-18011987.686157227,-9097390.174865723,-4266235.3515625,-3586465.835571289,527786.135673523,7961998.93951416,21401912.689208984,30942649.841308594,23563516.61682129,-9622718.811035156,-9131235.122680664,-4305665.493011475,-4659786.701202393,-746072.6499557495,5606502.056121826,12555260.65826416,11978683.471679688,21395690.91796875,-10526679.992675781,-9422800.064086914,-701228.5590171814,-10396060.943603516,-7945015.907287598,-1753190.7558441162,4016890.048980713,15275264.739990234,10011567.115783691,-13999011.993408203,-23253694.534301758,-13885657.31048584,-15532192.23022461,-8489151.954650879,-124884.07641649246,-634737.7300262451,69716217.04101562,-33793449.40185547,-14783103.942871094,-15248811.721801758,-23426233.291625977,-19011436.462402344,-24629552.841186523,-9267857.551574707,-3195475.5783081055,6890393.7339782715,10091167.449951172,-14600655.555725098,-14091856.956481934,-14094727.516174316,-16386423.110961914,-10712150.573730469,-8925721.168518066,-9233769.416809082,-14145657.539367676,-14009813.30871582,-16422967.910766602,-10178763.389587402,-8772973.06060791
0.165,-7807224.750518799,9949501.991271973,27381378.173828125,3673811.435699463,23423063.278198242,-16150495.529174805,-9070826.530456543,-3396287.202835083,-2883497.476577759,3919171.3333129883,13567600.25024414,28144273.75793457,38534214.01977539,30713939.666748047,-7544670.104980469,-8365761.756896973,-4312556.743621826,-4370906.829833984,7447.230163961649,7770607.948303223,16944856.643676758,17063711.166381836,26447553.634643555,-8490565.299987793,-8734381.675720215,-333653.92684936523,-10100139.617919922,-8116062.164306641,-199361.26470565796,7854524.1355896,19596269.607543945,15353878.021240234,-13835864.067077637,-21711118.698120117,-13747596.740722656,-15147220.611572266,-8437257.766723633,-324821.68078422546,2122475.3856658936,70383575.43945312,-29834224.700927734,-14568098.068237305,-15229699.13482666,-21858369.827270508,-17966667.17529297,-24149665.83251953,-8507809.63897705,-1510186.0761642456,8420406.341552734,12252819.061279297,-14666401.863098145,-13991730.690002441,-14164769.172668457,-15827097.89276123,-10558830.261230469,-8812009.811401367,-8958555.221557617,-14245743.751525879,-14074734.687805176,-16167741.775512695,-10039447.784423828,-8595681.190490723
0.17,-7880043.983459473,12361821.174621582,31796031.951904297,3261756.181716919,29011749.267578125,-18137742.99621582,-12115007.400512695,-4722340.106964111,-4291784.286499023,5471375.465393066,17800222.396850586,33611763.00048828,44385551.45263672,35402378.08227539,-9728389.739990234,-11053219.79522705,-6142297.267913818,-5975392.818450928,574856.9369316101,10287178.039550781,21319101.333618164,20456733.70361328,29953393.936157227,-10876578.330993652,-12829311.37084961,-2428601.7417907715,-11476388.931274414,-8065670.967102051,1655898.2133865356,12826224.327087402,23107736.587524414,19299245.834350586,-16527814.865112305,-24645158.767700195,-15886903.762817383,-15746115.684509277,-8180930.137634277,-381293.1776046753,5530705.451965332,69556327.81982422,-24809923.17199707,-17222827.911376953,-18005804.06188965,-22362001.419067383,-17265417.098999023,-22531759.26208496,-6714326.858520508,956361.4726066589,10954170.227050781,14102479.934692383,-17537748.336791992,-16714097.97668457,-16940074.920654297,-14668853.759765625,-11710553.169250488,-9857698.440551758,-9855728.149414062,-17080560.6842041,-17032026.290893555,-15154583.930969238,-11070151.329040527,-9922636.985778809
0.175,-11968889.236450195,8945405.960083008,30104356.76574707,348023.32520484924,28580898.28491211,-20547286.987304688,-14513548.851013184,-6228915.214538574,-5751629.829406738,4613332.748413086,17407180.786132812,33747974.39575195,43726726.53198242,34764991.760253906,-12209074.020385742,-13735372.543334961,-7541944.980621338,-7430449.00894165,482201.63583755493,11120949.745178223,22311674.118041992,19694013.595581055,30185344.696044922,-13565907.47833252,-16944522.857666016,-4291715.621948242,-12931000.709533691,-7740895.748138428,2401738.405227661,15576655.387878418,24333930.96923828,19818296.432495117,-18634803.771972656,-28485073.08959961,-17924222.946166992,-16395156.860351562,-7843212.604522705,-216539.47234153748,8036051.7501831055,67950630.18798828,-22984683.990478516,-19271091.46118164,-20000295.639038086,-24073169.708251953,-17118467.330932617,-20698360.443115234,-4861997.127532959,3069689.2738342285,13979104.042053223,16090967.178344727,-19537372.589111328,-18730094.90966797,-18885044.09790039,-12937301.635742188,-11352359.771728516,-9391271.591186523,-9265488.624572754,-18988832.473754883,-19131570.81604004,-13369588.851928711,-10634087.562561035,-9837803.840637207
0.18,-16302162.170410156,3699401.617050171,24656539.916992188,-2697036.2663269043,23405988.693237305,-21082693.099975586,-14621250.15258789,-7139471.054077148,-6541810.989379883,2012389.1830444336,13033316.612243652,29245416.64123535,37619186.40136719,30176696.77734375,-12329401.969909668,-14193445.205688477,-7601475.715637207,-7697502.613067627,-613833.9042663574,9564924.240112305,19533327.102661133,15981349.94506836,27765295.028686523,-13724200.248718262,-17328573.22692871,-3975642.9195404053,-13045097.351074219,-7332503.795623779,1673225.5220413208,14633916.854858398,23191516.876220703,17861831.665039062,-17292749.404907227,-29148092.26989746,-17754390.716552734,-15826395.988464355,-7510921.001434326,151001.42359733582,8609858.512878418,66260406.494140625,-24694278.717041016,-17740989.685058594,-18362524.032592773,-24375560.760498047,-16304132.461547852,-19037061.69128418,-3753829.4792175293,3704787.9695892334,15437259.674072266,17841859.817504883,-17800022.12524414,-17122566.22314453,-17192495.346069336,-10510284.423828125,-8198047.637939453,-6320295.810699463,-6193005.561828613,-17180294.036865234,-17370439.529418945,-10871182.441711426,-7561886.310577393,-6804571.628570557
0.185,-18030637.741088867,973281.8603515625,20236057.28149414,-3973821.8784332275,18333156.58569336,-20277511.596679688,-13804254.531860352,-8090680.122375488,-7350911.1404418945,-665024.1613388062,8436177.253723145,24618051.528930664,31868730.545043945,25589500.427246094,-11118266.105651855,-13432751.655578613,-7336069.107055664,-7547216.415405273,-2204655.408859253,7091895.580291748,15896759.033203125,12674015.998840332,24879335.403442383,-12377981.185913086,-15142439.842224121,-2380687.952041626,-12267058.372497559,-7174900.054931641,410996.28806114197,11759595.87097168,20986812.591552734,15651448.249816895,-14046993.255615234,-26991603.85131836,-16074377.059936523,-14444463.729858398,-7312982.082366943,556470.3345298767,7567702.770233154,64722351.07421875,-26296768.188476562,-14292956.352233887,-14864912.033081055,-22720954.89501953,-14748207.092285156,-18085872.650146484,-3801693.4394836426,2488036.3941192627,13790040.016174316,17940250.396728516,-14222925.186157227,-13635029.792785645,-13680232.048034668,-8771461.486816406,-5531028.270721436,-3886735.200881958,-3941637.5160217285,-13642807.006835938,-13659169.19708252,-9169660.568237305,-5033009.5291137695,-4012355.8044433594
0.19,-16680086.135864258,1490711.3313674927,19430034.637451172,-3101064.443588257,16962247.848510742,-19590450.286865234,-13536885.261535645,-8874109.268188477,-7986861.228942871,-1368743.7772750854,7042915.821075439,23536226.272583008,30574846.267700195,23597423.553466797,-10698089.599609375,-13383543.968200684,-7486438.274383545,-7643141.746520996,-2822802.5436401367,6000087.738037109,14524258.613586426,11641628.26538086,23251211.166381836,-11780072.212219238,-14040727.615356445,-1551878.0946731567,-12038390.159606934,-7432140.827178955,-302779.9427509308,9764202.117919922,19209981.91833496,14225050.926208496,-13034422.874450684,-25973131.17980957,-15574684.143066406,-14293538.093566895,-7397947.788238525,806598.5441207886,6020010.471343994,63490589.1418457,-25221427.91748047,-13298727.989196777,-13897438.049316406,-22268560.4095459,-14800717.3538208,-18904823.303222656,-5009407.043457031,206092.4917459488,10247050.285339355,16080829.620361328,-13289797.78289795,-12711171.15020752,-12765163.42163086,-9931467.056274414,-6970737.934112549,-5486974.716186523,-5787527.561187744,-12820855.140686035,-12634133.338928223,-10360596.656799316,-6492858.88671875,-5247823.715209961
0.195,-13279016.494750977,3811495.780944824,21974775.314331055,-465027.0342826843,19626197.814941406,-19255651.473999023,-13114654.541015625,-7595089.435577393,-6605447.292327881,1333832.5023651123,9813166.618347168,26379598.61755371,32933403.01513672,24622148.513793945,-11451801.300048828,-14077001.571655273,-7077495.574951172,-7096657.276153564,-1049381.2561035156,7585659.980773926,16240966.796875,12485594.749450684,23492364.88342285,-12407162.6663208,-15477930.068969727,-1937978.982925415,-12702202.796936035,-7828186.988830566,-100359.57396030426,9823303.22265625,18609455.108642578,13483162.879943848,-15818600.65460205,-28572742.462158203,-17849708.557128906,-16594350.814819336,-7679738.998413086,852444.1719055176,4844602.584838867,62851398.46801758,-22574888.229370117,-16294548.034667969,-17038211.822509766,-26200529.098510742,-18407752.990722656,-21706232.07092285,-6858702.659606934,-1976594.8057174683,7521401.882171631,14204010.009765625,-16443845.748901367,-15893092.155456543,-15947403.907775879,-14055458.068847656,-10881781.578063965,-9369855.880737305,-9800091.743469238,-16005784.98840332,-15817427.635192871,-14328939.437866211,-10278396.606445312,-9030087.4710083
0.2,-9513713.836669922,6859393.59664917,26100053.787231445,3235944.986343384,23993360.51940918,-18065015.79284668,-10867836.952209473,-3413916.826248169,-2469095.468521118,6339643.478393555,14570967.674255371,30553564.071655273,35259700.775146484,27458402.633666992,-11570260.047912598,-13663066.864013672,-4988476.753234863,-4894165.515899658,2527145.3857421875,10835776.329040527,19151073.455810547,13798190.116882324,25022821.4263916,-12464550.018310547,-17083787.91809082,-2061259.7465515137,-13126287.460327148,-7830669.403076172,579842.6866531372,10847861.289978027,18899208.068847656,13298828.125,-18891870.498657227,-32318126.678466797,-21105093.002319336,-19690261.840820312,-7771308.422088623,810707.2114944458,4188035.9649658203,62692497.25341797,-20738056.182861328,-19494626.998901367,-20522386.55090332,-32427951.81274414,-23323369.9798584,-24417291.64123535,-8366965.293884277,-3455142.9748535156,6757703.3042907715,14354730.606079102,-19721235.275268555,-19281986.236572266,-19333744.049072266,-17737607.955932617,-11979504.585266113,-10354935.646057129,-10807497.024536133,-19206565.856933594,-19174358.367919922,-17728380.20324707,-11220146.179199219,-10002862.930297852
0.205,-7652144.908905029,9002432.823181152,28519559.860229492,6093297.958374023,25887653.350830078,-14915181.159973145,-7073472.97668457,743683.1593513489,1458547.7113723755,9286012.649536133,16606130.599975586,31733211.517333984,33950771.33178711,28712793.350219727,-8778674.125671387,-10938562.393188477,-2168273.92578125,-2058111.4292144775,4713102.340698242,12534872.055053711,19706304.5501709,13439245.223999023,25462165.83251953,-9676621.437072754,-15383615.493774414,-516076.4455795288,-12346163.749694824,-7210565.567016602,696116.2090301514,10629183.769226074,18626173.01940918,12862579.345703125,-17192825.317382812,-31965862.274169922,-21268276.21459961,-20245418.548583984,-7378664.493560791,802155.1370620728,3469322.443008423,61925308.22753906,-20748012.54272461,-17728416.442871094,-18963817.596435547,-34239463.806152344,-24200109.481811523,-23948804.85534668,-8651679.992675781,-4085389.6141052246,6955981.731414795,15922307.968139648,-17876646.041870117,-17558666.229248047,-17615512.84790039,-17095726.013183594,-8268752.098083496,-6600728.0349731445,-7152074.813842773,-17353168.487548828,-17399114.60876465,-16952754.974365234,-7422988.8916015625,-6065783.500671387
0.21,-9148979.187011719,7650477.409362793,25844423.294067383,5560271.739959717,21790416.717529297,-10487025.260925293,-4365560.054779053,656606.6145896912,1096999.7644424438,6231999.87411499,12268816.947937012,26802391.052246094,27488584.518432617,24450561.5234375,-3045518.8751220703,-7131983.757019043,-837669.2533493042,-828762.2928619385,2693416.8338775635,9981014.251708984,15516661.643981934,9247301.10168457,21791633.60595703,-4006572.723388672,-9780407.905578613,2413143.3963775635,-10757605.55267334,-6334743.976593018,-669846.5943336487,7788881.778717041,15975929.260253906,10098151.206970215,-10270750.999450684,-25436820.98388672,-16252239.227294922,-16875303.268432617,-6699816.2269592285,805257.8568458557,1706935.7633590698,59147743.225097656,-22630964.279174805,-10756806.373596191,-11762286.186218262,-27896604.537963867,-18661634.44519043,-19716138.83972168,-7794095.039367676,-3998399.496078491,6877147.674560547,16102190.017700195,-10785943.031311035,-10481202.125549316,-10523709.297180176,-12286059.379577637,-3964277.2674560547,-2353578.0906677246,-3146432.1613311768,-10418404.579162598,-10400857.925415039,-12290966.987609863,-3102962.017059326,-1549094.319343567
0.215,-13079720.497131348,2353040.4567718506,18605224.609375,1039588.6898040771,12861958.503723145,-7916254.52041626,-5331432.342529297,-4217098.236083984,-3869101.2859344482,-1500138.6404037476,3354259.729385376,17592683.792114258,18134862.899780273,15568963.050842285,1664477.9443740845,-5305731.773376465,-2011090.5170440674,-2133063.793182373,-2437352.418899536,4258118.629455566,8345168.113708496,2022439.2414093018,14417800.903320312,634458.7206840515,-4098959.445953369,4806835.174560547,-9631150.245666504,-5783799.648284912,-3165153.980255127,3398639.678955078,11012856.483459473,4432976.245880127,-3674949.4075775146,-17113246.91772461,-9103322.982788086,-11925278.663635254,-6222091.6748046875,698466.1221504211,-1432033.1811904907,54501140.59448242,-25835027.69470215,-4294112.205505371,-4596005.439758301,-17936769.485473633,-10631430.625915527,-14719945.907592773,-6796848.773956299,-3748446.226119995,6339229.106903076,13528130.531311035,-4334107.398986816,-3913087.6064300537,-3899189.4721984863,-7485789.2990112305,-4183107.852935791,-2659164.6671295166,-3673919.677734375,-4089574.8138427734,-4059086.322784424,-7732755.661010742,-3333954.8110961914,-1770236.4921569824
0.22,-17277557.373046875,-3168439.8651123047,12521981.239318848,-4930545.330047607,5628974.914550781,-11123353.004455566,-10228391.647338867,-10054795.265197754,-9560608.863830566,-7929667.4728393555,-3397176.504135132,10926987.648010254,12072628.021240234,10173611.640930176,-157188.10260295868,-7916101.455688477,-4866158.485412598,-5000664.234161377,-6523219.585418701,-86583.12261104584,3690861.225128174,-2678191.4234161377,9556488.990783691,-1181537.2705459595,-3634390.115737915,4499525.07019043,-9994695.663452148,-5763514.518737793,-4942698.001861572,725558.1617355347,7218243.598937988,165665.26889801025,-2917827.606201172,-13978224.754333496,-5725947.380065918,-9151074.409484863,-6164949.893951416,410934.8654747009,-4530856.132507324,50680377.96020508,-28122257.232666016,-3681311.60736084,-3317885.637283325,-12603137.016296387,-6122198.581695557,-12253848.0758667,-6376382.350921631,-3817612.648010254,5926809.310913086,10658392.906188965,-3865718.8415527344,-3284284.5916748047,-3204955.1010131836,-5862742.4240112305,-8353430.74798584,-6883935.451507568,-7960656.16607666,-3476371.7651367188,-3610885.8585357666,-6218139.6484375,-7529617.786407471,-6137300.491333008
0.225,-20937494.2779541,-4704912.6625061035,13003773.68927002,-9034738.540649414,6149559.020996094,-20983793.258666992,-16924058.91418457,-13165854.454040527,-12489957.809448242,-8674834.251403809,-2757182.836532593,12657736.778259277,15008013.725280762,16486129.760742188,-9514431.953430176,-14428255.081176758,-8098107.33795166,-8095788.955688477,-6919488.906860352,490555.91225624084,5925815.582275391,1158416.748046875,14413781.16607666,-10418152.809143066,-9783595.085144043,998449.0871429443,-11945327.758789062,-6022393.226623535,-4312689.304351807,2440217.2565460205,9137437.82043457,3513850.9273529053,-6971692.085266113,-18293575.286865234,-8891263.008117676,-10078147.888183594,-6327666.759490967,-13636.190444231033,-5178303.241729736,50978263.85498047,-26300394.05822754,-7634044.170379639,-7259448.051452637,-14985214.233398438,-7003505.706787109,-12628101.348876953,-6177643.299102783,-3617337.703704834,6598555.088043213,11613615.989685059,-7911590.099334717,-7229470.252990723,-7130907.05871582,-6273735.523223877,-10685992.240905762,-9232962.608337402,-10289880.752563477,-7218719.005584717,-7553525.447845459,-6628160.47668457,-9898667.335510254,-8619892.120361328
0.23,-24182699.20349121,-2284510.850906372,19144006.729125977,-10089067.459106445,13611388.206481934,-32888622.283935547,-22424257.278442383,-13370139.122009277,-12690195.083618164,-5105344.295501709,3746986.8659973145,21485916.137695312,25936460.494995117,33013984.68017578,-20173931.121826172,-21135740.280151367,-10704775.8102417,-10567088.12713623,-4890489.101409912,4942317.485809326,13756622.314453125,12921187.400817871,28815759.658813477,-20858907.69958496,-17905185.69946289,-3553220.03364563,-14519251.823425293,-6243724.822998047,-1552964.687347412,7819742.202758789,17527009.963989258,14829784.393310547,-9859377.86102295,-25342393.87512207,-15311729.431152344,-13088462.829589844,-6454771.995544434,-462398.4396457672,-2328267.3358917236,55913612.365722656,-19667201.99584961,-10222102.165222168,-10556295.394897461,-20915140.15197754,-10441686.630249023,-13957926.750183105,-5407773.017883301,-1720872.9982376099,9549448.96697998,17768051.147460938,-10407013.893127441,-9741733.55102539,-9673313.14086914,-5922161.102294922,-6876322.7462768555,-5436705.112457275,-6494623.66104126,-9598749.160766602,-9970564.842224121,-6302966.117858887,-6099415.302276611,-4742614.74609375
0.235,-25694780.349731445,759517.5504684448,25234176.635742188,-9103346.824645996,21407184.600830078,-39642749.78637695,-24605087.280273438,-12520587.921142578,-11966788.291931152,-1598300.6954193115,10152793.884277344,30285459.518432617,36896530.15136719,48802532.19604492,-24484678.268432617,-24067857.74230957,-11862991.333007812,-11733911.514282227,-3165874.242782593,9223706.245422363,21510164.260864258,24752395.629882812,43753047.943115234,-24927698.135375977,-21959642.41027832,-6116890.907287598,-16335042.953491211,-6313040.733337402,1399291.1577224731,13281693.458557129,27691432.95288086,26512437.82043457,-8548044.204711914,-29380304.33654785,-19691301.345825195,-15667832.374572754,-6494185.924530029,-795891.6425704956,2350926.637649536,62201839.447021484,-11640800.476074219,-8689468.383789062,-9903074.264526367,-25231796.264648438,-13278881.072998047,-14949716.567993164,-3975929.2602539062,2004480.1235198975,14885738.372802734,25993947.982788086,-8691804.885864258,-8156237.602233887,-8101388.931274414,-4559011.936187744,1034337.7590179443,2421415.328979492,1446588.0393981934,-8055973.052978516,-8315798.759460449,-4949684.619903564,1874622.7025985718,3385283.946990967
0.24,-24115364.07470703,1859876.5134811401,27069824.21875,-7757540.225982666,24098773.956298828,-38357559.20410156,-23602067.947387695,-11751794.815063477,-11229164.123535156,-545192.7185058594,12421418.190002441,33384696.96044922,40455947.87597656,54307197.57080078,-21925832.748413086,-22715431.213378906,-11448348.999023438,-11419619.5602417,-2716825.485229492,10674289.70336914,24660648.345947266,29093740.463256836,49746654.51049805,-22240022.659301758,-21145311.35559082,-5907549.3812561035,-16800571.44165039,-6251224.517822266,2866499.423980713,15682415.962219238,33457347.869873047,30658067.70324707,-6721659.6603393555,-30233634.94873047,-20642269.134521484,-16701251.983642578,-6473409.652709961,-869097.9480743408,5812505.24520874,65455665.588378906,-6982351.303100586,-6852194.309234619,-8524765.968322754,-27209663.39111328,-14768074.035644531,-15649917.602539062,-2740867.3763275146,5012997.627258301,19911575.317382812,31046524.047851562,-6774238.109588623,-6406139.373779297,-6284321.7849731445,-4330986.022949219,6631888.389587402,7933837.413787842,7257250.785827637,-6306923.866271973,-6460065.841674805,-4574241.161346436,7581133.3656311035,9151886.940002441
0.245,-22025772.094726562,312541.1570072174,24622478.485107422,-7609368.324279785,21688617.706298828,-33425548.553466797,-21729866.02783203,-11352290.153503418,-10692994.117736816,-1361022.4723815918,11092577.934265137,31189338.68408203,36811141.96777344,50107963.56201172,-18899450.302124023,-20205532.07397461,-10645567.893981934,-10654368.40057373,-2774838.447570801,9931568.145751953,23350954.055786133,25754024.505615234,46024318.69506836,-19290220.260620117,-19863363.26599121,-4953898.906707764,-16621160.507202148,-6129772.663116455,2616478.443145752,14666801.452636719,32807636.260986328,27499509.811401367,-9164798.736572266,-31751970.291137695,-20910745.62072754,-16669958.114624023,-6386348.724365234,-617601.9906997681,6228596.6873168945,64147148.13232422,-7495178.22265625,-9384869.575500488,-10980554.580688477,-28873456.954956055,-15377295.49407959,-16274078.369140625,-2656607.3894500732,4373168.468475342,20817371.368408203,30145801.544189453,-9364132.88116455,-9087602.615356445,-8835656.16607666,-6171270.370483398,5636498.928070068,6904867.649078369,6585236.072540283,-8794293.403625488,-8932439.804077148,-6179605.960845947,6628287.315368652,8121977.806091309
0.25,-24166719.436645508,-3660250.663757324,19984735.4888916,-9485534.66796875,17648468.017578125,-31523584.365844727,-21515117.645263672,-11776677.131652832,-10989901.542663574,-2630650.9971618652,8857023.239135742,27830862.045288086,32206752.77709961,44009445.19042969,-20104871.74987793,-19611480.712890625,-10850883.483886719,-10787752.151489258,-2606719.732284546,9126359.939575195,20797489.166259766,20522033.69140625,39921478.271484375,-20661090.850830078,-21211479.18701172,-5105106.830596924,-16718677.520751953,-6062906.265258789,1443897.3665237427,11981991.7678833,28897104.263305664,23671981.811523438,-14850064.277648926,-35116760.25390625,-22435230.255126953,-16467182.159423828,-6283128.73840332,-177538.33532333374,4106760.5018615723,60354301.45263672,-11163808.822631836,-15150640.487670898,-16426435.470581055,-30687515.258789062,-15256506.91986084,-16786464.69116211,-3893387.3176574707,321902.8413295746,16872812.271118164,25182260.513305664,-15177911.758422852,-14865115.16571045,-14517178.535461426,-8474306.106567383,-41712.57093548775,1317369.6994781494,1090216.875076294,-14353081.703186035,-14580910.682678223,-8410717.964172363,864607.8705787659,2203724.145889282
0.255,-29442123.413085938,-7643229.4845581055,15995539.665222168,-12015014.6484375,15173468.589782715,-34061946.868896484,-23148536.682128906,-12901162.147521973,-12151686.668395996,-3153591.6328430176,7683976.650238037,26191883.087158203,31161815.643310547,41858768.463134766,-23373968.12438965,-20810728.073120117,-11805010.795593262,-11633909.225463867,-1975767.2548294067,9434885.025024414,19501026.153564453,18093734.741210938,37813713.07373047,-23948734.283447266,-23273420.333862305,-5749763.965606689,-16995811.462402344,-6100391.864776611,310664.17694091797,9431893.348693848,25743991.85180664,23056283.950805664,-18482543.9453125,-37279094.69604492,-23903087.615966797,-16562179.565429688,-6265910.1486206055,148011.63971424103,1309292.9124832153,56792999.267578125,-15057677.268981934,-18882856.369018555,-19900726.318359375,-31424440.383911133,-14697328.567504883,-17407480.239868164,-5742568.016052246,-3790121.078491211,11538226.127624512,20306837.08190918,-18841581.344604492,-18441061.01989746,-18107833.862304688,-9479586.601257324,-4761311.5310668945,-3251403.0933380127,-3708335.6380462646,-17908651.35192871,-18336856.842041016,-9573455.810546875,-3961329.936981201,-2772846.221923828
0.26,-29771751.403808594,-6965895.652770996,15908802.032470703,-11853084.564208984,15663019.180297852,-35984657.287597656,-24098001.48010254,-13112839.698791504,-12474717.140197754,-1885542.631149292,8207810.401916504,26270708.084106445,32503723.14453125,42963645.935058594,-23957849.502563477,-21326772.689819336,-11884466.171264648,-11618194.580078125,-730002.9993057251,10445336.34185791,19508890.15197754,18082790.37475586,38656082.15332031,-24399564.743041992,-22931243.896484375,-5443581.581115723,-16817689.895629883,-6119672.2984313965,-226006.25455379486,7671607.01751709,23951213.836669922,22574716.567993164,-17457902.908325195,-36123542.78564453,-23767942.428588867,-16922746.658325195,-6323844.909667969,141537.27889060974,-732340.9914970398,53977054.595947266,-18136447.90649414,-17998039.24560547,-18931146.6217041,-30912246.704101562,-14451433.181762695,-18307268.142700195,-7286781.311035156,-5421091.079711914,8490523.338317871,17656679.153442383,-17859004.974365234,-17426437.377929688,-17186723.709106445,-9092283.248901367,-5013257.026672363,-3444262.0277404785,-4170155.5252075195,-17019216.537475586,-17669357.299804688,-9355026.245117188,-4162402.1530151367,-3041905.164718628
0.265,-21368844.985961914,-396562.99352645874,20302707.67211914,-7551123.142242432,18255794.525146484,-32554714.20288086,-21960130.69152832,-11037093.162536621,-10397513.389587402,855658.5311889648,9669704.43725586,26659854.888916016,32634590.14892578,43338565.826416016,-20974599.838256836,-19541435.24169922,-10403738.021850586,-10051214.218139648,717146.9330787659,10926527.02331543,19404985.427856445,17464803.69567871,37314929.9621582,-21431232.452392578,-20631557.46459961,-4395127.296447754,-16309967.041015625,-5992623.329162598,-409407.73487091064,6288220.8824157715,21467464.447021484,18049007.415771484,-14080307.960510254,-33555992.126464844,-23003639.221191406,-17191856.384277344,-6347548.484802246,-110547.72138595581,-2019256.1149597168,51034427.642822266,-20858699.798583984,-14697148.323059082,-15699631.690979004,-30322996.139526367,-14669728.27911377,-19003568.649291992,-8246144.2947387695,-5464630.603790283,7952658.653259277,16261524.200439453,-14596207.618713379,-14176752.090454102,-14006445.88470459,-8088082.313537598,-2267165.184020996,-766071.9156265259,-1573451.3998031616,-13838645.935058594,-14509778.97644043,-8343194.007873535,-1197454.6909332275,-35330.59358596802
0.27,-13207302.09350586,5168334.9609375,24107877.731323242,-2783271.7895507812,19911342.62084961,-25924308.77685547,-17799852.37121582,-8107487.678527832,-7345447.063446045,2482435.2264404297,10038493.156433105,26231805.8013916,30625459.671020508,41189804.07714844,-17541713.71459961,-16425935.745239258,-8634193.420410156,-8243808.746337891,1020920.3958511353,9976455.688476562,18268251.419067383,15160695.07598877,32572277.069091797,-18298875.80871582,-19087411.880493164,-3750125.4081726074,-16240821.838378906,-5851164.3409729,-1110365.629196167,4666090.01159668,17857482.91015625,11377074.241638184,-11307964.324951172,-32102531.43310547,-23051673.889160156,-17008995.056152344,-6362297.534942627,-313341.3791656494,-3449006.7958831787,48442024.23095703,-22999990.463256836,-11842084.884643555,-12977120.399475098,-29969154.357910156,-14548595.428466797,-19077203.75061035,-9123780.250549316,-6264110.088348389,8031088.829040527,14936592.102050781,-11926283.836364746,-11462240.219116211,-11289665.222167969,-7123900.413513184,-201404.04999256134,1238471.1503982544,461269.1402435303,-11105257.034301758,-11506429.672241211,-7241064.071655273,1039203.5245895386,2268940.4487609863
0.275,-17021833.419799805,1322221.7559814453,20955854.415893555,-3008534.1930389404,17782918.93005371,-22967685.69946289,-15580214.500427246,-7527135.848999023,-6688015.937805176,611563.4441375732,7718140.125274658,24599264.14489746,28287115.0970459,37976596.83227539,-16341451.644897461,-14365091.323852539,-8146499.6337890625,-7832104.206085205,-663890.0637626648,7863474.8458862305,16447555.541992188,12686008.45336914,28576787.9486084,-17324447.631835938,-19029745.10192871,-3377021.074295044,-16688114.166259766,-5927694.320678711,-2761262.6552581787,2837829.828262329,15555827.140808105,8481896.40045166,-9580167.770385742,-31507087.70751953,-22919906.616210938,-16380001.068115234,-6487842.082977295,-284125.9241104126,-5355319.976806641,47976379.39453125,-23141693.115234375,-9943468.09387207,-11103585.243225098,-28862512.588500977,-13604476.928710938,-19050506.591796875,-10294874.19128418,-8154298.782348633,7971498.012542725,14357927.322387695,-10175698.280334473,-9591019.630432129,-9403135.299682617,-6912344.455718994,-316762.0599269867,1158827.1856307983,382320.3444480896,-9256142.616271973,-9362188.339233398,-6875616.550445557,849272.0723152161,2058153.8677215576
0.28,-29536972.045898438,-9197549.819946289,12347423.553466797,-7857018.947601318,13230135.917663574,-26251077.65197754,-17264589.309692383,-9818487.167358398,-9048805.236816406,-3010721.6835021973,4167102.813720703,22433071.13647461,26683967.59033203,34968696.59423828,-17225641.25061035,-14635697.364807129,-8912337.303161621,-8738833.4274292,-2916594.5053100586,6039769.172668457,14879826.545715332,10928133.964538574,27777423.858642578,-17972002.029418945,-19105434.41772461,-2466777.0862579346,-16880512.237548828,-6118366.241455078,-4516013.622283936,1401051.2828826904,15752010.345458984,10394925.117492676,-8632287.979125977,-30857397.079467773,-21046289.443969727,-15795272.827148438,-6609834.19418335,-110339.51491117477,-6995964.050292969,49310401.916503906,-21162744.522094727,-8906411.170959473,-9840177.536010742,-26943428.03955078,-12549519.538879395,-19550281.524658203,-11190984.725952148,-9383206.367492676,7957862.854003906,14781282.424926758,-9085700.035095215,-8420474.0524292,-8269972.801208496,-8002924.919128418,-1312022.089958191,181991.18971824646,-572634.6373558044,-8177329.063415527,-8300102.233886719,-7830307.960510254,-407819.06247138977,708861.5894317627
0.285,-33516357.421875,-13071627.616882324,7758538.722991943,-9597510.33782959,11494292.259216309,-28622144.69909668,-18836261.749267578,-10877784.729003906,-10258712.768554688,-3236902.4753570557,3261467.695236206,21218067.169189453,24490665.435791016,30183258.056640625,-17294124.603271484,-15177186.012268066,-9184958.457946777,-9058896.0647583,-2908105.8502197266,5931756.496429443,13893066.40625,8008958.81652832,25692577.362060547,-17610940.93322754,-18279602.05078125,-1352338.6716842651,-16360254.287719727,-6048991.680145264,-5223647.594451904,349423.94495010376,15050891.876220703,10270917.892456055,-8906720.161437988,-30833158.493041992,-18690019.607543945,-15813361.167907715,-6436235.9046936035,20113.21112513542,-7986392.974853516,48791023.25439453,-20322916.03088379,-9265094.757080078,-9797901.153564453,-25869880.67626953,-12422245.025634766,-20331682.205200195,-11178474.426269531,-9186573.98223877,6999686.717987061,13750931.739807129,-9273464.20288086,-8648190.49835205,-8550833.702087402,-9809222.221374512,-1946488.857269287,-592001.3785362244,-1206546.664237976,-8448218.34564209,-8839713.096618652,-9552370.071411133,-1267808.3181381226,-158179.05962467194
0.29,-19339309.692382812,-3029567.9569244385,12695963.859558105,-1598484.6353530884,15453759.19342041,-19190879.821777344,-13173114.776611328,-6028274.5361328125,-5539618.015289307,2716192.9607391357,6897523.403167725,21808921.813964844,20115211.486816406,20448040.008544922,-11834268.569946289,-11050394.058227539,-6781548.976898193,-6543549.060821533,634328.0673027039,7600747.108459473,12990458.488464355,1715607.2854995728,16387081.146240234,-12237832.069396973,-15528586.387634277,-438715.1896953583,-15352114.6774292,-5704047.679901123,-5108443.260192871,-1336541.1758422852,9289111.137390137,2039879.0836334229,-9427164.077758789,-31003351.21154785,-18368131.637573242,-16489223.48022461,-6058279.037475586,67361.37717962265,-9536964.416503906,43730136.87133789,-24493417.739868164,-10014711.380004883,-10250568.389892578,-26634731.29272461,-13532896.041870117,-21317634.58251953,-11182048.797607422,-9374021.530151367,3783623.9337921143,9050642.013549805,-9996792.793273926,-9455053.329467773,-9337520.599365234,-11048192.977905273,-2761713.0279541016,-1612511.8732452393,-2059415.578842163,-9202145.57647705,-9724194.526672363,-10813837.051391602,-2161422.7294921875,-866187.6916885376
0.295,1832944.1547393799,11740637.77923584,20815099.716186523,12999227.523803711,21265506.744384766,4200810.90927124,1664450.5262374878,4142208.5762023926,4546352.863311768,11489614.486694336,12227450.370788574,23200624.465942383,14302993.774414062,6728985.30960083,2065605.878829956,735338.568687439,-985150.158405304,-599759.5191001892,5837852.954864502,9706698.417663574,11759296.417236328,-6593097.20993042,1919883.4896087646,860424.816608429,-8916251.182556152,1824734.6878051758,-13999035.835266113,-5592276.573181152,-5545784.473419189,-4221249.103546143,109367.39295721054,-10408493.041992188,-7419562.816619873,-28049365.997314453,-19470584.869384766,-17263938.903808594,-6031517.505645752,157438.82954120636,-12989850.997924805,36672958.37402344,-32856937.408447266,-8296946.5255737305,-8521816.25366211,-27854070.66345215,-15436811.447143555,-23444540.02380371,-13074261.665344238,-12142745.018005371,-747620.2249526978,2994329.9293518066,-8518124.5803833,-7996644.020080566,-7787242.412567139,-11567501.068115234,-4709716.320037842,-3604049.6826171875,-4021426.6777038574,-7709916.591644287,-8040351.867675781,-11388943.672180176,-4120618.3433532715,-2518992.9008483887
0.3,12278566.360473633,17294416.427612305,22403778.076171875,23945196.1517334,22694898.60534668,30278419.494628906,18334907.53173828,13367046.356201172,13722121.238708496,16715385.437011719,14456626.892089844,23374658.584594727,9671204.566955566,-4665974.6170043945,20353799.81994629,16045196.533203125,5906495.571136475,6308172.702789307,9176437.377929688,10613315.58227539,10377250.671386719,-12469689.36920166,-8258706.092834473,18253282.54699707,1370864.0336990356,6954582.691192627,-12358839.988708496,-6011077.880859375,-7029640.674591064,-7060473.918914795,-5796950.340270996,-16931457.51953125,-2531038.761138916,-20654523.849487305,-18699987.411499023,-17390989.303588867,-6572450.637817383,383361.42897605896,-17144906.997680664,32984836.57836914,-39338802.337646484,-3655319.6907043457,-4042819.023132324,-27607250.213623047,-17080757.14111328,-26563642.501831055,-16684270.858764648,-16880149.841308594,-3904057.025909424,553340.8522605896,-4182911.8728637695,-3647655.248641968,-3381351.2325286865,-12258795.738220215,-7198498.249053955,-5952802.658081055,-6455417.156219482,-3444242.7158355713,-3498119.115829468,-12000011.444091797,-6641779.42276001,-4786066.53213501
0.305,8513787.269592285,11786317.825317383,16485754.013061523,24621263.50402832,18121736.526489258,44286907.19604492,26580936.431884766,15528329.849243164,15874946.594238281,14908900.260925293,11379206.657409668,20974330.90209961,7235911.3693237305,-8903347.01538086,33045692.443847656,25683933.25805664,9491868.97277832,9737322.807312012,8288872.718811035,9280441.284179688,8653009.414672852,-13915970.802307129,-9051619.529724121,30608127.59399414,10087036.1328125,12628583.908081055,-11265152.931213379,-6453305.244445801,-8516546.249389648,-8318437.576293945,-5337115.76461792,-14181620.597839355,1022617.3400878906,-13965889.930725098,-15324302.673339844,-16544324.87487793,-7015083.312988281,667219.2215919495,-18966239.92919922,34075893.40209961,-39162879.943847656,-203548.8486289978,-707511.0673904419,-26159717.559814453,-17016353.607177734,-27749801.635742188,-18866161.346435547,-20238042.8314209,-4532987.117767334,2825527.9064178467,-828044.2357063293,-334415.0483608246,-111345.14212608337,-12849109.649658203,-8384071.350097656,-7054429.054260254,-7588649.749755859,-266262.14385032654,-235712.55803108215,-12391988.754272461,-7844049.93057251,-5919220.447540283
0.31,582465.410232544,3802364.1109466553,9054870.60546875,17672267.91381836,10769522.666931152,42623718.26171875,23826311.111450195,10451119.422912598,10811456.680297852,7674548.625946045,4404298.782348633,15947316.16973877,4544704.437255859,-9435173.034667969,34282958.984375,24982124.32861328,7500887.870788574,7493319.511413574,3780862.331390381,5739949.2263793945,5509347.915649414,-14609403.610229492,-6782105.922698975,32014686.584472656,11596033.096313477,14399236.679077148,-11783790.588378906,-6206343.173980713,-9208838.46282959,-8674995.422363281,-3643278.8372039795,-10383568.76373291,-548421.6213226318,-14245263.09967041,-12730506.896972656,-15135646.82006836,-6601472.854614258,818006.5155029297,-17829292.29736328,35387561.7980957,-35080097.19848633,-1718086.838722229,-2259548.1872558594,-25533782.958984375,-14745146.751403809,-24647834.77783203,-17294595.71838379,-20015899.658203125,-4292000.770568848,5180658.340454102,-2229732.2750091553,-1807624.5784759521,-1662420.630455017,-11903839.111328125,-7464061.260223389,-6259964.466094971,-6731372.833251953,-1791220.784187317,-1855627.7751922607,-11375267.028808594,-6848193.168640137,-5073828.220367432
0.315,-4648627.281188965,-2021237.850189209,2721220.016479492,9893517.49420166,3462630.5103302,34917304.99267578,16994174.95727539,3319612.2646331787,3663062.334060669,-682003.6768913269,-3599443.4356689453,9294734.001159668,-1356065.5117034912,-14277848.243713379,29063062.66784668,19068408.966064453,2730752.944946289,2484421.491622925,-1272510.051727295,1344004.1542053223,491253.91244888306,-19492227.55432129,-11079261.779785156,27001817.70324707,7146569.25201416,11661546.70715332,-13525190.353393555,-5417154.312133789,-9881825.44708252,-10416170.120239258,-7477683.067321777,-14807415.962219238,-5450303.554534912,-20281143.188476562,-13625454.902648926,-14036906.242370605,-5647040.843963623,683005.2137374878,-17216550.827026367,32050910.94970703,-34972518.92089844,-6521226.406097412,-7147428.512573242,-26769815.44494629,-11984866.14227295,-19830854.415893555,-14198893.547058105,-18315498.35205078,-5602274.417877197,2876136.7797851562,-6952034.473419189,-6530754.566192627,-6406346.797943115,-9919260.97869873,-6368086.814880371,-5325075.626373291,-5774935.245513916,-6438507.556915283,-6631272.792816162,-9556705.474853516,-5585956.09664917,-4118932.2471618652
0.32,-9704856.872558594,-8498551.368713379,-4490761.280059814,4752466.678619385,-3178300.380706787,31117309.5703125,13267552.375793457,-1019236.4454269409,-717959.5828056335,-6343904.0184021,-9849569.320678711,3108654.9758911133,-9167359.352111816,-24941467.28515625,25852069.854736328,15743050.575256348,-50430.67783117294,-398874.34244155884,-3827043.056488037,-1737067.5802230835,-4532311.916351318,-27856107.711791992,-22141216.278076172,23866621.017456055,3163173.9139556885,8562796.592712402,-14832012.176513672,-4983506.679534912,-11436493.873596191,-13905491.828918457,-16142425.537109375,-25896448.135375977,-8999711.036682129,-24949064.254760742,-16487890.243530273,-13778444.290161133,-5230268.478393555,289701.4915943146,-20174270.629882812,24945423.126220703,-42507217.40722656,-10039576.530456543,-10818459.510803223,-28737802.505493164,-11049144.744873047,-18177045.822143555,-13743278.503417969,-19041097.64099121,-9061895.370483398,-3331420.1831817627,-10530252.456665039,-10059141.159057617,-9917414.665222168,-9725980.758666992,-7933242.321014404,-6829942.70324707,-7368713.855743408,-9836196.899414062,-10148344.039916992,-9568400.382995605,-6974496.364593506,-5817666.530609131
0.325,-16663990.020751953,-15975527.7633667,-11229640.96069336,1635909.5573425293,-7809732.913970947,30315553.665161133,12191465.377807617,-1992033.1239700317,-1655419.111251831,-7633915.901184082,-12106790.542602539,109135.18071174622,-13492921.829223633,-33088188.17138672,24947969.436645508,15414956.092834473,167075.2465724945,-60385.85305213928,-3334072.8282928467,-2069900.0358581543,-6532768.726348877,-33386310.577392578,-30510866.165161133,23110881.805419922,2148168.8022613525,7942686.080932617,-15105494.499206543,-5316473.960876465,-12979431.15234375,-16357944.48852539,-22270944.595336914,-33556568.14575195,-9839949.607849121,-25032817.840576172,-18553493.49975586,-14076635.360717773,-5687378.406524658,-108409.79218482971,-24378614.42565918,19893833.16040039,-51668952.94189453,-10871879.577636719,-11741287.231445312,-29881923.67553711,-11840146.0647583,-19964159.01184082,-16046144.485473633,-22110780.715942383,-12575038.90991211,-8122444.152832031,-11398653.984069824,-10964437.484741211,-10844906.8069458,-12199076.652526855,-11802385.330200195,-10457039.833068848,-11063868.522644043,-10656750.679016113,-11059565.544128418,-12086097.717285156,-10759816.16973877,-9747788.429260254
0.33,-21464479.446411133,-19000434.87548828,-12233141.899108887,-373886.1083984375,-8087715.148925781,25183710.0982666,9018614.768981934,-1852290.9879684448,-1334134.9363327026,-5504574.298858643,-10017370.223999023,1572698.5931396484,-10852021.217346191,-30575647.354125977,19828748.70300293,12407068.252563477,240618.5269355774,297582.38792419434,-1635061.9792938232,-107716.94779396057,-4481619.834899902,-31483156.204223633,-28822780.60913086,18288930.892944336,2724.3969962000847,7759138.107299805,-15562835.693359375,-5768048.286437988,-12715399.742126465,-15193195.343017578,-20782594.680786133,-31361993.78967285,-10386437.41607666,-24794557.571411133,-20078199.38659668,-14509966.850280762,-6130011.081695557,-184993.57998371124,-24667264.938354492,21321197.509765625,-52522441.86401367,-11307997.703552246,-12164448.738098145,-30498735.427856445,-12444242.477416992,-20860858.917236328,-17019145.965576172,-22858123.779296875,-12831477.165222168,-7074838.161468506,-11707643.508911133,-11419481.27746582,-11343585.014343262,-14352050.78125,-13657949.447631836,-12190390.586853027,-12699011.80267334,-11118659.973144531,-11482567.78717041,-14166296.005249023,-12710885.047912598,-11625364.303588867
0.335,-21184844.970703125,-15696694.374084473,-7345893.859863281,-1191601.8724441528,-4736155.986785889,14383216.857910156,3058675.2891540527,-2182871.5801239014,-1439567.8043365479,-2934183.8359832764,-6367436.88583374,5401063.919067383,-4250733.375549316,-19738019.943237305,9062794.68536377,5031229.019165039,-1831299.4241714478,-1521553.2779693604,-552292.7045822144,2376419.0673828125,-641515.6126022339,-24556406.021118164,-19633697.509765625,7740909.099578857,-6269658.088684082,5395331.859588623,-17010810.85205078,-5601664.5431518555,-10636333.465576172,-11632020.950317383,-14132228.85131836,-22756959.915161133,-12094566.345214844,-28723966.598510742,-23120895.385742188,-15439292.907714844,-5777680.397033691,124558.38918685913,-20471450.805664062,27338953.018188477,-42969398.498535156,-12800120.35369873,-13708925.247192383,-32545524.59716797,-12861130.714416504,-19499483.108520508,-14902537.34588623,-19013395.309448242,-9020525.932312012,-1007254.2428970337,-13030200.958251953,-12835420.608520508,-12722776.412963867,-14027458.190917969,-10531438.827514648,-9230212.211608887,-9560515.403747559,-12592800.14038086,-12791522.026062012,-13725682.258605957,-9849203.109741211,-8568966.86553955
0.34,-19506006.240844727,-12139201.164245605,-3529042.2439575195,-1560243.9641952515,-2272533.416748047,4974697.589874268,-1565692.5439834595,-3194076.2996673584,-2380689.3825531006,-2878041.5058135986,-5175228.595733643,7627524.852752686,207335.36779880524,-9850005.149841309,-178274.2142677307,-1457412.9581451416,-4349582.672119141,-3950509.3097686768,-475134.2833042145,3732637.405395508,1715594.76852417,-18763338.088989258,-10662961.00616455,-1530911.922454834,-13234305.381774902,2077545.6428527832,-18473569.869995117,-5046054.840087891,-8939438.819885254,-9439374.923706055,-8388324.737548828,-15385986.328125,-13725049.97253418,-35175144.19555664,-27503320.693969727,-17446754.455566406,-5091095.924377441,487234.05599594116,-17209487.915039062,31457353.591918945,-32375946.044921875,-14243718.147277832,-15410928.726196289,-36850315.09399414,-15129509.925842285,-19743549.346923828,-13178480.14831543,-15220844.268798828,-4993502.616882324,4616237.163543701,-14436553.955078125,-14163844.108581543,-13936893.463134766,-13472317.695617676,-5527742.862701416,-4512085.437774658,-4834873.199462891,-13945444.107055664,-14080303.192138672,-12943189.62097168,-5109787.464141846,-3649273.8723754883
0.345,-20793725.967407227,-13430971.145629883,-5059620.8572387695,-3263112.0681762695,-3741178.7509918213,2355125.665664673,-2757394.790649414,-5242969.989776611,-4588338.851928711,-6111433.506011963,-7878775.596618652,6211182.117462158,83706.60990476608,-5776003.360748291,-2152857.3036193848,-3030236.005783081,-5610784.05380249,-5219847.202301025,-1451808.0949783325,3096580.5053710938,1191078.782081604,-17277648.92578125,-6225106.716156006,-3626281.73828125,-16088125.228881836,313284.307718277,-19059944.15283203,-4863194.465637207,-9371321.678161621,-10512239.456176758,-6853483.6769104,-13091335.29663086,-14107680.320739746,-39185802.4597168,-30520729.064941406,-19715410.232543945,-4988491.535186768,533697.4263191223,-18901805.877685547,29335136.41357422,-31396257.400512695,-14557427.406311035,-16030897.14050293,-40888610.83984375,-18595867.156982422,-23003221.51184082,-14706507.682800293,-16705146.789550781,-5211544.036865234,5003642.559051514,-14798922.538757324,-14369348.526000977,-14107514.381408691,-14879150.390625,-4072727.680206299,-3196205.3775787354,-3768739.4618988037,-14112709.999084473,-14441568.374633789,-14058877.944946289,-3718620.3002929688,-2180602.550506592
0.35,-23786577.224731445,-16674535.751342773,-7846726.417541504,-6698375.701904297,-7094471.454620361,3130092.3824310303,-3529893.636703491,-8725975.036621094,-8326950.0732421875,-10859251.022338867,-12153572.082519531,2787823.20022583,-2008171.0815429688,-4622713.088989258,-148972.36227989197,-2687548.1605529785,-6908006.66809082,-6502821.445465088,-3932206.392288208,627450.8833885193,-1043003.3206939697,-18233348.846435547,-5342534.065246582,-1566202.6405334473,-15288575.172424316,-403084.8443508148,-19659002.30407715,-5190295.219421387,-11062698.364257812,-12850317.001342773,-8219591.14074707,-14081758.499145508,-13828865.051269531,-38833820.34301758,-30616058.349609375,-20249134.063720703,-5451166.62979126,326391.8459415436,-22618688.583374023,23855648.040771484,-38848804.47387695,-14291507.720947266,-15790927.88696289,-40924365.99731445,-18882427.215576172,-23993814.46838379,-16532848.358154297,-20654603.958129883,-8097176.551818848,1576768.398284912,-14517004.96673584,-14004332.542419434,-13872616.7678833,-15478384.971618652,-6240589.141845703,-5320866.584777832,-6146644.115447998,-13714444.160461426,-14292137.145996094,-14611147.8805542,-5771357.05947876,-4320736.885070801
0.355,-25015378.952026367,-16886941.90979004,-6865336.894989014,-9574317.932128906,-8445081.71081543,683387.041091919,-6799880.9814453125,-12085903.16772461,-11854704.856872559,-14084218.02520752,-14466582.298278809,707921.7433929443,-2802114.0098571777,-2596122.7416992188,-1129705.786705017,-5201094.627380371,-9453990.936279297,-9028949.737548828,-7025519.371032715,-1891649.7230529785,-2424640.893936157,-18137744.903564453,-5449091.43447876,-2334279.0603637695,-15006584.167480469,-1982091.4268493652,-21187599.182128906,-5484494.686126709,-11707687.377929688,-13049640.655517578,-9177231.788635254,-14422533.988952637,-14382251.739501953,-37130149.841308594,-29597116.470336914,-18674652.099609375,-5732590.198516846,244375.60141086578,-23349699.020385742,21876186.37084961,-43239048.00415039,-14890018.463134766,-16037620.544433594,-37390277.86254883,-14724282.264709473,-19217163.0859375,-14738213.539123535,-20100614.547729492,-7799352.169036865,137248.03924560547,-15048138.618469238,-14532036.781311035,-14537744.522094727,-12473408.699035645,-7563832.2830200195,-6603513.717651367,-7349510.669708252,-14269899.368286133,-14835355.758666992,-11952531.814575195,-7036785.125732422,-5852306.365966797
0.36,-23812662.12463379,-14222872.734069824,-3276142.358779907,-9005801.2008667,-6579437.255859375,-5667295.932769775,-10510660.171508789,-12098511.695861816,-11886706.352233887,-13269432.067871094,-12930763.244628906,2085573.673248291,-1371554.7323226929,130451.90274715424,-6908309.459686279,-9857556.343078613,-10884231.567382812,-10522971.153259277,-7589508.533477783,-1628674.5071411133,-779770.016670227,-15523239.135742188,-5053606.5101623535,-8076511.383056641,-17312534.33227539,-3589251.99508667,-22352706.909179688,-5486769.676208496,-10372097.01538086,-10062803.268432617,-7911189.556121826,-12194984.436035156,-17233324.05090332,-38673934.93652344,-30487051.010131836,-17578109.741210938,-5665107.250213623,400764.7633552551,-21974508.28552246,25088880.53894043,-38639217.376708984,-17811296.463012695,-18515609.741210938,-36021572.11303711,-12192399.978637695,-14803488.731384277,-11890123.36730957,-15908289.909362793,-4223421.573638916,2016922.950744629,-17957895.278930664,-17438695.907592773,-17382297.51586914,-10252049.446105957,-7624821.662902832,-6739294.528961182,-7106620.788574219,-17214565.27709961,-17522790.908813477,-10127853.393554688,-7205409.526824951,-6315869.8081970215
0.365,-21110511.779785156,-11344157.218933105,-487336.6057872772,-4806912.422180176,-3047161.340713501,-10619017.601013184,-10568097.114562988,-7795913.6962890625,-7522485.733032227,-8475927.352905273,-8403849.601745605,6207541.942596436,1633663.535118103,2063687.0861053467,-13410991.668701172,-11938093.185424805,-8202940.940856934,-7963438.510894775,-3675122.4994659424,2233312.8452301025,3620300.29296875,-11719701.766967773,-3903495.0733184814,-14950828.552246094,-20401126.861572266,-2547497.034072876,-21172710.418701172,-5499406.337738037,-8455582.618713379,-6243435.859680176,-5774615.287780762,-9220072.746276855,-22355472.564697266,-44473678.58886719,-33593959.80834961,-19239908.21838379,-5778597.831726074,520295.08352279663,-23763267.517089844,27010875.701904297,-33132076.263427734,-22976652.145385742,-23499956.130981445,-40696823.12011719,-16881826.400756836,-18521232.60498047,-13910594.940185547,-16976545.333862305,-5176069.259643555,1003853.9171218872,-23123891.830444336,-22602931.97631836,-22357519.149780273,-15102823.257446289,-11243182.182312012,-10418045.043945312,-10569137.573242188,-22371128.08227539,-22474977.493286133,-15025999.069213867,-10885698.318481445,-10047284.126281738
0.37,-17576343.536376953,-8957584.381103516,1092394.9480056763,-464922.2195148468,-362722.81408309937,-10405296.325683594,-6853629.589080811,-2968824.1481781006,-2632048.8452911377,-3520027.6374816895,-4351873.397827148,9555796.62322998,4316692.82913208,2813099.6227264404,-15794196.128845215,-9298752.784729004,-3035952.32963562,-2854310.2741241455,1579289.0787124634,6248517.990112305,7200282.096862793,-9736797.332763672,-3263062.7155303955,-17855545.043945312,-21032478.33251953,1265921.711921692,-18228984.832763672,-5616899.013519287,-7976007.461547852,-4947371.482849121,-5879766.941070557,-9157396.31652832,-25956758.499145508,-49168659.21020508,-35341651.916503906,-21779985.427856445,-6125674.247741699,504026.29375457764,-29448780.059814453,21842021.942138672,-37003574.37133789,-26503965.377807617,-27121034.622192383,-46470485.68725586,-24074542.999267578,-26609254.837036133,-20085620.880126953,-25806095.123291016,-13991729.736328125,-7020995.616912842,-26553062.438964844,-26069141.387939453,-25805965.423583984,-23237695.693969727,-18696126.93786621,-17720861.434936523,-18183732.986450195,-25869686.126708984,-25958406.448364258,-22992946.62475586,-18141998.291015625,-17030138.01574707
0.375,-15971308.708190918,-8395873.069763184,1025222.1822738647,-386599.7791290283,-1445305.9434890747,-6966197.0138549805,-3541828.8707733154,-2615896.701812744,-2247354.26902771,-3482717.752456665,-4918898.105621338,8033367.156982422,2910699.6059417725,882851.4218330383,-12285125.732421875,-4343031.883239746,-413158.5955619812,-189042.50860214233,2475173.234939575,5694649.696350098,5764586.925506592,-12348636.627197266,-5850855.350494385,-14455093.383789062,-17310947.41821289,4947639.465332031,-16372707.36694336,-5487346.649169922,-9566097.259521484,-7437790.870666504,-9741926.193237305,-13530626.29699707,-22806148.529052734,-45661434.173583984,-31967161.178588867,-21125707.626342773,-6065239.429473877,668939.7692680359,-33275108.337402344,13278503.41796875,-47500091.552734375,-23203384.399414062,-23851970.672607422,-44525688.17138672,-23585916.51916504,-27524822.235107422,-22792648.315429688,-32406581.87866211,-21685214.99633789,-15851733.207702637,-23158103.942871094,-22686330.795288086,-22684682.846069336,-23335979.461669922,-22348012.924194336,-21046232.223510742,-22134731.29272461,-22676082.611083984,-22793119.430541992,-23138006.21032715,-21512199.40185547,-20106126.78527832
0.38,-20115228.6529541,-12743587.493896484,-3540020.46585083,-5322624.683380127,-7559775.352478027,-4734995.8419799805,-3897227.0488739014,-6970416.069030762,-6618681.43081665,-9144914.627075195,-10778100.967407227,1232236.623764038,-5004784.58404541,-6114102.363586426,-5764634.609222412,-743108.5705757141,-2374568.9392089844,-2095303.5354614258,-2165849.208831787,360175.87780952454,-716651.6780853271,-19451549.530029297,-12986198.425292969,-7438594.818115234,-11039312.362670898,6256701.946258545,-17136636.73400879,-5185235.500335693,-12268522.262573242,-12031649.589538574,-15511682.510375977,-19973026.275634766,-14074364.66217041,-34998245.23925781,-24749980.926513672,-16922912.59765625,-5573780.536651611,1117525.1007080078,-31756162.643432617,9558361.053466797,-53045715.33203125,-14436111.450195312,-14776109.69543457,-34538932.80029297,-14473426.818847656,-19049499.51171875,-18932054.51965332,-28774440.76538086,-19278850.555419922,-17080223.083496094,-14513239.860534668,-13946849.822998047,-14215572.357177734,-13573482.513427734,-18344196.319580078,-16820867.53845215,-18284189.224243164,-14181227.684020996,-14257812.5,-13660325.050354004,-17516990.661621094,-16162412.643432617
0.385,-27924715.042114258,-20451669.692993164,-11722182.273864746,-10844993.591308594,-14896938.32397461,-5944109.4398498535,-7033032.417297363,-11202487.94555664,-10925393.104553223,-15147707.93914795,-17129777.908325195,-5682686.805725098,-15299971.580505371,-15734158.515930176,-2898836.135864258,-697108.5071563721,-5891777.515411377,-5610728.740692139,-7246904.373168945,-4741028.785705566,-7135651.111602783,-26789316.177368164,-21185466.766357422,-3987927.198410034,-7965236.186981201,5364710.807800293,-19138858.795166016,-5464502.334594727,-14680842.399597168,-15937934.875488281,-19828025.817871094,-24771486.282348633,-9117545.127868652,-28302553.176879883,-19948232.650756836,-13565276.145935059,-5652511.5966796875,1318526.8640518188,-29307819.366455078,11362625.122070312,-50354373.931884766,-9623939.514160156,-9448684.692382812,-26578733.444213867,-7432571.4111328125,-12266502.380371094,-15141188.621520996,-22038412.09411621,-12612047.19543457,-13256397.247314453,-9966213.22631836,-9286857.604980469,-9525688.171386719,-6525154.113769531,-14435805.320739746,-13000517.845153809,-14371416.091918945,-9553093.910217285,-9600834.846496582,-6723152.160644531,-13931201.934814453,-12903776.168823242
0.39,-31482936.85913086,-23944873.809814453,-16178777.694702148,-12003298.75946045,-16900648.11706543,-9391094.207763672,-9901071.548461914,-11649785.041809082,-11475124.35913086,-16061246.871948242,-18529550.552368164,-6882185.459136963,-19522783.279418945,-19936412.811279297,-7902284.145355225,-4010464.668273926,-7594517.230987549,-7343323.707580566,-8078814.506530762,-5523393.630981445,-8652341.842651367,-29129949.56970215,-24099124.908447266,-8976157.188415527,-12323200.225830078,3332471.6091156006,-20313150.40588379,-6448369.50302124,-15916020.393371582,-17624254.22668457,-20860059.73815918,-26257047.653198242,-13877658.84399414,-33688262.939453125,-21574945.4498291,-14063459.396362305,-6648828.506469727,882625.7586479187,-31294561.3861084,11278292.655944824,-47928432.46459961,-14494949.340820312,-14009540.557861328,-27792997.360229492,-9764746.66595459,-15178304.672241211,-17609321.59423828,-23893323.89831543,-14134492.874145508,-13881407.737731934,-14906154.63256836,-14269825.93536377,-14240122.79510498,-11127802.848815918,-18057712.55493164,-16884914.39819336,-18061370.849609375,-14287013.053894043,-14369498.252868652,-11073508.262634277,-17777822.494506836,-16890237.80822754
0.395,-27469724.655151367,-19713562.01171875,-12409110.069274902,-9105558.395385742,-12258089.065551758,-11665587.425231934,-10468708.992004395,-10000698.08959961,-9895102.500915527,-13058212.280273438,-15482714.653015137,-2683517.6944732666,-14651992.797851562,-14389692.306518555,-15604983.32977295,-7439541.339874268,-7523251.533508301,-7318713.188171387,-6030608.654022217,-3484173.059463501,-5955279.350280762,-25520746.2310791,-19204175.94909668,-17209354.400634766,-19975267.41027832,1348507.6427459717,-20093101.501464844,-6768859.386444092,-15640696.52557373,-17217525.482177734,-18832605.361938477,-24752075.1953125,-20555749.893188477,-43853210.44921875,-25616321.563720703,-15638108.253479004,-7092003.345489502,435999.69148635864,-35002021.78955078,6168918.609619141,-50994567.87109375,-21044427.8717041,-20675769.805908203,-32471569.061279297,-15061150.550842285,-20939846.03881836,-22041130.06591797,-31603794.09790039,-22365470.88623047,-18945657.73010254,-21227725.982666016,-20766469.955444336,-20565986.63330078,-18236158.37097168,-22349313.735961914,-21307825.088500977,-22582221.98486328,-20521507.263183594,-20599073.41003418,-17866296.768188477,-21919595.71838379,-20745641.708374023
0.4,-22211751.93786621,-14571552.276611328,-6383247.852325439,-6791265.487670898,-7276534.557342529,-9585474.967956543,-8588930.130004883,-9808469.772338867,-9710919.380187988,-11546162.605285645,-13280470.848083496,1091394.1860198975,-7443902.492523193,-5750936.985015869,-15623133.659362793,-6514230.251312256,-7121226.787567139,-6997706.890106201,-5189050.674438477,-2456632.375717163,-3424593.210220337,-20457983.016967773,-11414304.733276367,-17641647.338867188,-21472949.981689453,1181202.4116516113,-18924283.981323242,-5053164.482116699,-13879384.04083252,-15331698.417663574,-14863871.574401855,-21028907.775878906,-16719713.21105957,-44327659.606933594,-24764215.46936035,-13907423.01940918,-5391021.251678467,969548.2850074768,-33061168.670654297,2607611.1793518066,-52805782.318115234,-16967727.661132812,-16932197.57080078,-30634880.06591797,-13211004.257202148,-18684087.7532959,-19870870.59020996,-31246978.759765625,-22541482.92541504,-17436969.757080078,-16939540.86303711,-16555969.23828125,-16459617.614746094,-13550330.16204834,-15167267.799377441,-14041392.32635498,-15586029.052734375,-16284372.329711914,-16276987.075805664,-13120053.2913208,-14466064.453125,-12919693.946838379
0.405,-21621255.87463379,-15225617.408752441,-5755825.519561768,-7342633.247375488,-7128951.072692871,-4014238.8343811035,-5752962.112426758,-11030261.993408203,-10906907.081604004,-12905403.137207031,-14017706.871032715,1098958.8499069214,-5852718.830108643,-3804041.1472320557,-6606069.564819336,-1032235.2647781372,-6377931.118011475,-6305902.95791626,-5785123.348236084,-2749283.0753326416,-3004361.391067505,-18759881.9732666,-8016999.244689941,-8496875.762939453,-14585927.00958252,3660277.843475342,-17129581.451416016,-1948833.94241333,-11155856.132507324,-12476441.383361816,-10710252.76184082,-16693586.349487305,-3594648.838043213,-33442348.48022461,-18405338.287353516,-9318791.389465332,-2190600.1567840576,2366655.5881500244,-24567457.19909668,6085202.693939209,-46209476.470947266,-3757857.7995300293,-3871101.6178131104,-22398588.180541992,-5067367.5537109375,-9557762.145996094,-11264653.205871582,-19156789.779663086,-9596425.05645752,-5401180.744171143,-3777181.386947632,-3279483.3183288574,-3397036.7908477783,784208.2977294922,579551.8755912781,1799675.8222579956,227139.62197303772,-3118596.315383911,-3087127.685546875,1049818.992614746,1270356.1782836914,2785335.3023529053
0.41,-22383213.04321289,-17153127.670288086,-7584731.578826904,-8134246.826171875,-8320736.885070801,-1834676.8617630005,-5056269.645690918,-10929759.979248047,-10764498.710632324,-12803211.212158203,-13693304.061889648,632539.9279594421,-8763229.370117188,-7669827.461242676,-1096229.5532226562,2387285.2325439453,-5107971.668243408,-4916355.609893799,-4575665.9507751465,-1445940.4945373535,-2407713.4132385254,-19975933.074951172,-10124207.496643066,-2575456.6192626953,-9033244.132995605,6404660.224914551,-15256539.344787598,423188.29894065857,-8523416.519165039,-9457183.837890625,-8437823.295593262,-14379124.641418457,4094075.2029418945,-24965976.71508789,-13660258.293151855,-6133275.508880615,249062.83617019653,3381641.8647766113,-16977823.25744629,11259553.909301758,-36347728.72924805,3897708.4159851074,4011726.3793945312,-16582242.965698242,216056.2425851822,-3714496.374130249,-4877612.590789795,-8135200.500488281,2483249.9027252197,5234278.202056885,3777592.420578003,4378030.300140381,4196408.271789551,9036706.924438477,8296348.571777344,9470311.164855957,8195592.880249023,4522062.301635742,4444913.387298584,9082888.60321045,8720080.375671387,9799557.68585205
0.415,-19784713.745117188,-12377393.72253418,-3250009.775161743,-7174389.362335205,-4423651.695251465,-10951528.549194336,-9705022.811889648,-9434703.826904297,-9190793.991088867,-8622539.520263672,-8950896.263122559,4174782.2761535645,-8210686.683654785,-6000225.067138672,-10673131.942749023,-3175817.7280426025,-5030590.534210205,-4543225.288391113,-867620.8853721619,2312336.4448547363,634902.3580551147,-19113880.157470703,-10934561.729431152,-11832304.000854492,-14198403.358459473,5697241.306304932,-14465525.62713623,1018041.2530899048,-6909622.1923828125,-7198791.50390625,-8188230.514526367,-14622655.868530273,-1621114.2539978027,-28546270.3704834,-15417431.831359863,-6093538.761138916,879239.6783828735,3282560.348510742,-16000221.252441406,9610464.096069336,-33632259.368896484,-1665302.7534484863,-1075456.3808441162,-16881856.91833496,-726761.9967460632,-4996280.670166016,-5419985.771179199,-9001701.354980469,481675.7142543793,2978866.3387298584,-1647492.6471710205,-1146909.5945358276,-1185775.0415802002,4339588.642120361,724990.4274940491,1838957.667350769,835707.4856758118,-966701.0307312012,-1099349.021911621,4181295.871734619,1005876.5411376953,1705057.144165039
0.42,-18101989.74609375,-3996152.877807617,6834173.679351807,-7433570.861816406,3422004.461288452,-31011816.024780273,-19565065.383911133,-9965399.742126465,-9621535.301208496,-4277440.547943115,-2976258.2778930664,10703448.295593262,-362984.299659729,8016092.300415039,-29970344.54345703,-15989129.066467285,-7917439.4607543945,-7193248.748779297,1740620.1362609863,5575226.306915283,4921762.943267822,-12806170.463562012,-3604295.253753662,-30790657.04345703,-26032823.56262207,1333524.1079330444,-15457736.015319824,771806.6573143005,-6346138.477325439,-5769439.220428467,-6936350.8224487305,-13623929.023742676,-11193964.004516602,-36741130.82885742,-19778429.03137207,-6763228.893280029,728125.3933906555,2739947.3190307617,-18563386.917114258,2929317.4743652344,-38108066.55883789,-10860307.693481445,-9798385.620117188,-17609725.952148438,-2309412.4794006348,-7503578.186035156,-8270482.063293457,-16190303.802490234,-9415966.987609863,-6282978.057861328,-10587146.759033203,-10256315.231323242,-10104785.919189453,-3525775.194168091,-10284044.26574707,-9096060.752868652,-10113055.229187012,-10225469.589233398,-10180664.0625,-3799770.1168060303,-9861293.79272461,-9191101.07421875
0.425,-24622606.27746582,-3135669.231414795,12367980.003356934,-12471811.294555664,7323560.71472168,-51023899.07836914,-29735069.274902344,-14212876.319885254,-13829488.754272461,-4982127.1896362305,-1528708.1003189087,15146521.56829834,9798667.907714844,26867015.838623047,-42290653.228759766,-26596443.17626953,-12519981.384277344,-11841868.40057373,372458.24933052063,5628202.91519165,7551233.291625977,-3611313.819885254,10159155.84564209,-42476089.47753906,-32277748.107910156,-2733396.053314209,-17547637.939453125,784159.0642929077,-6201558.589935303,-4441400.051116943,-1910919.427871704,-7577399.730682373,-11960947.99041748,-37233421.325683594,-20303401.947021484,-6226133.346557617,839201.3907432556,2660483.1218719482,-18372211.456298828,1190411.925315857,-39578624.7253418,-11403907.775878906,-10076712.608337402,-14258924.48425293,-383708.74524116516,-6567296.981811523,-7739480.018615723,-17850517.27294922,-11869791.984558105,-7906839.370727539,-11110436.43951416,-10747333.526611328,-10534217.834472656,-4257059.097290039,-11403303.146362305,-10138927.459716797,-11269534.11102295,-11045953.750610352,-10742180.824279785,-4439642.906188965,-10806951.522827148,-10009678.840637207
0.43,-36710247.03979492,-12522062.301635742,7590031.147003174,-20090156.55517578,3374028.444290161,-59288810.72998047,-34593879.69970703,-19175901.412963867,-18840431.213378906,-10119778.633117676,-5355095.863342285,14854333.877563477,14906770.706176758,37217475.89111328,-39701725.006103516,-28451772.689819336,-15737337.112426758,-15299993.515014648,-3373075.246810913,3327520.3704833984,7463973.045349121,2586099.624633789,21441539.764404297,-39152400.970458984,-28587617.874145508,-3567781.686782837,-19552639.00756836,824861.8245124817,-6126177.787780762,-3016588.6878967285,5147981.643676758,1472670.1974868774,-5190952.777862549,-30375911.712646484,-17082424.16381836,-5785662.651062012,806178.5697937012,2844275.712966919,-14593397.14050293,8038980.484008789,-32118366.241455078,-4826852.798461914,-3545705.3184509277,-10444889.068603516,2246983.051300049,-4621498.107910156,-4699421.8826293945,-12451703.071594238,-3870129.5852661133,1184933.1855773926,-4780110.836029053,-4176448.8220214844,-4060110.092163086,10887.378826737404,-4784707.546234131,-3666628.360748291,-4705806.255340576,-4660910.129547119,-4331809.043884277,47006.189823150635,-4230395.793914795,-3464586.2579345703
0.435,-44331745.14770508,-22590715.408325195,-1403953.9098739624,-24642721.17614746,-3710697.889328003,-55465450.286865234,-33801589.96582031,-21329410.552978516,-21011590.9576416,-14713651.657104492,-10039958.000183105,11795602.798461914,13101329.803466797,35166137.6953125,-30794740.676879883,-24830459.594726562,-16752429.962158203,-16446403.503417969,-6152149.677276611,1266270.1606750488,5946358.680725098,2903549.6711730957,24127864.837646484,-29908027.64892578,-22744314.193725586,-2952313.8999938965,-21207588.19580078,270838.4692668915,-6317949.295043945,-2197569.3702697754,9621804.237365723,7549749.374389648,-1363490.9391403198,-26335454.9407959,-15397414.207458496,-6809656.143188477,6004.50299680233,2492409.4676971436,-11427360.534667969,16046712.875366211,-21039672.8515625,-1326785.2067947388,-332434.4754219055,-10736325.26397705,2608060.836791992,-4456578.254699707,-3070727.825164795,-7540637.493133545,4424784.6603393555,10709089.279174805,-1471652.9846191406,-691431.8799972534,-704566.9555664062,2350993.6332702637,-575685.3818893433,253495.63360214233,-533937.931060791,-1016047.0008850098,-938230.574131012,2423766.613006592,-186279.59489822388,426066.21980667114
0.44,-43878669.73876953,-24757450.103759766,-5660742.75970459,-24564739.227294922,-7383613.109588623,-49898883.81958008,-32505432.12890625,-21320171.356201172,-20875108.71887207,-16144502.639770508,-12104585.647583008,9178787.231445312,8500156.40258789,29077299.118041992,-27640766.143798828,-23536260.6048584,-17731813.430786133,-17312555.31311035,-7083754.062652588,447802.0370006561,4635418.891906738,65992.38514900208,21135028.839111328,-26855810.165405273,-22629625.32043457,-4304502.010345459,-22917476.654052734,-543942.7495002747,-6824095.249176025,-2257303.237915039,9712717.056274414,8249317.169189453,-3982388.973236084,-29105770.111083984,-17367078.78112793,-7965921.401977539,-998521.4471817017,1585200.1905441284,-11371949.195861816,17801042.556762695,-14757783.889770508,-3987209.7969055176,-3213600.6355285645,-12801739.692687988,2877319.3359375,-4036504.7454833984,-3369798.183441162,-7010988.235473633,6166460.5140686035,12924784.660339355,-4072714.8056030273,-3353711.1282348633,-3390570.4021453857,2431548.1185913086,-1135013.8187408447,-406134.9034309387,-1091170.6686019897,-3377196.0735321045,-3550081.253051758,2232652.6641845703,-817982.1372032166,-189947.60513305664
0.445,-41193668.365478516,-21083158.493041992,-3909879.446029663,-23596982.955932617,-6775994.300842285,-50623245.23925781,-34595325.4699707,-22062236.785888672,-21446231.842041016,-16109613.418579102,-12182615.280151367,8184761.047363281,5685115.814208984,27771043.77746582,-31300333.02307129,-26966585.159301758,-20055599.212646484,-19451993.942260742,-7557728.7673950195,2137.9452664405107,3984274.387359619,-1707354.187965393,19060064.3157959,-30547021.865844727,-26485517.501831055,-7563325.881958008,-24522159.576416016,-953231.5135002136,-7284040.451049805,-2484910.488128662,7780717.372894287,6601111.41204834,-6935986.042022705,-32418704.986572266,-19628986.358642578,-7643286.70501709,-1393558.144569397,904301.5241622925,-12888500.213623047,15120064.735412598,-15548417.091369629,-6782166.481018066,-5840819.358825684,-11945259.094238281,5252463.340759277,-1593122.7207183838,-3662914.752960205,-7904212.951660156,4584280.967712402,10625031.471252441,-6702954.7691345215,-6154165.744781494,-6128036.975860596,3500247.7169036865,-1531873.5837936401,-599651.6942977905,-1433801.770210266,-6057636.260986328,-6267266.750335693,3012404.203414917,-1189152.5983810425,-291066.974401474
0.45,-41237442.01660156,-18747695.922851562,-1577400.3267288208,-24522783.279418945,-5884992.1226501465,-54461147.30834961,-37591159.82055664,-23747949.600219727,-23152385.711669922,-16704524.993896484,-12569227.21862793,7851260.185241699,5148508.548736572,30064529.418945312,-33579090.1184082,-30108768.463134766,-21984069.82421875,-21323102.951049805,-8427853.58428955,-1034126.2817382812,3201554.775238037,-2013586.7595672607,19115346.908569336,-32498542.78564453,-27681213.37890625,-9353398.323059082,-25256416.32080078,-1283516.526222229,-7738133.907318115,-2665487.766265869,5920031.547546387,5303308.486938477,-5963793.754577637,-30841043.47229004,-19169952.392578125,-6951297.283172607,-1625337.1238708496,816298.3059883118,-14217961.311340332,13930857.65838623,-19912231.4453125,-5898214.817047119,-4467077.732086182,-9386649.131774902,6736636.161804199,-414154.88719940186,-4114194.869995117,-7999089.71786499,3855222.9404449463,8961050.033569336,-5741744.041442871,-5263236.999511719,-5244477.74887085,4161728.3821105957,-590402.2455215454,590691.6260719299,-402232.67674446106,-5266725.063323975,-5382628.440856934,3692421.6747283936,-248132.6460838318,917802.3338317871
0.455,-42977115.631103516,-21206851.959228516,-3430254.2209625244,-25813243.865966797,-7954851.6273498535,-53314804.07714844,-36468486.78588867,-23900239.944458008,-23552387.237548828,-17814155.57861328,-14278453.826904297,6636219.501495361,4059327.1255493164,28479059.21936035,-29376760.482788086,-28006811.141967773,-21359575.271606445,-20723733.90197754,-9275093.078613281,-2778904.438018799,1326290.488243103,-3687979.6981811523,17115955.352783203,-27993312.83569336,-24616455.078125,-7878012.657165527,-25025623.321533203,-2365556.240081787,-8885932.922363281,-3795892.9538726807,3528952.8369903564,3374160.2897644043,-4397881.507873535,-27244215.01159668,-17615787.506103516,-8130061.149597168,-2699177.7420043945,847915.8878326416,-15854735.374450684,15114922.523498535,-23719516.75415039,-4725346.088409424,-2982907.53364563,-10460529.327392578,3556750.2975463867,-4104659.080505371,-6468291.282653809,-9055638.313293457,2616598.36769104,7946433.544158936,-4577794.075012207,-4046556.4727783203,-4173786.163330078,723478.2576560974,-2022276.8783569336,-791562.3784065247,-1739616.7516708374,-4171773.910522461,-4241458.892822266,504585.6833457947,-1693276.8821716309,-518284.55924987793
0.46,-44582736.96899414,-26619272.232055664,-8904175.758361816,-25279493.33190918,-11914516.44897461,-46445728.30200195,-31428722.381591797,-21853340.14892578,-21711942.672729492,-18394634.246826172,-16461730.95703125,4471703.52935791,1365840.6734466553,21647129.05883789,-22759687.423706055,-22607425.689697266,-19138671.875,-18446325.302124023,-9625917.434692383,-4480808.734893799,-982571.6614723206,-7051141.262054443,12231923.10333252,-21559381.48498535,-21902086.25793457,-5648528.575897217,-24926467.895507812,-3946488.380432129,-10761094.093322754,-5993491.649627686,691720.7837104797,422767.40074157715,-6334438.800811768,-27313714.9810791,-18546379.08935547,-11274724.960327148,-4354589.462280273,587151.5274047852,-18278932.571411133,15447801.58996582,-24385097.50366211,-6858536.243438721,-5392297.744750977,-16442617.416381836,-2512344.8371887207,-10430583.000183105,-10122021.675109863,-11905897.14050293,-819891.631603241,6230512.619018555,-6738488.674163818,-6151982.307434082,-6420716.762542725,-5258399.486541748,-5929049.015045166,-4769905.090332031,-5575156.211853027,-6294886.112213135,-6384800.434112549,-5284493.923187256,-5503539.562225342,-4525429.725646973
0.465,-46241500.85449219,-30425039.291381836,-12454113.960266113,-23672344.207763672,-13400357.246398926,-42062541.96166992,-28575534.82055664,-20165649.4140625,-19941738.12866211,-18007825.85144043,-17128112.79296875,3827413.320541382,771947.8607177734,18496446.60949707,-21283996.58203125,-20592676.162719727,-18412210.46447754,-17588256.8359375,-9436347.007751465,-4768468.379974365,-1075942.9931640625,-7592271.80480957,10872350.692749023,-20552602.767944336,-23537288.665771484,-6450997.829437256,-25989116.668701172,-4744373.321533203,-11834231.37664795,-6935617.923736572,563753.9625167847,61526.95417404175,-10198678.016662598,-31690179.8248291,-22762836.456298828,-14489775.657653809,-5209205.150604248,332337.8264904022,-19894704.818725586,14598134.04083252,-21212221.145629883,-10396993.637084961,-9594533.920288086,-22904409.408569336,-6483529.567718506,-14064677.238464355,-12169795.989990234,-13929078.102111816,-3543899.7745513916,5852244.853973389,-10320178.031921387,-9752342.224121094,-9992486.953735352,-8287362.098693848,-7217056.2744140625,-6056780.815124512,-6839717.388153076,-9837550.163269043,-9924675.941467285,-8236232.757568359,-6593191.623687744,-5762451.648712158
0.47,-46387008.66699219,-28167463.302612305,-8364351.272583008,-22809322.357177734,-9116209.983825684,-46455074.310302734,-32070026.397705078,-20820549.01123047,-20314163.208007812,-16534702.30102539,-14608575.820922852,7539257.526397705,6627720.355987549,27608766.555786133,-27159967.42248535,-25229228.973388672,-20395336.151123047,-19532817.840576172,-8644521.713256836,-2677546.977996826,3011449.098587036,-1284589.7674560547,18973367.69104004,-26557754.516601562,-28355459.213256836,-10671418.190002441,-27802459.716796875,-4207425.594329834,-10506358.14666748,-4187150.478363037,5717723.369598389,5686518.19229126,-11752964.973449707,-36320243.83544922,-27603769.302368164,-16493345.260620117,-4710205.078125,536807.656288147,-18806060.791015625,15865276.336669922,-15911910.057067871,-11491546.630859375,-11144685.745239258,-25784978.86657715,-6896933.078765869,-13576198.57788086,-11248730.659484863,-12962595.93963623,-2036481.6188812256,9085732.460021973,-11445628.16619873,-10956724.166870117,-11045198.440551758,-6647949.695587158,-3313362.3600006104,-2088804.006576538,-2951201.2004852295,-10935195.922851562,-10996068.000793457,-6472854.6142578125,-2549845.2186584473,-1673695.3258514404
0.475,-42480941.77246094,-20049694.061279297,2162292.957305908,-22660577.77404785,-1178675.7707595825,-55937641.14379883,-38598480.224609375,-22437833.786010742,-21734457.01599121,-14143403.053283691,-9784883.499145508,14528700.828552246,16923635.482788086,44900539.39819336,-35364822.38769531,-32438816.07055664,-23030323.028564453,-22270025.2532959,-7376323.699951172,846943.9744949341,9377671.241760254,9155685.424804688,32948020.935058594,-34357364.654541016,-32270465.850830078,-14775845.527648926,-28863418.579101562,-3279669.761657715,-7395589.828491211,1174707.8895568848,13685461.044311523,14705209.732055664,-10161624.908447266,-38006557.46459961,-29896383.28552246,-17366603.85131836,-3856380.4626464844,1061911.4637374878,-15567313.194274902,20171615.600585938,-11612383.842468262,-9896664.6194458,-9505396.842956543,-25317264.556884766,-6362580.299377441,-12093088.150024414,-9050351.1428833,-10415556.907653809,2316886.4250183105,13791653.633117676,-9780082.702636719,-9378996.849060059,-9383100.509643555,-3906705.141067505,1826157.4506759644,3047268.3906555176,2209363.4605407715,-9207556.72454834,-9307299.613952637,-3549825.668334961,2578573.9421844482,3609336.8530273438
0.48,-36730735.778808594,-12623565.673828125,10411159.51538086,-22180620.193481445,4160335.063934326,-62097660.064697266,-41926620.48339844,-22667934.41772461,-21945447.92175293,-11904067.039489746,-6143945.693969727,19633579.25415039,23911108.016967773,56960380.55419922,-39879146.575927734,-36052383.42285156,-24000408.172607422,-23295492.17224121,-6360836.029052734,3328159.0938568115,13478403.091430664,16250652.313232422,42527832.03125,-38403598.78540039,-33243705.74951172,-15695451.736450195,-28432462.692260742,-3075500.48828125,-4993140.22064209,5157439.231872559,18985216.14074707,20455112.45727539,-8661938.667297363,-37633277.893066406,-29046823.501586914,-17383504.86755371,-3718601.4652252197,1351501.5840530396,-12687013.626098633,23833509.44519043,-10121151.9241333,-8816740.989685059,-8171686.172485352,-23951032.638549805,-6573631.763458252,-12013255.11932373,-7748884.677886963,-8942653.65600586,4913966.178894043,15507035.255432129,-8537674.903869629,-8151684.761047363,-8212017.059326172,-3183859.5867156982,2963903.9039611816,4128879.5471191406,3456378.45993042,-7892702.579498291,-8108794.212341309,-2788430.4523468018,3621668.3387756348,4754104.137420654
0.485,-34924648.28491211,-12073674.201965332,9830810.546875,-21527738.571166992,3392056.2267303467,-62050106.048583984,-40739337.92114258,-21662611.00769043,-20925483.70361328,-11220246.315002441,-6251003.742218018,19304073.333740234,23068893.432617188,56528110.50415039,-39952060.69946289,-35120346.06933594,-23559728.622436523,-22689666.748046875,-6307577.610015869,3263778.2096862793,13046737.670898438,15966471.672058105,42138469.69604492,-38419158.935546875,-32834953.30810547,-14355216.026306152,-27467161.178588867,-3536743.1640625,-4923081.398010254,5296674.728393555,19084466.9342041,19518123.626708984,-10363768.577575684,-38406585.693359375,-27431322.09777832,-16667137.145996094,-4143875.1220703125,1105135.5600357056,-11861166.954040527,23601308.822631836,-10925970.077514648,-10784893.989562988,-10078825.950622559,-23270807.26623535,-6476118.564605713,-12455067.63458252,-7727615.833282471,-9266202.926635742,3612370.491027832,12945929.527282715,-10414547.92022705,-9889362.335205078,-10045402.526855469,-4062980.1750183105,-416653.6033153534,762834.6681594849,174479.93159294128,-9744694.709777832,-10043388.366699219,-3840739.7270202637,154264.13714885712,1257710.2184295654
0.49,-38033699.03564453,-16598680.49621582,3974780.559539795,-21835769.653320312,-592223.4654426575,-59675945.28198242,-38904117.584228516,-21557140.350341797,-20690748.21472168,-12506464.958190918,-9081602.096557617,15532956.12335205,18045047.760009766,49344650.26855469,-38940910.33935547,-33658901.21459961,-23494909.286499023,-22345714.569091797,-7113840.579986572,1486636.2810134888,10139074.325561523,11407929.420471191,35874347.68676758,-37687339.782714844,-33179111.48071289,-13823388.09967041,-27363761.90185547,-3860262.632369995,-6453786.849975586,2970494.7471618652,16228923.797607422,14746426.582336426,-14657697.677612305,-41637409.21020508,-27565523.147583008,-15700214.385986328,-4337989.807128906,511704.7429084778,-12666731.834411621,20779012.68005371,-12876988.410949707,-14902103.424072266,-14320657.730102539,-23377965.927124023,-5137993.335723877,-11792689.323425293,-8062559.127807617,-10254411.697387695,655326.9028663635,9103775.978088379,-14613043.785095215,-13848415.37475586,-14037246.704101562,-5046664.714813232,-4580164.432525635,-3330484.8670959473,-4071135.5209350586,-13954262.733459473,-14211932.182312012,-4992031.097412109,-4071384.906768799,-3101373.9109039307
0.495,-40677303.314208984,-19562026.977539062,763976.4547348022,-23322166.442871094,-3252569.6754455566,-58269401.55029297,-38959251.403808594,-23093418.12133789,-22116336.822509766,-14896401.405334473,-11854008.674621582,12499661.445617676,14737118.7210083,44396175.384521484,-38412052.154541016,-34014453.88793945,-24137630.462646484,-22886810.302734375,-8050310.134887695,-233193.12930107117,7896709.442138672,8092728.614807129,31051877.975463867,-37417209.62524414,-33742565.1550293,-14768307.68585205,-28071462.631225586,-3694118.7381744385,-7833742.618560791,1084949.9702453613,14006990.432739258,11418007.850646973,-17717515.94543457,-44648532.86743164,-28997066.497802734,-14990531.921386719,-4030013.5612487793,-27066.96093082428,-13730832.09991455,18770193.099975586,-14807245.254516602,-17681829.45251465,-17134103.775024414,-23532665.252685547,-3524264.5740509033,-10112952.23236084,-7921412.467956543,-10519629.47845459,-325015.75350761414,7702354.907989502,-17530675.888061523,-16660581.588745117,-16807817.459106445,-5596032.14263916,-5857942.581176758,-4627548.694610596,-5591102.123260498,-16877433.77685547,-17028598.78540039,-5494251.251220703,-5388964.1761779785,-4589873.790740967
