time,Fp1,Fpz,Fp2,AF3,AF4,F7,F5,F3,F1,Fz,F2,F4,F6,F8,FT7,FC5,FC3,FC1,FCz,FC2,FC4,FC6,FT8,T7,C5,C3,C1,Cz,C2,C4,C6,T8,TP7,CP5,CP3,CP1,CPz,CP2,CP4,CP6,TP8,P7,P5,P3,P1,Pz,P2,P4,P6,P8,PO7,PO5,PO3,POz,PO4,PO6,PO8,CB1,O1,Oz,O2,CB2
0.0,1606654.8824310303,1855065.8226013184,1849874.9732971191,1619565.725326538,1587380.051612854,1646557.5695037842,1448756.0987472534,954044.6996688843,949522.2568511963,1158119.6784973145,1428651.3328552246,1937998.652458191,1962496.280670166,2369786.500930786,1974470.7345962524,1796475.2912521362,1205715.537071228,1241059.1840744019,1210846.3048934937,1184064.0306472778,1442384.958267212,1963095.1881408691,1763381.1235427856,1989105.9398651123,2264272.928237915,1536711.9312286377,1695569.634437561,898813.3072853088,1015269.6371078491,2326474.666595459,2206567.7642822266,3041234.254837036,2358138.084411621,2203950.4051208496,2386411.190032959,1611040.3537750244,865560.77003479,593769.7887420654,1578731.2984466553,-5627411.842346191,1589956.521987915,2344615.4594421387,2361229.181289673,2404282.808303833,1859464.8838043213,1050545.9308624268,1209650.7549285889,1228632.5693130493,1324077.844619751,1564033.6275100708,2362974.166870117,2388668.2987213135,2341741.3234710693,1391083.002090454,1863199.1147994995,1899317.6221847534,1846601.0093688965,2353116.750717163,2325907.7072143555,1366225.004196167,1892762.0649337769,1913806.676864624
0.005,-11671123.504638672,-7944010.7345581055,-10745965.957641602,-11920361.518859863,-6836625.099182129,-13113674.16381836,-11498576.164245605,-9668647.766113281,-9612561.225891113,-5789454.936981201,-6867593.288421631,-6644620.895385742,-8857087.135314941,-9628753.662109375,-18445238.11340332,-11804390.907287598,-11643293.380737305,-12381014.823913574,-9279833.793640137,-9448681.831359863,-8858414.649963379,-9011281.01348877,-12260288.23852539,-18915485.382080078,-13454739.570617676,-14189249.992370605,-11581020.35522461,-12503767.013549805,-11378261.56616211,-3881154.0603637695,-7283163.070678711,-5589861.3929748535,-6176556.587219238,-11002348.899841309,-15335083.961486816,-14204519.271850586,-11899726.867675781,-7705095.7679748535,-8018873.21472168,109099060.05859375,575798.6903190613,-5639066.696166992,-6128331.184387207,-12740419.387817383,-13228399.276733398,-14683407.7835083,-12033700.942993164,-7067354.679107666,-4348802.089691162,-5224268.913269043,-6080086.708068848,-6214771.270751953,-5686467.64755249,-11235209.465026855,-5443110.466003418,-6391934.871673584,-5569329.738616943,-5830406.665802002,-5559774.875640869,-10675371.170043945,-5989239.21585083,-6484754.56237793
0.01,-17995756.149291992,-12142014.503479004,-15356628.41796875,-16452495.574951172,-9070228.576660156,-18816471.099853516,-16493087.768554688,-13565458.297729492,-13406047.821044922,-8049051.284790039,-8729835.510253906,-7579328.536987305,-11782631.874084473,-12496638.298034668,-25683214.18762207,-15861536.026000977,-15628068.923950195,-16490144.729614258,-11704416.275024414,-11756808.280944824,-11154324.531555176,-11676026.344299316,-16709087.371826172,-26467418.670654297,-17670589.447021484,-18519489.288330078,-14947246.551513672,-16320308.685302734,-14500035.285949707,-4684578.418731689,-9747173.309326172,-6266268.730163574,-10024872.779846191,-16362598.419189453,-20101659.774780273,-18222877.502441406,-15546841.621398926,-10222098.350524902,-10406397.819519043,143233612.06054688,-713294.9233055115,-9359991.073608398,-10017309.188842773,-16831960.678100586,-16085603.713989258,-18294933.319091797,-14829301.834106445,-8954427.719116211,-6991252.422332764,-8891390.800476074,-9937673.568725586,-10069766.0446167,-9419013.023376465,-14565495.491027832,-8967587.4710083,-10088138.580322266,-9055392.265319824,-9688004.493713379,-9191425.323486328,-13962482.452392578,-9638148.307800293,-10263875.961303711
0.015,-15850874.900817871,-9189921.379089355,-11026927.947998047,-11603366.85180664,-5100869.178771973,-14413835.525512695,-12936278.343200684,-10483897.20916748,-10276917.457580566,-5296108.245849609,-4021670.341491699,-1508302.6885986328,-7310862.064361572,-6017472.743988037,-19062992.095947266,-10055251.121520996,-10582463.264465332,-11003872.871398926,-6422895.908355713,-6285601.615905762,-5987183.094024658,-6135257.720947266,-10982976.913452148,-19849071.502685547,-10185167.31262207,-11620782.852172852,-8251952.171325684,-10951448.440551758,-8835655.212402344,145454.61535453796,-5473113.536834717,1349955.2011489868,-7554673.194885254,-12750670.433044434,-12028534.889221191,-10860614.776611328,-10454195.022583008,-7264504.432678223,-5909521.102905273,100864166.25976562,271008.4319114685,-7098364.83001709,-7613297.462463379,-9876546.859741211,-7950516.700744629,-10786918.640136719,-7899638.652801514,-4025612.8311157227,-5271845.34072876,-7562564.849853516,-7459023.952484131,-7514534.473419189,-7111045.360565186,-8434262.2756958,-6559583.66394043,-7170281.887054443,-6538700.103759766,-7440043.926239014,-6840708.255767822,-8211988.44909668,-6946781.635284424,-7391179.084777832
0.02,-10221481.323242188,-3336334.228515625,-4491741.180419922,-4567144.870758057,-378685.95123291016,-6645619.3923950195,-6775076.866149902,-5511358.737945557,-5422733.306884766,-1080946.2070465088,1874276.5188217163,4542747.020721436,-2432247.6387023926,1699013.590812683,-9094724.655151367,-2097237.1101379395,-3484538.0783081055,-3530606.508255005,-225535.3182554245,-295230.83567619324,-542551.6963005066,327285.0513458252,-2941677.8087615967,-9602239.608764648,-457980.1559448242,-2777183.5327148438,630137.8607749939,-4335845.947265625,-2236247.0626831055,5911873.340606689,-731641.8290138245,10025235.176086426,-1096032.0234298706,-5458181.381225586,-1543112.2779846191,-1817349.910736084,-4177214.6224975586,-3645553.3504486084,-722628.3550262451,49162776.947021484,5029985.9046936035,-791527.5692939758,-1134142.7564620972,-367190.3610229492,755463.0041122437,-2686760.902404785,-244694.0392255783,2636497.974395752,-405844.44999694824,-2357302.42729187,-847879.3501853943,-894336.7004394531,-713112.4138832092,-346242.39802360535,327269.37532424927,146754.33933734894,339354.66408729553,-1011745.2144622803,-449936.8369579315,-405091.91155433655,230030.1194190979,-82951.91079378128
0.025,-7049114.227294922,-381728.9173603058,-2595706.2244415283,-1386551.7377853394,746966.2427902222,-2670181.7512512207,-3556294.9180603027,-2874953.508377075,-2997398.853302002,1234594.3450927734,4258970.260620117,5863461.971282959,-1780105.2331924438,3447540.521621704,-5421112.060546875,1233600.9740829468,-73086.35115623474,-190624.05824661255,2013258.695602417,1239785.90965271,196356.83298110962,1818062.3054504395,-198063.58218193054,-5640711.784362793,3383654.3560028076,1004245.2812194824,5175734.519958496,-1955187.3207092285,-82633.42082500458,7931024.551391602,-298376.202583313,12393323.89831543,4620241.165161133,-409536.6895198822,3457087.278366089,2093901.6342163086,-1932130.8135986328,-2511434.555053711,772151.4701843262,32735034.942626953,9623787.879943848,4969249.725341797,4669620.513916016,5316277.503967285,4229891.300201416,-496751.90448760986,2271790.9812927246,6097811.222076416,4443323.612213135,2539143.3238983154,5026042.461395264,4995381.3552856445,5119277.000427246,3207204.580307007,6529313.087463379,6336335.182189941,6403050.899505615,4927738.666534424,5349751.949310303,3176740.884780884,6482875.823974609,6100237.3695373535
0.03,-6755936.145782471,-909673.0351448059,-4592770.576477051,-1504898.6673355103,-638140.3803825378,-3882179.021835327,-3891506.9103240967,-2780003.786087036,-3021270.751953125,1090741.753578186,3193820.9533691406,4152276.9927978516,-3495408.296585083,116679.73548173904,-8468159.675598145,-197255.4624080658,-497587.5914096832,-900031.328201294,897259.8314285278,-434952.88491249084,-2192720.1747894287,-708463.4304046631,-3134401.798248291,-8688439.36920166,1271781.6829681396,277338.4749889374,5142461.776733398,-2717269.8974609375,-1093903.89919281,5811018.943786621,-3170783.281326294,8094175.338745117,5735322.952270508,359952.7180194855,3534187.078475952,2000091.791152954,-2648363.3518218994,-2961872.100830078,-194792.2706604004,39980583.19091797,8773776.054382324,6120398.998260498,5804801.940917969,7115433.692932129,5071217.5369262695,-1586929.9173355103,1591515.064239502,5863335.609436035,6461397.171020508,3401118.516921997,6080733.776092529,6189351.558685303,6263503.551483154,1812043.6668395996,7189114.093780518,6858090.400695801,6977074.146270752,6185646.533966064,6466843.128204346,1876188.87424469,7045219.421386719,6554652.690887451
0.035,-5982539.176940918,-1114711.046218872,-5185264.587402344,-1358765.8405303955,-1120968.1034088135,-6832965.850830078,-5251593.589782715,-3520894.0505981445,-3721969.6044921875,-153053.6264181137,1653888.8216018677,3211179.01802063,-3877746.105194092,-2488488.19732666,-12583097.457885742,-2575906.276702881,-2094846.248626709,-2570840.59715271,-870656.1923027039,-1826643.943786621,-3512968.5401916504,-2513382.911682129,-6656114.101409912,-13117766.380310059,-2070568.0847167969,-1383248.5675811768,3609045.0286865234,-3437517.8813934326,-1774002.9096603394,2967042.922973633,-5571951.866149902,3131694.3168640137,2222589.2543792725,-1560936.0933303833,2511962.1753692627,1515649.914741516,-3256798.74420166,-3077863.6932373047,-302017.6589488983,43803848.26660156,3520941.4958953857,2491207.5996398926,2195002.794265747,7061635.971069336,6334386.825561523,-1454522.8481292725,1736954.5698165894,4617017.2691345215,5292738.914489746,679250.0615119934,2348500.7286071777,2584154.3674468994,2580174.684524536,-1397047.4004745483,2536168.8137054443,2275146.007537842,2397262.8116607666,2542377.233505249,2761664.628982544,-1357755.0649642944,2309268.2361602783,1840092.3013687134
0.04,-5044856.071472168,-671177.1488189697,-4241526.6036987305,-630339.0860557556,-640497.3268508911,-8723005.294799805,-6116145.133972168,-4276949.882507324,-4372025.489807129,-1355859.637260437,1256583.333015442,3470573.663711548,-3094012.975692749,-2323399.305343628,-14319186.210632324,-3941354.990005493,-3387864.351272583,-3655882.5969696045,-2088366.2700653076,-1821397.7813720703,-2517417.1924591064,-1618499.3982315063,-7423254.96673584,-15243666.648864746,-3778163.433074951,-2744622.230529785,2475046.8730926514,-3399070.978164673,-1296268.105506897,2355878.3531188965,-6104228.0197143555,2225614.070892334,-2600515.365600586,-4027716.1598205566,1315102.5772094727,1182552.8144836426,-3114155.2925109863,-2776449.44190979,929340.3625488281,40858890.533447266,62628.24684381485,-2467035.5319976807,-2731344.46144104,5456310.272216797,6380401.611328125,-495427.81710624695,2834815.02532959,4059246.54006958,2675482.988357544,-2267717.3614501953,-2576623.6782073975,-2444449.1863250732,-2376987.4572753906,-4289677.143096924,-2813283.920288086,-2933217.0486450195,-2833961.7252349854,-2451286.792755127,-2257741.4512634277,-4253702.163696289,-3094753.9806365967,-3435878.5152435303
0.045,-7786432.74307251,-3501493.6923980713,-6830849.647521973,-1943752.0503997803,-2056476.8314361572,-10363571.166992188,-7178952.693939209,-5137454.032897949,-5148287.296295166,-2297206.163406372,1011154.294013977,2480299.234390259,-4070999.6223449707,-3016419.4107055664,-15646932.601928711,-5812213.42086792,-4646201.610565186,-4714841.365814209,-2979547.2621917725,-1701516.6282653809,-1452169.418334961,-609500.9446144104,-7393859.86328125,-16858329.77294922,-4997394.08493042,-4796104.431152344,1421265.0060653687,-3771896.8391418457,-1195532.7987670898,3188625.3356933594,-6510569.5724487305,3203349.828720093,-6304892.539978027,-6661867.618560791,-1798836.7080688477,-668594.0623283386,-3455238.5807037354,-3111077.7854919434,853629.8871040344,43523223.876953125,695405.3044319153,-6160777.0919799805,-6438058.376312256,1653954.3867111206,2740528.8219451904,-1814347.6247787476,2162086.248397827,3145879.030227661,-17733.639106154442,-4045003.890991211,-6176644.325256348,-6290997.9820251465,-5975902.080535889,-7008246.421813965,-5868475.914001465,-6056526.184082031,-5868911.266326904,-6075002.193450928,-5975701.808929443,-6812565.326690674,-6217027.66418457,-6439041.614532471
0.05,-13040508.270263672,-8900976.181030273,-12660055.160522461,-5468588.352203369,-5648326.396942139,-13439655.303955078,-9185616.493225098,-5927888.870239258,-5878633.02230835,-3048808.3362579346,-411322.77250289917,-876548.1114387512,-7545869.827270508,-7285994.529724121,-19453704.833984375,-9711915.969848633,-6319245.8152771,-6447535.991668701,-3973472.833633423,-2835629.2247772217,-2700682.4016571045,-2696512.9375457764,-10308703.422546387,-20907821.655273438,-7845220.565795898,-7999222.278594971,-700536.1318588257,-5292871.475219727,-2765819.787979126,2047899.7230529785,-8494754.791259766,213876.67953968048,-10002839.088439941,-10231345.176696777,-7590002.059936523,-4653348.445892334,-5039016.7236328125,-4435783.386230469,-2772665.26222229,57193977.35595703,716157.5555801392,-9751031.875610352,-10076104.164123535,-4089911.937713623,-3554842.233657837,-6023914.337158203,-1619914.4124984741,228384.1222524643,-3160562.27684021,-6687434.196472168,-9764004.707336426,-9960098.266601562,-9474431.037902832,-10398754.119873047,-8496777.534484863,-8917647.361755371,-8528328.895568848,-9518989.562988281,-9566543.579101562,-10025573.73046875,-8890385.627746582,-9080917.358398438
0.055,-14453353.881835938,-10492375.373840332,-14704308.50982666,-8074934.005737305,-8352936.744689941,-16727760.314941406,-11166543.960571289,-6360824.5849609375,-6272203.9222717285,-3693199.872970581,-2793215.51322937,-5054119.110107422,-11295090.675354004,-12876153.945922852,-24131156.92138672,-13853260.99395752,-8113473.892211914,-8519684.791564941,-5432697.296142578,-5444200.9925842285,-6311497.688293457,-7733871.4599609375,-16418640.13671875,-25875337.600708008,-11780718.803405762,-11262075.424194336,-4267499.4468688965,-7735112.190246582,-5919783.592224121,-2823366.403579712,-11484367.370605469,-7979065.418243408,-15023581.504821777,-14031570.434570312,-14048457.145690918,-9446330.070495605,-7531619.071960449,-6145843.982696533,-8975715.637207031,77388488.76953125,-3589009.0465545654,-14709634.780883789,-15077578.5446167,-10119825.36315918,-9496871.948242188,-10848775.863647461,-7021072.3876953125,-4137915.61126709,-7246910.572052002,-11285136.222839355,-14828351.974487305,-14888688.087463379,-14458524.703979492,-14257130.62286377,-13001919.746398926,-13567723.274230957,-12955991.744995117,-14423456.192016602,-14521762.84790039,-13886881.828308105,-13386362.075805664,-13649716.3772583
0.06,-13268317.222595215,-9291393.280029297,-13216079.711914062,-9476866.722106934,-10076150.894165039,-18011716.842651367,-12208553.314208984,-7270615.100860596,-7183835.506439209,-4983057.498931885,-5489412.307739258,-8734950.065612793,-14413267.135620117,-17481843.948364258,-25451778.411865234,-15258436.20300293,-9610013.961791992,-10280807.495117188,-7564396.381378174,-8788784.980773926,-10634793.281555176,-13044420.24230957,-22492242.81311035,-27427261.352539062,-14185320.854187012,-13262897.491455078,-8249711.990356445,-10360271.453857422,-9487152.099609375,-9282898.902893066,-14018540.382385254,-15807750.701904297,-18946884.155273438,-15539533.615112305,-18084856.033325195,-13068608.283996582,-10062253.952026367,-7499550.342559814,-14290678.024291992,97627807.6171875,-8651978.492736816,-18628372.192382812,-19046798.706054688,-14010675.430297852,-13438811.302185059,-14301801.681518555,-11468741.416931152,-7484249.114990234,-11041833.877563477,-14938732.147216797,-18863683.700561523,-18859518.05114746,-18507459.64050293,-17115592.95654297,-17161048.889160156,-17726976.39465332,-16900415.420532227,-18463979.721069336,-18458717.346191406,-16843235.01586914,-17559309.005737305,-17931333.541870117
0.065,-20513277.053833008,-16529026.03149414,-19444839.477539062,-14168927.192687988,-15292433.738708496,-18952381.134033203,-13909512.519836426,-10232384.68170166,-10162606.239318848,-8024059.295654297,-8828620.910644531,-12544591.903686523,-18734487.533569336,-22814113.61694336,-23856283.18786621,-14808846.473693848,-11295364.379882812,-12034541.130065918,-10092409.133911133,-11829526.901245117,-14255889.892578125,-16818372.72644043,-26172035.217285156,-25848169.326782227,-14673460.006713867,-14326756.477355957,-11329990.38696289,-12320150.375366211,-12091338.157653809,-13982638.359069824,-16133449.55444336,-18259704.58984375,-19206789.016723633,-14434469.223022461,-19166397.094726562,-14689872.741699219,-11834439.277648926,-8224171.6384887695,-16227140.426635742,112799003.60107422,-9477597.2366333,-18843606.94885254,-19373050.689697266,-14875243.186950684,-15743609.428405762,-16351146.697998047,-13657803.535461426,-8631070.137023926,-13150422.096252441,-15033807.754516602,-19159151.077270508,-19343416.213989258,-18863920.211791992,-18165769.577026367,-17778402.32849121,-18359815.59753418,-17307001.1138916,-18862678.52783203,-18740417.48046875,-17843334.197998047,-18304363.250732422,-18702938.079833984
0.07,-34996116.638183594,-31018583.297729492,-33271034.240722656,-22037160.873413086,-23090566.635131836,-23168697.357177734,-18094406.127929688,-14545272.827148438,-14448979.377746582,-11653300.285339355,-12228355.407714844,-16087818.145751953,-23565422.05810547,-28574733.73413086,-25884277.34375,-17112092.971801758,-14151345.252990723,-14775293.350219727,-12387395.858764648,-13876173.973083496,-16556451.797485352,-18885181.427001953,-28125442.504882812,-27786943.435668945,-17045835.494995117,-16710733.413696289,-13827933.311462402,-13580931.663513184,-13557034.492492676,-16433744.430541992,-19238466.262817383,-18037563.32397461,-20057126.998901367,-15478278.160095215,-21206058.502197266,-15969417.572021484,-13009697.914123535,-8783490.180969238,-16142585.754394531,122517639.16015625,-8697752.952575684,-19585060.119628906,-20273614.88342285,-16010923.385620117,-18125680.923461914,-18424745.559692383,-14930504.79888916,-9810492.515563965,-15184875.48828125,-15052951.81274414,-19987640.380859375,-20424282.07397461,-19729986.1907959,-19661485.67199707,-18226137.161254883,-18922506.33239746,-17659738.540649414,-19708312.98828125,-19575771.33178711,-19113128.662109375,-18942384.719848633,-19304962.158203125
0.075,-28073846.8170166,-23248214.721679688,-26882057.189941406,-20356967.92602539,-20005161.28540039,-27480522.15576172,-21184076.3092041,-14977058.410644531,-14832370.75805664,-10527706.146240234,-11420745.849609375,-14878566.74194336,-21835451.126098633,-26057346.34399414,-35171230.31616211,-23277967.45300293,-17372434.616088867,-17874588.012695312,-13547450.065612793,-14512346.267700195,-16585941.314697266,-18392711.639404297,-29419860.83984375,-37216262.81738281,-24658657.07397461,-21992898.94104004,-17315078.735351562,-15413296.699523926,-15303696.632385254,-18902633.666992188,-23692989.349365234,-22243442.53540039,-30365453.720092773,-24053543.090820312,-29156801.223754883,-20128307.342529297,-14922798.156738281,-10108303.07006836,-18092384.338378906,133840515.13671875,-14144845.008850098,-29818025.588989258,-30575437.545776367,-23066835.403442383,-23179895.401000977,-22593402.862548828,-18479721.069335938,-14682838.439941406,-21101852.416992188,-21998083.114624023,-30327663.42163086,-30830465.31677246,-30097539.9017334,-26189561.84387207,-27094184.87548828,-27927770.614624023,-26489465.713500977,-29997289.657592773,-29847536.087036133,-25455444.3359375,-27923870.086669922,-28432609.55810547
0.08,28109510.42175293,35050464.63012695,26898096.084594727,4790207.386016846,6666792.869567871,-21128978.729248047,-15151240.348815918,-5691999.912261963,-5556897.6402282715,599071.8007087708,-1642760.2767944336,-4409770.0119018555,-7240931.510925293,-7167861.9384765625,-45074562.072753906,-27012311.935424805,-17684835.43395996,-18223127.365112305,-12409957.885742188,-13284609.7946167,-13139650.344848633,-13878780.364990234,-29616924.285888672,-47634189.60571289,-34669483.18481445,-28142311.096191406,-21794507.98034668,-18854057.31201172,-18472957.611083984,-22792682.647705078,-27893524.169921875,-33025501.251220703,-51873321.533203125,-38452396.392822266,-42710731.506347656,-28310409.545898438,-18456800.46081543,-12536943.435668945,-24304430.00793457,153476455.68847656,-27878417.96875,-51367404.93774414,-51952114.10522461,-37173732.75756836,-32357509.61303711,-30099853.515625,-26042484.283447266,-24074060.440063477,-32243358.612060547,-37318370.8190918,-51939682.00683594,-52361820.220947266,-51738811.49291992,-39592506.408691406,-47052837.37182617,-47998046.875,-46345493.31665039,-51678062.438964844,-51326313.01879883,-38856414.794921875,-47900394.439697266,-48916580.20019531
0.085,114337699.89013672,122941184.9975586,108117919.921875,46074798.583984375,46721565.24658203,-97464.12932872772,1633412.8379821777,11201057.434082031,11298667.907714844,18395332.33642578,14092074.394226074,11417191.505432129,13980704.307556152,19193536.75842285,-45761230.46875,-22331722.259521484,-13264122.009277344,-13964925.765991211,-8858676.91040039,-10574235.916137695,-7388575.077056885,-7265340.328216553,-29176891.326904297,-48911758.42285156,-40175380.70678711,-31041753.7689209,-24923179.626464844,-22779727.935791016,-22013446.807861328,-26992834.091186523,-30419803.619384766,-44924579.62036133,-73862297.05810547,-50064369.201660156,-55209587.09716797,-37266345.9777832,-22352020.263671875,-15075134.27734375,-32235034.942626953,176715499.8779297,-42443470.0012207,-73469070.43457031,-73700080.87158203,-51598579.40673828,-43154247.28393555,-39117881.774902344,-35047401.428222656,-34219108.58154297,-44339416.50390625,-53478034.97314453,-74025047.3022461,-74422042.84667969,-73781936.64550781,-54702224.73144531,-68628028.8696289,-69721855.16357422,-67766319.27490234,-73973289.4897461,-73314041.13769531,-54057823.181152344,-69549484.25292969,-71197204.58984375
0.09,166646881.10351562,173999572.75390625,153596969.6044922,72569877.62451172,68330047.60742188,20993049.62158203,16884099.96032715,23104982.376098633,23288753.509521484,29372280.12084961,23019548.416137695,19449579.2388916,23869285.583496094,29054073.333740234,-38241840.36254883,-13958753.58581543,-8267033.576965332,-9065640.449523926,-5935896.873474121,-9129446.029663086,-4512634.27734375,-5431505.6800842285,-31778232.57446289,-41622577.66723633,-39011466.97998047,-30009820.93811035,-25554254.53186035,-25042634.963989258,-24086555.48095703,-30294919.967651367,-32340923.309326172,-52010307.31201172,-83640075.68359375,-52894134.521484375,-60802700.04272461,-42429977.41699219,-24513082.50427246,-16443836.212158203,-37163784.02709961,193266906.73828125,-49458038.330078125,-83295707.70263672,-83306152.34375,-58330013.275146484,-50207370.75805664,-44950862.884521484,-40517028.80859375,-39915458.67919922,-51270500.18310547,-61499244.689941406,-83829635.62011719,-84305152.8930664,-83432640.0756836,-62534790.0390625,-78868408.203125,-80174057.00683594,-77952812.19482422,-83904678.34472656,-83107742.30957031,-61932441.71142578,-80031509.39941406,-81948822.02148438
0.095,139352386.47460938,142746078.49121094,121365608.21533203,58971740.72265625,49661052.70385742,20864164.352416992,14652552.604675293,17766180.03845215,18184717.178344727,21770172.119140625,14190268.516540527,9495941.162109375,10371999.740600586,8509991.645812988,-34314559.93652344,-13631102.561950684,-9817671.775817871,-10543066.024780273,-8300004.005432129,-12504976.272583008,-9576489.448547363,-13750698.08959961,-40498149.87182617,-37434951.78222656,-36494533.53881836,-29193473.81591797,-25912002.563476562,-25254692.07763672,-24760284.423828125,-33099231.719970703,-35711330.41381836,-53828685.76049805,-79291572.57080078,-49392372.131347656,-60450920.10498047,-42643253.326416016,-24659549.713134766,-16620594.024658203,-37131042.48046875,201509689.3310547,-47948066.71142578,-78853195.19042969,-79021842.95654297,-56378459.93041992,-50283786.77368164,-44142532.34863281,-40151203.15551758,-39168449.40185547,-51043441.77246094,-59530605.31616211,-79442565.91796875,-79982482.91015625,-78885986.328125,-58758861.54174805,-74260208.12988281,-75747642.51708984,-73493743.89648438,-79419403.07617188,-78743438.72070312,-58143344.87915039,-75709518.43261719,-77361816.40625
0.1,55064037.32299805,55051811.21826172,38283569.3359375,14316818.237304688,4354187.488555908,-3063557.8632354736,-5713250.160217285,-2598018.169403076,-2025610.6853485107,-662864.9234771729,-8003816.604614258,-13105726.24206543,-17868133.544921875,-28127212.524414062,-40330940.24658203,-24556110.382080078,-18879892.349243164,-19473287.58239746,-16411540.985107422,-20290079.11682129,-20740121.841430664,-28046237.94555664,-51726158.142089844,-42918434.143066406,-37254093.170166016,-31453409.19494629,-27903503.41796875,-24780208.587646484,-25401165.008544922,-35285850.524902344,-39742908.4777832,-52452556.61010742,-68187820.43457031,-44691448.21166992,-58414142.60864258,-40082973.48022461,-24142129.89807129,-16439950.942993164,-33917633.056640625,205894805.90820312,-42118717.193603516,-67591094.97070312,-68146026.61132812,-50580345.153808594,-45038383.48388672,-38113380.432128906,-36140480.041503906,-34156906.12792969,-46377262.115478516,-52015396.11816406,-68274139.40429688,-68790954.58984375,-67678108.21533203,-47670005.798339844,-61775310.51635742,-63302600.8605957,-61257869.720458984,-68079864.50195312,-67571884.15527344,-47068687.438964844,-63291542.053222656,-64478469.84863281
0.105,-22249004.364013672,-22581714.630126953,-31604093.551635742,-27164928.436279297,-33082637.786865234,-29850540.161132812,-27136827.46887207,-22292015.075683594,-21866333.0078125,-21269340.51513672,-26844316.482543945,-31602443.69506836,-39535045.6237793,-52972160.33935547,-48017192.84057617,-35915805.81665039,-27591896.057128906,-28149503.707885742,-24203058.24279785,-26804014.205932617,-29432336.807250977,-37036464.69116211,-56803241.72973633,-50047065.73486328,-38363033.294677734,-33602653.50341797,-29191827.77404785,-24060428.619384766,-25715234.756469727,-34546897.888183594,-40504570.00732422,-47554504.39453125,-56170299.5300293,-39244430.54199219,-55405017.8527832,-36330642.70019531,-23331855.77392578,-15916652.67944336,-29636421.20361328,203028579.71191406,-34593250.2746582,-55519161.224365234,-56302764.892578125,-44088817.59643555,-38186794.28100586,-31227710.723876953,-31520364.76135254,-27939859.39025879,-40144256.591796875,-42988090.51513672,-56202140.80810547,-56645809.173583984,-55659095.764160156,-36708648.681640625,-48937934.87548828,-50340831.7565918,-48568416.595458984,-55970798.49243164,-55492485.04638672,-36174125.67138672,-50202354.431152344,-51123538.970947266
0.11,-55669700.622558594,-54341655.73120117,-56456912.994384766,-43020412.44506836,-44574428.55834961,-39377460.47973633,-34297763.82446289,-29137290.954589844,-29046085.357666016,-28355165.481567383,-31438827.514648438,-35654445.64819336,-43259590.14892578,-54903591.15600586,-46399253.845214844,-36757736.20605469,-28643815.994262695,-29237081.52770996,-25691009.521484375,-27245550.15563965,-29637554.168701172,-34697895.05004883,-51769821.16699219,-47923229.2175293,-34507625.579833984,-31191263.19885254,-26442441.940307617,-22183847.427368164,-24029783.248901367,-29568981.170654297,-35879379.27246094,-38541526.794433594,-44038116.455078125,-31325155.25817871,-49503921.50878906,-31360902.786254883,-21334306.716918945,-14326671.600341797,-24796337.127685547,186406127.9296875,-25616159.439086914,-43499340.05737305,-44239833.83178711,-36576480.865478516,-31740726.470947266,-25872566.22314453,-26885837.55493164,-21689624.786376953,-32943851.470947266,-33734504.69970703,-44021438.59863281,-44400974.27368164,-43514667.51098633,-28711444.854736328,-37568260.192871094,-38752044.677734375,-37214553.83300781,-43851890.563964844,-43350051.87988281,-28245964.05029297,-38474056.243896484,-39362869.26269531
0.115,-60564811.70654297,-58369930.267333984,-56895027.16064453,-41604736.328125,-42032646.17919922,-34287353.515625,-30156269.073486328,-26602502.822875977,-26684350.967407227,-26348857.879638672,-27553625.106811523,-31273880.004882812,-37394153.5949707,-47702552.795410156,-37699230.1940918,-30370178.22265625,-24666671.752929688,-25233753.204345703,-22809171.676635742,-24106401.443481445,-25116130.828857422,-27327215.19470215,-43060558.3190918,-38764419.55566406,-27433620.45288086,-26264474.868774414,-21685079.57458496,-19700201.0345459,-21089885.711669922,-24030069.35119629,-29565822.60131836,-29643093.10913086,-33416118.621826172,-23898365.020751953,-42742961.88354492,-26585186.004638672,-18769233.70361328,-12173041.343688965,-20536008.834838867,166268890.38085938,-17239225.387573242,-33002738.95263672,-33726257.32421875,-29365892.41027832,-26334550.857543945,-21563772.201538086,-22271141.052246094,-16007658.004760742,-25872837.06665039,-26124521.255493164,-33291702.270507812,-33663879.39453125,-32799167.63305664,-21724155.42602539,-27601310.72998047,-28603532.791137695,-27340124.130249023,-33116039.276123047,-32680397.033691406,-21273828.506469727,-28351274.490356445,-29234483.71887207
0.12,-67433753.96728516,-65800155.63964844,-63762924.19433594,-43232845.306396484,-44728908.53881836,-31909601.21154785,-28653312.68310547,-26243320.46508789,-26163084.030151367,-26795093.536376953,-27722537.994384766,-31062107.08618164,-36628616.33300781,-49035602.56958008,-34159923.5534668,-29033269.88220215,-24340835.571289062,-24811582.565307617,-22956293.1060791,-24348390.579223633,-24581724.166870117,-25836166.381835938,-40975055.69458008,-34846294.40307617,-24910968.780517578,-25759031.295776367,-21239398.956298828,-19484851.837158203,-20817846.298217773,-24236932.7545166,-28137090.6829834,-27870143.89038086,-28873315.811157227,-22829248.428344727,-41201202.392578125,-25529069.900512695,-18515895.84350586,-11519490.242004395,-20148132.32421875,166339385.98632812,-13839400.291442871,-28374458.31298828,-29345127.10571289,-26806659.698486328,-23404968.26171875,-18587377.548217773,-20183336.25793457,-13351707.458496094,-22612098.693847656,-23826946.258544922,-28519891.7388916,-28977582.931518555,-28088069.915771484,-15238330.841064453,-21843164.443969727,-22846004.486083984,-21912038.803100586,-28271654.12902832,-27910869.598388672,-14719689.36920166,-22707698.822021484,-23530363.082885742
0.125,-82620773.31542969,-81114311.21826172,-79814178.46679688,-53321758.27026367,-55011703.49121094,-40462387.08496094,-35732963.56201172,-32140739.44091797,-31744255.06591797,-32778743.743896484,-34914249.420166016,-38458496.09375,-44514442.443847656,-60264743.80493164,-41152782.44018555,-37347473.14453125,-30631267.547607422,-31061597.82409668,-28784292.221069336,-30253381.729125977,-30776994.705200195,-32967746.73461914,-48332149.505615234,-41577468.87207031,-30352136.611938477,-31999254.22668457,-27262655.25817871,-23009099.96032715,-25330425.262451172,-31722934.72290039,-33784244.537353516,-34725467.681884766,-31602827.072143555,-28169174.194335938,-46765239.71557617,-29397581.100463867,-21998786.92626953,-13382347.106933594,-25500637.05444336,192247695.92285156,-17031169.891357422,-30775581.35986328,-32031326.293945312,-30239646.911621094,-24217887.87841797,-19090888.97705078,-23351779.93774414,-16249832.153320312,-25575588.22631836,-27981201.171875,-30947216.033935547,-31536806.106567383,-30589735.03112793,-12536182.403564453,-23007202.1484375,-24211612.701416016,-23466886.520385742,-30703634.26208496,-30257711.41052246,-11864844.32220459,-24022222.5189209,-24819608.688354492
0.13,-92951103.21044922,-89900268.5546875,-89435234.06982422,-61443820.95336914,-61871963.50097656,-51858505.24902344,-44389987.94555664,-38002456.66503906,-37427688.59863281,-37376590.728759766,-41043468.4753418,-45731731.41479492,-52788806.9152832,-70071609.49707031,-50736709.59472656,-47347728.72924805,-37426921.84448242,-37911869.049072266,-34457939.14794922,-36318527.22167969,-37661346.435546875,-41230907.44018555,-57845809.93652344,-50998023.986816406,-38001049.04174805,-38970027.923583984,-33852954.86450195,-27274076.461791992,-31027082.443237305,-40347663.87939453,-41444847.106933594,-43191703.79638672,-35707782.74536133,-32491127.014160156,-52948593.13964844,-34022991.18041992,-26235757.82775879,-15845395.0881958,-32790241.241455078,218321426.39160156,-22432462.692260742,-34537128.44848633,-35715068.81713867,-34435276.03149414,-26968530.654907227,-23032733.917236328,-29620845.794677734,-22658510.208129883,-31028976.440429688,-33915546.41723633,-34839202.880859375,-35470077.51464844,-34455329.89501953,-15392086.029052734,-28156019.21081543,-29579271.31652832,-28718427.658081055,-34680339.81323242,-34053466.796875,-14536441.802978516,-29118822.09777832,-29978628.158569336
0.135,-92011253.3569336,-86948432.92236328,-87165939.33105469,-60217086.79199219,-59816246.032714844,-56169380.18798828,-46898773.193359375,-37976348.876953125,-37460693.359375,-35333377.838134766,-39621406.55517578,-45678169.25048828,-54182510.37597656,-71112915.0390625,-53394195.556640625,-50324008.94165039,-38338665.00854492,-38864398.95629883,-33710327.1484375,-36474506.37817383,-38668254.85229492,-42889213.56201172,-60959190.368652344,-53558280.94482422,-40471378.326416016,-40033805.84716797,-34150199.89013672,-27858886.71875,-32316543.579101562,-42750793.45703125,-44302101.135253906,-45498634.338378906,-35146614.07470703,-30356092.45300293,-52587882.99560547,-34176971.435546875,-26879409.790039062,-16157104.4921875,-35276065.826416016,218626342.7734375,-23936559.677124023,-33873207.092285156,-34615333.557128906,-33791076.66015625,-27744840.621948242,-26136066.436767578,-32737937.927246094,-26274229.049682617,-32035449.981689453,-35406925.201416016,-34287227.630615234,-34817367.55371094,-33778663.635253906,-20076881.408691406,-30858827.590942383,-32314029.693603516,-31168268.20373535,-34116611.48071289,-33457290.649414062,-19109256.744384766,-31612512.588500977,-32579219.818115234
0.14,-86594894.40917969,-80907493.5913086,-81527450.56152344,-54237960.81542969,-54408046.72241211,-53786479.94995117,-44232261.657714844,-33986526.48925781,-33650047.302246094,-29767765.045166016,-33606025.69580078,-40000278.47290039,-50159366.607666016,-66702270.5078125,-49741916.65649414,-47149356.842041016,-34433712.005615234,-34931159.97314453,-28029621.124267578,-31534755.70678711,-34310493.46923828,-38425148.010253906,-57081382.751464844,-49885711.669921875,-37599277.49633789,-36020835.876464844,-28905073.165893555,-24531969.07043457,-28527812.957763672,-38506095.88623047,-41125774.38354492,-41895336.15112305,-31870286.94152832,-25486501.693725586,-47265544.89135742,-30250394.821166992,-23705112.45727539,-14214570.045471191,-31103420.25756836,200084014.89257812,-20702648.162841797,-30761486.053466797,-31140758.514404297,-29987268.447875977,-25500772.47619629,-24997591.018676758,-29825593.948364258,-23677192.68798828,-27164117.81311035,-31962995.529174805,-31227746.963500977,-31653678.89404297,-30633880.615234375,-21971387.86315918,-29331056.594848633,-30658987.045288086,-29341772.079467773,-30882759.09423828,-30391483.306884766,-21039924.62158203,-29975267.41027832,-31071195.602416992
0.145,-83377426.14746094,-78437721.2524414,-78893013.00048828,-50818634.033203125,-51750640.869140625,-51249652.86254883,-41754840.85083008,-31089506.149291992,-30879631.04248047,-26237354.278564453,-29560449.600219727,-35146373.7487793,-46389453.88793945,-63550457.00073242,-47318431.85424805,-44595577.239990234,-31230760.57434082,-31726623.53515625,-23862346.649169922,-27200450.897216797,-29937072.75390625,-33990299.224853516,-52774295.806884766,-47539737.701416016,-35086837.76855469,-32913772.583007812,-24843425.750732422,-21489233.016967773,-24422164.916992188,-33657981.872558594,-36654483.795166016,-39024005.88989258,-32829280.853271484,-25290546.417236328,-44987102.50854492,-27752634.048461914,-20812799.45373535,-12534090.995788574,-25643550.872802734,189474151.61132812,-17850948.333740234,-31961898.803710938,-32336254.119873047,-29552139.282226562,-23826728.82080078,-22234720.23010254,-25253122.329711914,-19010841.369628906,-22785354.614257812,-29215450.286865234,-32475078.582763672,-32932952.880859375,-31897975.92163086,-21975898.74267578,-28618181.228637695,-29851406.09741211,-28556259.155273438,-31967794.41833496,-31607742.309570312,-21178159.713745117,-29398313.522338867,-30641801.834106445
0.15,-81969619.75097656,-77501998.90136719,-77444496.15478516,-50574169.15893555,-51364204.40673828,-51401798.248291016,-41219158.17260742,-30462865.829467773,-30218683.24279785,-25476100.92163086,-29175239.56298828,-34091804.50439453,-45454505.920410156,-63751819.6105957,-49359470.36743164,-45589561.462402344,-31109325.408935547,-31688533.782958984,-24008413.314819336,-26618736.267089844,-28639274.59716797,-33248195.64819336,-53121429.443359375,-49731494.90356445,-36002864.837646484,-33485561.37084961,-25569011.688232422,-21745948.791503906,-23769933.700561523,-32685791.015625,-35088191.986083984,-40466758.728027344,-39540538.7878418,-30400995.2545166,-49060752.868652344,-29757783.889770508,-21130928.03955078,-12798772.811889648,-24502758.026123047,195176116.94335938,-19573192.596435547,-38825180.05371094,-39340229.03442383,-34244430.54199219,-25804347.99194336,-22774547.576904297,-24610105.514526367,-18506309.509277344,-24460500.717163086,-31283235.549926758,-39406837.463378906,-39950389.86206055,-38850120.544433594,-24112491.607666016,-32781867.98095703,-33996231.07910156,-32782245.635986328,-38908378.60107422,-38459537.506103516,-23394500.732421875,-33807037.353515625,-35131713.8671875
0.155,-80573616.02783203,-75514892.578125,-75466941.8334961,-50238906.86035156,-50834671.02050781,-51691841.12548828,-40537452.697753906,-30037687.301635742,-29607933.044433594,-25101783.752441406,-29806396.484375,-35162525.17700195,-46186294.55566406,-64855522.15576172,-51302185.05859375,-46812500.0,-31711475.372314453,-32340316.772460938,-25510494.232177734,-27927482.60498047,-29253665.924072266,-34454036.712646484,-56387554.16870117,-51825660.705566406,-36933322.90649414,-34576549.5300293,-27619403.839111328,-23535238.26599121,-25171234.130859375,-33867649.07836914,-35520465.85083008,-42564697.265625,-44965545.654296875,-33647602.08129883,-53553192.138671875,-32702709.197998047,-22904514.31274414,-13899429.321289062,-26663175.582885742,200004074.0966797,-23610731.12487793,-44328353.88183594,-44754989.62402344,-37890190.12451172,-28878587.72277832,-26085042.95349121,-27059829.711914062,-21804454.803466797,-29068756.103515625,-35311946.868896484,-44931247.71118164,-45427177.42919922,-44313777.923583984,-27755531.311035156,-38087009.42993164,-39213489.5324707,-38053417.20581055,-44525756.8359375,-43897945.404052734,-26976955.41381836,-39209358.21533203,-40457775.1159668
0.16,-80165023.80371094,-74763092.04101562,-75763214.11132812,-49487976.07421875,-51430912.017822266,-49501323.69995117,-38620063.78173828,-29289209.365844727,-28668460.845947266,-25202688.217163086,-30478507.99560547,-36922279.357910156,-47634010.314941406,-64902580.26123047,-48041549.68261719,-44752311.70654297,-30786207.19909668,-31322120.666503906,-25545185.089111328,-28709999.084472656,-30247867.584228516,-34900074.00512695,-58039443.96972656,-48609855.65185547,-33446537.017822266,-32715904.235839844,-26545789.71862793,-23616376.876831055,-25499937.057495117,-33757228.85131836,-34933017.73071289,-40930309.2956543,-42646060.943603516,-29657793.045043945,-51737613.677978516,-31738729.47692871,-22956262.588500977,-14064142.227172852,-27353708.267211914,192728057.86132812,-24576530.45654297,-42115531.92138672,-42214225.76904297,-34806472.77832031,-28078493.118286133,-26806409.83581543,-27438447.952270508,-22953622.817993164,-29520627.975463867,-35910545.349121094,-42635795.59326172,-42959926.60522461,-41941333.77075195,-27623497.009277344,-37898895.263671875,-38858543.395996094,-37725849.15161133,-42239734.6496582,-41574024.20043945,-26736423.49243164,-38872314.453125,-39978511.810302734
0.165,-81554405.21240234,-77685752.86865234,-80196418.76220703,-50617572.78442383,-55596721.64916992,-45473842.62084961,-36843185.42480469,-29855903.62548828,-29226060.86730957,-27992418.28918457,-33017421.72241211,-40297935.485839844,-50544227.600097656,-65166557.31201172,-41021377.56347656,-40713783.264160156,-29512315.75012207,-29922662.73498535,-25458135.6048584,-29586381.912231445,-32185905.45654297,-35160297.39379883,-57630916.595458984,-41432834.62524414,-26930486.67907715,-29312515.258789062,-23648437.5,-22263824.462890625,-24963102.340698242,-33167423.248291016,-33594085.693359375,-37748504.638671875,-35542621.61254883,-21966169.357299805,-45615741.72973633,-28030809.40246582,-21599239.349365234,-13598040.580749512,-25742418.28918457,187243988.03710938,-21676229.47692871,-35160205.84106445,-35045017.24243164,-28202295.303344727,-23717710.494995117,-23514244.079589844,-24782382.96508789,-19775573.73046875,-25347816.467285156,-33164718.627929688,-35560287.47558594,-35795936.584472656,-34872905.73120117,-22557361.602783203,-32617382.049560547,-33564254.76074219,-32350978.85131836,-35119121.55151367,-34556411.74316406,-21680248.260498047,-33339904.78515625,-34461238.861083984
0.17,-83410781.86035156,-82481315.61279297,-85981094.36035156,-53693328.857421875,-61957557.678222656,-42179016.11328125,-36436843.87207031,-32106418.60961914,-31680057.525634766,-32928607.940673828,-37682975.76904297,-45453674.31640625,-55032966.61376953,-67990089.4165039,-36400760.650634766,-38904174.8046875,-30207950.592041016,-30648603.439331055,-27598953.247070312,-32094745.635986328,-35537330.627441406,-37440185.546875,-58852458.95385742,-36503746.032714844,-23439062.118530273,-28408990.85998535,-23732620.239257812,-22462842.94128418,-26084497.451782227,-35475456.23779297,-34607242.584228516,-38944999.69482422,-32228202.81982422,-18424070.358276367,-43061180.114746094,-27111978.53088379,-21828792.572021484,-14119622.230529785,-25546571.731567383,199837448.1201172,-19777433.395385742,-31948305.130004883,-31964975.357055664,-26314487.45727539,-21693624.49645996,-21486198.42529297,-23826305.389404297,-17090934.75341797,-23070327.758789062,-32317436.21826172,-32297103.881835938,-32626213.07373047,-31681177.139282227,-18689441.680908203,-29525762.5579834,-30723051.071166992,-29234283.447265625,-31904912.9486084,-31399740.21911621,-17953350.067138672,-30117465.97290039,-31461124.420166016
0.175,-84085464.47753906,-85132995.60546875,-88760574.34082031,-55496437.072753906,-65763549.8046875,-41113834.381103516,-36682083.12988281,-33794799.8046875,-33590839.38598633,-35843460.08300781,-41044235.22949219,-49138366.69921875,-58553554.53491211,-72316116.33300781,-37282665.25268555,-40803665.16113281,-32449928.283691406,-33052177.42919922,-30760778.427124023,-35007369.99511719,-38206035.61401367,-40929725.646972656,-62765972.13745117,-37204132.080078125,-25810045.24230957,-30705863.95263672,-27455837.24975586,-24744035.720825195,-28675392.150878906,-39946666.7175293,-38247924.8046875,-44744960.78491211,-35327648.1628418,-21247449.87487793,-46636722.564697266,-30441299.438476562,-24171165.466308594,-15657179.832458496,-27972841.262817383,220451751.70898438,-21832763.671875,-35049415.588378906,-35364227.294921875,-31050844.192504883,-24852243.423461914,-24272541.046142578,-26907222.747802734,-18582464.21813965,-25598749.1607666,-35209980.01098633,-35404888.15307617,-35857769.01245117,-34831104.27856445,-20502740.85998535,-31819427.490234375,-33257488.250732422,-31481742.85888672,-35144454.95605469,-34573822.021484375,-19855518.341064453,-32478805.541992188,-34020347.595214844
0.18,-82890243.53027344,-83473663.33007812,-86678718.56689453,-53606075.286865234,-64110130.310058594,-41402095.794677734,-36095260.62011719,-32882740.020751953,-32704524.993896484,-34137996.673583984,-39997177.12402344,-47838626.861572266,-58020999.908447266,-73495658.87451172,-40270458.22143555,-43267700.1953125,-33275985.717773438,-33962860.107421875,-31522220.611572266,-35379161.8347168,-37568256.37817383,-41777751.92260742,-65023826.599121094,-40428833.0078125,-29801551.818847656,-32442714.69116211,-29785945.892333984,-25910049.438476562,-29324407.57751465,-41329689.025878906,-40447151.18408203,-48036441.802978516,-38379562.37792969,-24861965.17944336,-50181713.10424805,-32931938.17138672,-25376659.393310547,-16293073.654174805,-28942829.132080078,223528518.6767578,-24074670.791625977,-38029495.23925781,-38479248.046875,-35220436.096191406,-28350481.033325195,-27567197.799682617,-29442243.576049805,-20550815.58227539,-27511056.900024414,-36778636.93237305,-38358283.99658203,-38790416.7175293,-37768089.294433594,-23636346.8170166,-33530055.99975586,-34897300.720214844,-33173904.418945312,-38148326.8737793,-37495300.29296875,-22875795.364379883,-34341968.53637695,-35834754.943847656
0.185,-80075500.48828125,-78859893.79882812,-81346160.88867188,-49728019.71435547,-59198066.71142578,-41628292.083740234,-34738388.06152344,-30377603.53088379,-30026784.896850586,-30487861.63330078,-36143337.24975586,-42988544.46411133,-53922561.64550781,-69386169.43359375,-40935279.846191406,-43091876.98364258,-31360441.207885742,-31961017.608642578,-29274139.404296875,-32887794.494628906,-34355487.82348633,-38527179.71801758,-62329730.98754883,-41684097.29003906,-30068443.298339844,-30823850.631713867,-27197910.30883789,-23911140.44189453,-26630352.020263672,-37393119.81201172,-38751399.993896484,-44323024.74975586,-35720367.431640625,-24031522.750854492,-48208591.46118164,-30651626.586914062,-23297246.9329834,-15037137.985229492,-25619035.720825195,204209518.4326172,-21889602.661132812,-35246467.59033203,-35608959.19799805,-32850261.688232422,-26886791.229248047,-25921754.837036133,-26851270.67565918,-18100423.81286621,-24154678.344726562,-32932235.717773438,-35523941.04003906,-35828304.290771484,-34904159.54589844,-21736427.307128906,-29072526.931762695,-30184999.465942383,-28871637.34436035,-35242752.07519531,-34589405.05981445,-20743148.803710938,-29969284.057617188,-31235668.182373047
0.19,-77953285.21728516,-75564697.265625,-77141921.99707031,-48351207.7331543,-56326343.53637695,-42948242.1875,-35041893.005371094,-29550382.614135742,-29008762.35961914,-29744951.248168945,-34266929.626464844,-40602115.631103516,-50940872.19238281,-64991081.23779297,-40732955.93261719,-42200450.8972168,-29533584.594726562,-29990453.720092773,-27392000.198364258,-30881315.231323242,-32519420.623779297,-35297687.53051758,-58671180.725097656,-41988014.221191406,-28062728.881835938,-28423681.259155273,-23191104.888916016,-21450801.849365234,-24078128.814697266,-33094009.399414062,-36907787.32299805,-39077747.3449707,-31326667.78564453,-21136178.970336914,-44413333.892822266,-27235408.782958984,-20606859.20715332,-13521819.114685059,-21831415.1763916,187138351.4404297,-17857681.274414062,-30650842.666625977,-30935962.677001953,-28108678.817749023,-23276903.15246582,-21942176.818847656,-22310110.092163086,-13907772.064208984,-20180284.50012207,-28200147.62878418,-30965471.267700195,-31205415.725708008,-30342962.26501465,-17100088.119506836,-23221582.412719727,-24275201.79748535,-23297754.287719727,-30642179.489135742,-30053108.21533203,-15956127.166748047,-24121997.833251953,-25216691.970825195
0.195,-80639350.89111328,-77954193.11523438,-78749122.6196289,-52290645.599365234,-58905632.01904297,-48542015.075683594,-39591560.36376953,-32515678.40576172,-31903066.635131836,-33273712.158203125,-36787483.21533203,-44593391.41845703,-53136913.29956055,-67342155.45654297,-45031932.83081055,-45529502.868652344,-31637950.897216797,-31995820.999145508,-28900241.85180664,-32243625.64086914,-34632320.404052734,-37164054.87060547,-60784011.84082031,-46389114.37988281,-29985284.80529785,-29901819.229125977,-23665451.049804688,-22397062.301635742,-25564485.549926758,-34197784.423828125,-40074531.55517578,-40546394.34814453,-33423603.057861328,-22426118.850708008,-46300174.713134766,-28674024.58190918,-21312446.59423828,-13769560.813903809,-23083105.087280273,193694015.5029297,-19033191.680908203,-32500026.70288086,-32867534.637451172,-29284942.626953125,-24547382.354736328,-22681253.43322754,-22607387.54272461,-14793530.464172363,-23177850.7232666,-30412807.46459961,-32953319.549560547,-33260578.155517578,-32366123.19946289,-17697652.81677246,-25258916.8548584,-26518663.40637207,-25477567.672729492,-32692646.026611328,-32196052.55126953,-16556159.973144531,-26197874.069213867,-27247451.782226562
0.2,-89131317.13867188,-85817932.12890625,-86307838.4399414,-59472946.16699219,-65119827.27050781,-58153572.08251953,-47235130.310058594,-37800014.49584961,-37231887.81738281,-37896461.486816406,-41185802.4597168,-51882373.80981445,-58916793.82324219,-75631614.6850586,-53969921.11206055,-53156166.076660156,-37124320.98388672,-37388931.27441406,-32667602.5390625,-35669086.45629883,-38711147.30834961,-43168144.22607422,-68157341.00341797,-55211139.67895508,-36843067.16918945,-35031272.888183594,-28413282.39440918,-25958946.228027344,-29723659.51538086,-39142082.21435547,-46684940.338134766,-47310478.21044922,-41994724.27368164,-28390745.162963867,-53508739.47143555,-33798526.763916016,-24827867.50793457,-15263803.482055664,-28145416.259765625,213195617.67578125,-26284454.345703125,-40932632.44628906,-41389694.21386719,-35970016.47949219,-30720767.974853516,-28177730.560302734,-27798227.310180664,-20650342.94128418,-31377099.990844727,-38848976.135253906,-41466434.478759766,-41878162.3840332,-40953033.447265625,-24363241.19567871,-34673736.572265625,-36091693.87817383,-34800266.26586914,-41232627.868652344,-40863220.21484375,-23296697.61657715,-35752136.23046875,-36758075.71411133
0.205,-97771842.95654297,-93173057.55615234,-93674049.3774414,-64526893.615722656,-69652008.05664062,-65437316.89453125,-52575588.22631836,-41562801.361083984,-41095058.44116211,-40063968.658447266,-43336036.682128906,-55857395.17211914,-62440551.7578125,-80810218.81103516,-59745960.2355957,-58153949.73754883,-40916824.34082031,-41071132.65991211,-35143657.68432617,-37494358.06274414,-40700866.69921875,-46889217.376708984,-72526931.76269531,-61063850.40283203,-41469329.833984375,-38153709.411621094,-31218250.274658203,-27500144.958496094,-31549232.482910156,-41341911.31591797,-49426132.20214844,-49493343.353271484,-47566486.35864258,-32160728.454589844,-57507003.78417969,-35218833.923339844,-26556650.161743164,-15753248.21472168,-30341859.817504883,218698455.81054688,-31653228.759765625,-46603027.34375,-46943885.803222656,-38718151.0925293,-33730083.46557617,-30505687.713623047,-30700853.34777832,-23492376.32751465,-34895309.44824219,-43648410.79711914,-47044593.811035156,-47473117.82836914,-46607749.938964844,-28412588.119506836,-40185863.49487305,-41527046.20361328,-40186439.514160156,-46676586.15112305,-46440322.87597656,-27437625.885009766,-41408657.07397461,-42315711.975097656
0.21,-99375869.75097656,-94012443.54248047,-94394302.36816406,-64050567.626953125,-69028877.25830078,-64395370.48339844,-51352149.963378906,-41414718.62792969,-41046798.70605469,-39398735.04638672,-42148078.91845703,-53943111.419677734,-60320102.69165039,-76838317.87109375,-56114715.576171875,-55015926.361083984,-39621925.354003906,-39757865.90576172,-34830047.607421875,-36421516.41845703,-39350070.95336914,-44522789.001464844,-68684135.43701172,-57751403.80859375,-38145633.697509766,-35680889.12963867,-28682802.200317383,-25096141.815185547,-29223558.42590332,-38706218.71948242,-45114894.86694336,-43033638.00048828,-43756984.71069336,-28849624.633789062,-53812992.095947266,-30072559.356689453,-24378772.735595703,-14569572.448730469,-26967432.022094727,204409851.07421875,-28730287.551879883,-43040683.74633789,-43138950.34790039,-32737030.029296875,-29002450.942993164,-25436967.849731445,-27334211.349487305,-18989686.965942383,-29588489.532470703,-38625114.44091797,-43332500.45776367,-43661941.52832031,-42893573.76098633,-23950368.881225586,-34683551.78833008,-35917968.75,-34726623.53515625,-42779079.43725586,-42599140.16723633,-23083662.033081055,-35927223.205566406,-36795848.84643555
0.215,-93694061.27929688,-88771957.39746094,-89001922.60742188,-59809688.568115234,-64707702.63671875,-57592933.654785156,-45817020.416259766,-38678314.208984375,-38330463.40942383,-37661487.5793457,-39779438.01879883,-49509784.69848633,-55172843.93310547,-68436019.89746094,-47548450.4699707,-47563827.51464844,-35939014.43481445,-36214805.603027344,-33367042.541503906,-34536693.57299805,-37073249.81689453,-39555393.21899414,-61488903.0456543,-49395828.24707031,-31366849.899291992,-31332332.611083984,-24920902.252197266,-22156705.856323242,-26285282.135009766,-36162887.57324219,-39474021.911621094,-35930839.53857422,-35901115.41748047,-22931921.005249023,-48794616.69921875,-24654962.53967285,-21478664.39819336,-13444526.672363281,-22829524.993896484,191378662.109375,-21562601.08947754,-35346778.869628906,-35393535.61401367,-25749183.654785156,-22473613.739013672,-18798515.31982422,-22465089.797973633,-12908421.516418457,-22830812.454223633,-29575471.878051758,-35617080.68847656,-35808311.462402344,-35067798.61450195,-16050090.789794922,-24583240.509033203,-25915010.452270508,-24776588.439941406,-35013591.76635742,-34803367.614746094,-15241573.333740234,-25752010.345458984,-26714902.877807617
0.22,-87151855.46875,-82845268.24951172,-83520568.84765625,-56055084.228515625,-60427291.87011719,-53537090.30151367,-42244960.78491211,-36483661.65161133,-36015499.114990234,-35832656.86035156,-38053028.10668945,-46417621.61254883,-51642044.06738281,-64219123.84033203,-44127822.87597656,-44239070.892333984,-34889984.130859375,-35312347.412109375,-32492977.142333984,-33689994.81201172,-36089832.3059082,-37571968.07861328,-58888931.27441406,-45885879.51660156,-30161357.879638672,-31169481.27746582,-25300981.521606445,-22239404.678344727,-26163194.65637207,-37642467.4987793,-39336231.23168945,-36497383.11767578,-33339237.213134766,-22593288.42163086,-50487079.62036133,-25589424.13330078,-21401468.27697754,-13707603.454589844,-22879770.278930664,195171752.9296875,-19040531.158447266,-32744663.23852539,-33076679.229736328,-27501291.275024414,-22088361.740112305,-17730253.219604492,-22089813.232421875,-12454249.382019043,-22550233.840942383,-26188207.626342773,-33106201.171875,-33236583.709716797,-32441463.470458984,-12540260.314941406,-20191576.00402832,-21707504.272460938,-20474594.116210938,-32574531.55517578,-32351490.020751953,-11647293.090820312,-21340734.481811523,-22379131.317138672
0.225,-84332817.07763672,-79570556.640625,-81359550.47607422,-54589851.37939453,-57771869.65942383,-55553096.771240234,-43074428.55834961,-36172538.75732422,-35521793.365478516,-33733860.01586914,-36527206.42089844,-44471889.49584961,-50736953.73535156,-65324424.743652344,-48394916.53442383,-46750652.31323242,-37006992.34008789,-37372425.0793457,-31872886.657714844,-33057331.085205078,-35652187.34741211,-38839782.71484375,-61242557.525634766,-50043865.20385742,-35489311.21826172,-35088298.79760742,-28700540.54260254,-24002870.559692383,-27479347.229003906,-40086845.39794922,-43277053.83300781,-41432308.197021484,-36875221.252441406,-28542268.753051758,-56765495.30029297,-30465574.264526367,-23011856.079101562,-14312256.813049316,-25441211.700439453,204178756.7138672,-23007926.94091797,-36139709.47265625,-36860427.85644531,-35609802.24609375,-26529088.973999023,-20704248.428344727,-24896684.646606445,-16038942.337036133,-26414571.76208496,-29591678.619384766,-36519519.8059082,-36724025.72631836,-35871555.32836914,-13048593.521118164,-22124652.862548828,-23623516.082763672,-22415380.477905273,-36023956.298828125,-35859283.447265625,-12008818.626403809,-23360877.990722656,-24261592.864990234
0.23,-83893585.20507812,-77825454.71191406,-80388160.7055664,-54229038.23852539,-55917129.51660156,-58541584.01489258,-44917209.62524414,-36779491.42456055,-36073642.73071289,-31943126.678466797,-34548648.834228516,-41735271.45385742,-50097972.86987305,-65707595.82519531,-53128658.294677734,-48851074.21875,-38352806.091308594,-38481430.05371094,-30692934.036254883,-31346273.42224121,-34121803.283691406,-39163524.62768555,-62199550.62866211,-54981307.98339844,-39342704.77294922,-37177886.962890625,-29669246.673583984,-23747426.986694336,-26919506.072998047,-38537761.68823242,-44284263.610839844,-42065280.91430664,-39445873.26049805,-33197162.628173828,-58461406.70776367,-31630455.017089844,-22787754.05883789,-13631076.81274414,-25728914.260864258,198819961.54785156,-27071840.286254883,-38620239.2578125,-39487865.44799805,-38519836.42578125,-27826797.485351562,-21227535.247802734,-25454216.00341797,-16921770.095825195,-26992111.206054688,-33027694.702148438,-38875755.310058594,-39212821.96044922,-38359920.501708984,-12109477.043151855,-23438665.39001465,-24666156.768798828,-23728109.35974121,-38342308.044433594,-38203605.65185547,-11075547.218322754,-24735265.731811523,-25337011.337280273
0.235,-83723632.8125,-76560623.16894531,-78610618.5913086,-54505050.65917969,-54892429.35180664,-58509277.34375,-45138572.692871094,-37668292.99926758,-37125904.08325195,-32197601.318359375,-33515758.514404297,-39093688.96484375,-48815750.12207031,-62573024.74975586,-53049659.729003906,-46969058.990478516,-37119503.021240234,-37079231.26220703,-29894813.537597656,-29764583.587646484,-32353862.762451172,-37046237.94555664,-59013526.916503906,-55267242.431640625,-37109909.05761719,-34675842.28515625,-26901575.088500977,-21310752.868652344,-24819049.835205078,-34304088.5925293,-40497875.21362305,-38610671.99707031,-37861259.46044922,-31568351.74560547,-52982185.36376953,-27317462.921142578,-20511964.797973633,-12114724.159240723,-23519119.262695312,181296615.60058594,-26956510.543823242,-37022262.57324219,-37725765.228271484,-31721750.259399414,-23382663.72680664,-18385564.80407715,-23216043.47229004,-14295427.322387695,-23963682.174682617,-33114746.09375,-37169212.341308594,-37530899.04785156,-36730251.31225586,-9783331.871032715,-22230995.178222656,-23162500.381469727,-22502422.332763672,-36636600.494384766,-36379493.713378906,-8935441.017150879,-23435440.063476562,-23852922.439575195
0.24,-85315582.27539062,-77630233.76464844,-78503974.91455078,-56943866.72973633,-56385711.669921875,-59366226.19628906,-46267452.239990234,-39704185.485839844,-39408126.83105469,-35167446.13647461,-35446002.96020508,-39598594.665527344,-49101493.83544922,-60806678.771972656,-52506099.700927734,-46051540.37475586,-36564399.71923828,-36582519.53125,-31145935.05859375,-30746904.373168945,-32955776.21459961,-36049175.26245117,-56634338.37890625,-54773010.25390625,-34681148.529052734,-32278255.462646484,-25160919.189453125,-20237688.064575195,-24705102.920532227,-33529937.744140625,-38017745.97167969,-39275772.09472656,-37344951.62963867,-28248323.440551758,-48274570.46508789,-23795072.555541992,-19508152.00805664,-11730512.619018555,-23076471.32873535,172457458.49609375,-26338180.541992188,-36493595.123291016,-36968036.65161133,-24021272.659301758,-19270751.953125,-17500946.044921875,-22937191.009521484,-14077615.737915039,-24141727.447509766,-33958721.16088867,-36720409.39331055,-36912136.07788086,-36195434.5703125,-11663516.998291016,-24092657.0892334,-24937850.952148438,-24277151.107788086,-36267150.87890625,-35817176.818847656,-10934034.34753418,-25131830.2154541,-25672250.747680664
0.245,-90216369.62890625,-82373748.77929688,-83334411.62109375,-61803050.99487305,-60939998.626708984,-65581932.067871094,-50954021.45385742,-43166381.8359375,-42991672.51586914,-39193840.02685547,-40093173.98071289,-44054000.85449219,-53010101.318359375,-65805885.314941406,-57448459.62524414,-51268352.50854492,-39772056.579589844,-39978633.880615234,-34234649.658203125,-34482810.974121094,-36719402.31323242,-39515861.51123047,-60536132.8125,-59302589.416503906,-39284221.64916992,-35118911.74316406,-28092748.641967773,-22376327.514648438,-27920120.239257812,-38586891.174316406,-42128303.52783203,-46205421.447753906,-42525157.9284668,-30226724.62463379,-51227821.350097656,-26016159.057617188,-21503379.821777344,-13155938.148498535,-26401271.82006836,182646530.1513672,-30246736.526489258,-41608200.07324219,-42035991.66870117,-25112239.837646484,-20769392.013549805,-20966928.482055664,-26671230.31616211,-18994091.033935547,-30157741.54663086,-39127037.048339844,-42063137.05444336,-42011856.07910156,-41389560.69946289,-18714332.580566406,-31679212.57019043,-32696449.279785156,-31757478.713989258,-41663478.85131836,-41124885.55908203,-17875520.706176758,-32674831.39038086,-33551757.8125
0.25,-95471694.94628906,-87991470.33691406,-91419502.25830078,-65905639.6484375,-66233421.325683594,-72588172.91259766,-55774349.212646484,-46086116.790771484,-45855865.478515625,-42060752.868652344,-44884902.95410156,-49574981.689453125,-59234523.77319336,-75403793.33496094,-64295906.06689453,-58471031.188964844,-44315193.17626953,-44666301.72729492,-36978137.9699707,-38472900.390625,-41401210.78491211,-45648246.76513672,-68880439.75830078,-65670494.079589844,-47579723.3581543,-40643245.697021484,-32806240.08178711,-25335710.525512695,-31705736.16027832,-44908374.78637695,-49715637.20703125,-51807014.46533203,-49259117.126464844,-35894699.09667969,-57670768.73779297,-30904397.96447754,-24257694.244384766,-14902621.269226074,-30394655.227661133,199350585.9375,-36675052.642822266,-48248310.08911133,-48803215.02685547,-32646595.001220703,-25207384.10949707,-24615076.065063477,-30522933.959960938,-24138637.54272461,-35837253.57055664,-44945602.41699219,-48883846.282958984,-48745536.80419922,-48175682.067871094,-24426143.646240234,-38995506.286621094,-40321922.302246094,-39064647.67456055,-48457218.170166016,-47980842.59033203,-23429161.071777344,-40120758.056640625,-41276489.2578125
0.255,-96445350.64697266,-90031166.07666016,-97008460.99853516,-65844894.40917969,-69170959.47265625,-71875968.93310547,-54934799.19433594,-46219245.91064453,-45873210.90698242,-43133544.921875,-47548000.33569336,-52701454.162597656,-63988513.9465332,-81483428.95507812,-63791545.86791992,-58965877.532958984,-45203338.623046875,-45626373.291015625,-37753128.05175781,-40465206.146240234,-44212238.31176758,-49394405.364990234,-74125022.8881836,-65020515.44189453,-49375743.8659668,-41746276.85546875,-33978496.55151367,-26186990.73791504,-33171100.616455078,-47100963.5925293,-53088039.39819336,-51990615.84472656,-49846374.51171875,-36618053.4362793,-58548816.6809082,-32437091.827392578,-25121902.465820312,-15362206.45904541,-31432758.331298828,205770919.7998047,-38680816.650390625,-48791481.018066406,-49440967.55981445,-36593654.63256836,-27017578.125,-24697675.704956055,-30735260.009765625,-24455202.102661133,-34854316.71142578,-45170566.55883789,-49438766.47949219,-49450286.865234375,-48833370.208740234,-24170999.52697754,-39399147.033691406,-40959434.509277344,-39567451.47705078,-49009277.34375,-48607830.04760742,-23198156.356811523,-40660488.12866211,-41854572.29614258
0.26,-92522163.39111328,-87161087.03613281,-96112876.89208984,-61925727.84423828,-68409255.98144531,-63850643.157958984,-48738933.56323242,-43661418.91479492,-43256694.79370117,-42663505.55419922,-47454505.920410156,-52126079.55932617,-64109458.923339844,-78320198.05908203,-54674648.28491211,-51862335.205078125,-41644271.85058594,-42133655.5480957,-36754142.76123047,-40154464.72167969,-44047786.712646484,-47628883.361816406,-71020904.54101562,-56000534.05761719,-42048980.712890625,-36774158.4777832,-30952501.29699707,-25143650.05493164,-32481555.938720703,-44814422.607421875,-49023818.96972656,-54568531.03637695,-43719871.520996094,-29130872.72644043,-52912418.365478516,-30022483.825683594,-24392515.182495117,-14621124.267578125,-29715364.456176758,200628753.66210938,-33455989.837646484,-42743618.01147461,-43297946.92993164,-33206565.856933594,-25729349.13635254,-23294015.884399414,-28803848.266601562,-21715879.440307617,-29140394.21081543,-39472122.19238281,-43291084.28955078,-43511356.353759766,-42777725.21972656,-21382036.209106445,-34428646.087646484,-35979782.10449219,-34699089.05029297,-42972251.892089844,-42531250.0,-20521928.787231445,-35662494.65942383,-36713893.89038086
0.265,-86911964.4165039,-81633888.2446289,-89867645.26367188,-57068004.6081543,-64490287.78076172,-57849567.41333008,-43408672.33276367,-40189617.15698242,-39799671.1730957,-40161365.5090332,-44805145.263671875,-48481082.916259766,-59413887.02392578,-68290557.86132812,-46424053.19213867,-45291706.08520508,-37584098.81591797,-38113002.77709961,-34721553.802490234,-38077087.40234375,-41338127.13623047,-41552139.28222656,-61850761.41357422,-47733848.571777344,-34433830.26123047,-31597890.853881836,-27655548.095703125,-24031301.498413086,-31094104.766845703,-41186309.814453125,-41461143.493652344,-68155075.07324219,-37855781.55517578,-20756019.592285156,-48532447.814941406,-27983352.661132812,-23656051.635742188,-13803818.702697754,-27652816.772460938,193889923.09570312,-25685039.520263672,-37069618.225097656,-37387248.99291992,-28318523.406982422,-24728391.647338867,-23733219.146728516,-28019586.56311035,-20587457.65686035,-25186445.236206055,-33473213.19580078,-37541439.056396484,-37792938.232421875,-36997627.25830078,-20859191.89453125,-30330057.14416504,-31669267.654418945,-30627679.8248291,-37348995.208740234,-36795810.69946289,-19933483.123779297,-31420085.906982422,-32367485.04638672
0.27,-81457794.18945312,-75805351.25732422,-82573608.3984375,-52539337.158203125,-59016445.15991211,-57668159.48486328,-41738906.86035156,-36585079.193115234,-36244804.38232422,-35233810.42480469,-40287609.1003418,-43447696.685791016,-53188014.98413086,-59990966.796875,-45684165.954589844,-44219688.415527344,-35547096.252441406,-35982070.92285156,-31886764.526367188,-34757617.95043945,-37437080.38330078,-35331901.55029297,-54489398.95629883,-46795299.5300293,-33924900.05493164,-30581443.786621094,-26321113.58642578,-23054895.401000977,-29274724.96032715,-38240074.157714844,-36432723.99902344,-88173965.45410156,-36589698.791503906,-19076671.600341797,-49573936.462402344,-28141094.207763672,-22810884.475708008,-13420765.87677002,-26322092.056274414,189993453.9794922,-21846527.099609375,-35984592.43774414,-36113216.400146484,-26931524.2767334,-24507173.538208008,-24693937.301635742,-28177154.541015625,-21497961.044311523,-25394041.061401367,-31618089.67590332,-36473186.49291992,-36578128.814697266,-35840454.1015625,-21074672.69897461,-29092063.903808594,-30234416.961669922,-29363361.358642578,-36265434.26513672,-35667346.9543457,-19898620.60546875,-30118171.69189453,-31118745.803833008
0.275,-75196937.56103516,-70644630.4321289,-78267768.85986328,-47271507.263183594,-54745094.299316406,-54777820.5871582,-38957069.396972656,-32384529.11376953,-32104408.264160156,-29866270.065307617,-36117469.787597656,-39906936.64550781,-50624782.56225586,-61474060.05859375,-46285076.14135742,-43292602.5390625,-33532268.524169922,-33752201.080322266,-29028316.497802734,-31802469.25354004,-34957435.607910156,-33726482.39135742,-56264873.50463867,-47284900.6652832,-35988700.86669922,-30345703.125,-25009841.918945312,-21440277.099609375,-27338737.48779297,-36434383.392333984,-37141666.412353516,-102078048.70605469,-36242519.37866211,-21163492.20275879,-50544826.50756836,-27606945.037841797,-21050569.534301758,-13142352.104187012,-25616918.563842773,184547164.9169922,-24085887.908935547,-35690605.16357422,-35816272.7355957,-26386018.753051758,-22433464.05029297,-23164764.404296875,-27214660.64453125,-21766006.469726562,-27305845.260620117,-33528018.951416016,-36248878.479003906,-36277565.002441406,-35608119.96459961,-18314672.470092773,-27948152.542114258,-29034835.815429688,-28208732.60498047,-35904067.99316406,-35393062.591552734,-16971832.275390625,-29075756.072998047,-30122365.951538086
0.28,-68098289.4897461,-67120368.95751953,-78615615.84472656,-41315799.713134766,-54569202.4230957,-40938812.255859375,-30585954.666137695,-28153604.50744629,-27937456.130981445,-27672973.6328125,-35329307.556152344,-40678562.16430664,-54718708.03833008,-73538246.15478516,-38436096.19140625,-35720935.8215332,-29461093.90258789,-29535978.317260742,-28058746.337890625,-31724010.467529297,-36575813.29345703,-39037189.48364258,-67966758.72802734,-39559116.36352539,-32026374.81689453,-25975196.838378906,-22121606.826782227,-20043643.951416016,-27137050.62866211,-36627002.71606445,-43007919.31152344,-105629570.00732422,-31818099.975585938,-18718358.993530273,-45819526.67236328,-24579961.7767334,-19474273.681640625,-12770263.671875,-26111610.412597656,175268264.7705078,-29975988.388061523,-31204578.399658203,-31479883.193969727,-22700965.881347656,-18687726.974487305,-20495178.22265625,-25819520.950317383,-21319471.35925293,-29174924.850463867,-36772609.71069336,-31807466.506958008,-32002853.393554688,-31262403.48815918,-14425563.81225586,-25877956.39038086,-26943840.02685547,-26199102.4017334,-31377546.310424805,-31017387.39013672,-13140497.207641602,-27136259.078979492,-27951456.06994629
0.285,-62939033.50830078,-66444374.084472656,-82210838.3178711,-37357013.70239258,-58458045.959472656,-22160812.377929688,-20490140.914916992,-25996139.526367188,-25826551.43737793,-29836431.5032959,-38379875.18310547,-45275527.95410156,-62616069.79370117,-88549629.21142578,-24384485.244750977,-24850034.713745117,-25625902.17590332,-25766075.134277344,-29906448.364257812,-34822315.21606445,-41663600.92163086,-48301265.716552734,-82470985.41259766,-25671178.817749023,-23646183.013916016,-19846456.52770996,-19945999.145507812,-20528047.561645508,-29464508.056640625,-39065128.326416016,-50531040.19165039,-105723052.97851562,-24968872.0703125,-11571809.768676758,-39629627.2277832,-22013061.5234375,-19930347.442626953,-12588176.727294922,-28086782.455444336,167595626.8310547,-35669540.40527344,-24283018.112182617,-24713405.60913086,-18307537.078857422,-17087657.928466797,-20297136.306762695,-26170827.865600586,-22253183.364868164,-31412181.854248047,-39716220.85571289,-24866020.20263672,-25318231.5826416,-24406332.01599121,-13700560.569763184,-24924381.256103516,-25889518.73779297,-25394134.521484375,-24488998.413085938,-24225194.931030273,-12555781.364440918,-26162048.33984375,-26502206.802368164
0.29,-62040969.84863281,-68178558.34960938,-85599205.01708984,-37483913.42163086,-62444797.51586914,-12656899.452209473,-16572336.196899414,-26901355.743408203,-26717687.606811523,-33186000.82397461,-41661758.42285156,-49245132.44628906,-67695320.12939453,-96994842.52929688,-17011991.500854492,-20581693.649291992,-25627878.189086914,-25927349.090576172,-32412693.02368164,-37515338.89770508,-45510688.78173828,-54716045.37963867,-90404411.31591797,-18288124.084472656,-20980556.48803711,-18682994.842529297,-21082283.02001953,-22078416.82434082,-31313114.166259766,-41085186.00463867,-54970756.53076172,-107460937.5,-21395246.505737305,-8430285.453796387,-40162445.068359375,-22844478.607177734,-21524106.979370117,-12714773.178100586,-29541849.13635254,166863189.69726562,-38148227.69165039,-20672355.65185547,-21170722.96142578,-18189365.38696289,-18639911.651611328,-21562049.865722656,-27137205.123901367,-23715370.178222656,-33005153.65600586,-41069168.09082031,-21187606.811523438,-21688474.655151367,-20710851.669311523,-14247481.346130371,-25071063.995361328,-25950485.229492188,-25719015.12145996,-20903169.631958008,-20621391.29638672,-13175514.221191406,-26132244.110107422,-26182270.050048828
0.295,-64392875.67138672,-70137901.30615234,-86513801.57470703,-40202617.64526367,-62857650.75683594,-16744094.848632812,-20230417.251586914,-29016201.01928711,-28734239.57824707,-33783584.59472656,-41451194.763183594,-48902114.86816406,-66858398.4375,-96627998.35205078,-22210111.618041992,-25565958.02307129,-28525928.497314453,-28856494.903564453,-32296756.744384766,-36185234.06982422,-44353153.228759766,-54434337.6159668,-89077774.04785156,-23344940.185546875,-27097293.853759766,-22999858.856201172,-23523860.931396484,-21740526.19934082,-29142816.5435791,-39393058.77685547,-54046997.0703125,-107434440.61279297,-22420343.39904785,-13045525.550842285,-46495506.286621094,-24715660.095214844,-21147733.688354492,-12794095.039367676,-28094146.728515625,170422302.24609375,-36633426.666259766,-21669958.114624023,-22177789.68811035,-21218040.466308594,-19049699.783325195,-19586647.033691406,-25348684.310913086,-22469499.588012695,-31358264.923095703,-39759262.08496094,-22110464.096069336,-22401479.721069336,-21563497.54333496,-10291981.69708252,-23244705.200195312,-24193487.1673584,-23971748.35205078,-21847341.537475586,-21466581.344604492,-9267966.270446777,-24135395.050048828,-24421440.12451172
0.3,-67397354.12597656,-71093437.19482422,-86259185.79101562,-42227214.81323242,-60867324.82910156,-24372491.83654785,-24891071.319580078,-29768966.674804688,-29349046.70715332,-31543247.22290039,-38652378.08227539,-45932605.7434082,-64063201.904296875,-93937553.40576172,-30521089.553833008,-31597351.07421875,-29774711.60888672,-29994094.848632812,-29404785.15625,-32193443.298339844,-40383083.34350586,-51099182.12890625,-84904975.89111328,-31507930.755615234,-32833690.643310547,-25877641.677856445,-23084133.14819336,-18933229.446411133,-24568449.020385742,-35097843.170166016,-50589508.056640625,-102428970.33691406,-23896678.924560547,-17580240.24963379,-49454322.814941406,-23584310.53161621,-18261768.341064453,-12645812.034606934,-24940093.994140625,172605468.75,-33487819.67163086,-23141317.36755371,-23641328.811645508,-21716953.27758789,-15716760.635375977,-14423366.54663086,-21469606.399536133,-19073144.912719727,-27091884.61303711,-36794052.12402344,-23531940.460205078,-23622289.657592773,-22982225.41809082,-3377583.0268859863,-19221736.907958984,-20309698.1048584,-19831127.166748047,-23248081.20727539,-22767740.24963379,-2452305.555343628,-20077714.920043945,-20909599.30419922
0.305,-69778846.74072266,-71918312.0727539,-87511779.78515625,-42308326.721191406,-60470348.3581543,-25769014.358520508,-25244594.57397461,-28900074.005126953,-28401439.666748047,-29659994.12536621,-37385326.38549805,-44957267.76123047,-64582939.14794922,-95428207.39746094,-30647102.35595703,-31443229.67529297,-27927480.697631836,-28090110.778808594,-27181798.934936523,-30453643.798828125,-39002670.28808594,-51000343.322753906,-85401954.6508789,-31447219.848632812,-30734926.223754883,-23591333.389282227,-20021759.033203125,-17052679.06188965,-23081281.661987305,-33231674.194335938,-49486152.64892578,-97102310.18066406,-23361707.68737793,-14514113.426208496,-45870773.31542969,-20871406.55517578,-16434743.881225586,-12714897.155761719,-24141769.409179688,173867706.29882812,-32502307.891845703,-22661077.49938965,-23075706.481933594,-19057744.9798584,-13083580.017089844,-12571118.354797363,-20724063.873291016,-18505630.493164062,-24984167.098999023,-35171489.71557617,-23042901.99279785,-23160865.783691406,-22590662.002563477,-3046086.072921753,-17884914.39819336,-18981092.45300293,-18216615.676879883,-22775966.64428711,-22248477.935791016,-2204061.74659729,-18816324.23400879,-19968811.03515625
0.31,-70916397.09472656,-72731498.71826172,-89581787.109375,-41410621.643066406,-62190982.818603516,-22839647.29309082,-23074872.970581055,-27982713.69934082,-27526988.983154297,-29871582.03125,-38935260.77270508,-46723087.310791016,-67284225.46386719,-99077995.30029297,-24736928.939819336,-27980760.57434082,-26476245.880126953,-26716819.763183594,-28005121.2310791,-32587951.66015625,-41154716.49169922,-54169876.09863281,-89712242.12646484,-25272148.13232422,-26160852.432250977,-21054679.87060547,-18863895.416259766,-18670415.8782959,-26137449.264526367,-35646923.06518555,-51285232.54394531,-96919364.92919922,-23170043.9453125,-8524101.257324219,-43404201.50756836,-21744459.15222168,-18245479.583740234,-13291706.085205078,-26847984.313964844,177603607.17773438,-34565040.588378906,-22508401.87072754,-22679149.627685547,-18821588.51623535,-16142831.802368164,-17328884.12475586,-24967763.900756836,-22514492.03491211,-27435853.958129883,-36063400.26855469,-22921192.169189453,-23179014.205932617,-22571710.58654785,-12808033.94317627,-22128889.083862305,-23104993.82019043,-22168752.670288086,-22680343.627929688,-22156654.357910156,-11937700.271606445,-23131492.614746094,-24201551.43737793
0.315,-69339698.7915039,-71248344.42138672,-88496612.54882812,-40054210.6628418,-62193386.07788086,-22238664.627075195,-22241333.0078125,-27679323.196411133,-27343858.71887207,-30583572.387695312,-40110298.15673828,-47011703.49121094,-66409278.869628906,-97551635.7421875,-23089412.689208984,-27712284.088134766,-27900299.072265625,-28188323.974609375,-29935070.037841797,-34561077.11791992,-41984928.131103516,-54234542.84667969,-90084648.13232422,-23425352.096557617,-27934972.763061523,-23201555.252075195,-21007324.21875,-21311719.89440918,-28425703.048706055,-37629745.48339844,-51390445.709228516,-98426940.91796875,-25000085.830688477,-9053199.768066406,-47813713.07373047,-26378313.064575195,-20998104.095458984,-13679486.274719238,-29093957.901000977,180210144.04296875,-36125892.639160156,-24214996.337890625,-24075952.529907227,-23063034.057617188,-21615604.400634766,-22664627.075195312,-28592506.408691406,-25896982.192993164,-30183389.66369629,-36857051.849365234,-24674322.1282959,-24936784.744262695,-24339761.73400879,-22740268.70727539,-27251934.051513672,-28171510.696411133,-27128664.016723633,-24378189.086914062,-23885215.759277344,-21763221.740722656,-28246313.095092773,-29168998.71826172
0.32,-64599594.11621094,-66264305.114746094,-83048164.36767578,-37878486.63330078,-58740493.77441406,-23636150.360107422,-22281492.233276367,-27288290.02380371,-27041759.490966797,-30236808.77685547,-38731472.01538086,-43539836.88354492,-60966819.763183594,-89272880.55419922,-27604961.395263672,-30239603.04260254,-29655706.40563965,-29861017.22717285,-29856575.01220703,-32811859.130859375,-38484367.37060547,-48108177.185058594,-82795547.48535156,-27913778.30505371,-33798961.6394043,-26575326.919555664,-22095165.252685547,-20840265.27404785,-25421852.111816406,-34464588.1652832,-46787254.333496094,-93718276.97753906,-26120052.337646484,-15322417.259216309,-53442485.80932617,-28668972.01538086,-20401065.826416016,-12988770.484924316,-27387546.53930664,174189697.265625,-33634426.11694336,-25092006.68334961,-24840293.884277344,-26298109.05456543,-21959873.19946289,-21476596.83227539,-26063980.102539062,-23756502.151489258,-27940544.12841797,-34878696.44165039,-25568719.8638916,-25710155.487060547,-25198894.500732422,-22240343.09387207,-26985328.674316406,-27975568.771362305,-26888801.57470703,-25161479.949951172,-24714422.22595215,-21175447.463989258,-27905113.220214844,-28906311.03515625
0.325,-59583755.49316406,-60981357.57446289,-77848480.22460938,-35704284.66796875,-55870941.162109375,-21748836.517333984,-20559692.3828125,-26794277.19116211,-26532480.239868164,-30087919.235229492,-37549152.37426758,-40407966.61376953,-57421691.89453125,-81633476.25732422,-29810588.836669922,-30199621.200561523,-28640079.498291016,-28834173.20251465,-28326997.756958008,-29868705.74951172,-34677616.119384766,-41379974.365234375,-73617721.55761719,-30076204.299926758,-34226089.47753906,-25217798.233032227,-19152139.66369629,-17864645.00427246,-20375782.012939453,-28857482.91015625,-40730384.826660156,-82621032.71484375,-24459072.11303711,-17941144.943237305,-52796981.81152344,-25760047.912597656,-17214193.34411621,-11704094.886779785,-24257482.528686523,163410003.66210938,-28526008.60595703,-23371757.50732422,-23333148.956298828,-24909151.077270508,-17376712.799072266,-16441967.010498047,-20528493.881225586,-19119102.478027344,-22341564.178466797,-31617364.88342285,-23788383.48388672,-23936283.111572266,-23455106.735229492,-15042649.269104004,-22948978.424072266,-23990394.592285156,-23021001.8157959,-23367139.81628418,-22965961.456298828,-13940340.042114258,-23787153.244018555,-24922346.115112305
0.33,-57606700.8972168,-59249145.5078125,-77168785.09521484,-35121173.85864258,-57432376.861572266,-16446300.506591797,-17665668.487548828,-27060596.466064453,-26685762.405395508,-31568519.592285156,-39654411.31591797,-42198558.80737305,-60303066.25366211,-80784240.72265625,-24911302.56652832,-26762811.6607666,-26345293.045043945,-26801160.81237793,-28378622.05505371,-30424867.630004883,-35701450.34790039,-40541198.73046875,-69868339.53857422,-24898958.206176758,-27819644.927978516,-20835683.822631836,-15860922.813415527,-17121112.823486328,-19770555.49621582,-27478246.688842773,-38133056.640625,-73249702.45361328,-23455600.73852539,-14164369.583129883,-49217529.296875,-23240339.279174805,-16456657.409667969,-11395207.405090332,-24947324.752807617,163067962.64648438,-25476863.861083984,-22708251.953125,-22976112.365722656,-24223455.42907715,-16593587.875366211,-16467992.782592773,-19877746.58203125,-18939363.479614258,-20113752.365112305,-30679199.21875,-22971960.067749023,-23352643.966674805,-22780012.130737305,-13715508.460998535,-22621631.622314453,-23596916.19873047,-22855550.76599121,-22705110.549926758,-22318161.010742188,-12626106.262207031,-23405158.99658203,-24443758.010864258
0.335,-57432796.478271484,-59429782.86743164,-77990371.70410156,-35264209.74731445,-60179855.34667969,-12911187.171936035,-16135126.113891602,-27460668.563842773,-26948764.80102539,-32667179.107666016,-42282894.134521484,-45986801.14746094,-64405899.04785156,-82591194.15283203,-18383573.532104492,-24215650.55847168,-25856678.009033203,-26636007.30895996,-30019615.173339844,-33536304.473876953,-39402782.44018555,-43349449.157714844,-70592590.33203125,-18044685.36376953,-22789474.487304688,-19850582.122802734,-16567319.869995117,-20244182.586669922,-23717372.89428711,-31072839.736938477,-38625652.31323242,-70349296.56982422,-27044288.635253906,-11689210.891723633,-50994892.12036133,-26502576.82800293,-19812335.968017578,-12445864.6774292,-29618656.158447266,176587524.4140625,-26223808.28857422,-26823053.35998535,-27143087.38708496,-30056591.033935547,-23648088.455200195,-23516286.849975586,-25397712.70751953,-24227413.177490234,-23744724.27368164,-32404972.076416016,-26910259.246826172,-27511283.87451172,-26840206.146240234,-21616964.34020996,-28173196.79260254,-29038137.435913086,-28414537.42980957,-26831090.927124023,-26411441.802978516,-20629291.534423828,-28893083.572387695,-29721364.974975586
0.34,-55155021.66748047,-56863803.86352539,-74434951.78222656,-33222251.892089844,-58051788.330078125,-12587051.391601562,-15430221.557617188,-25850399.017333984,-25293371.200561523,-30388872.146606445,-40099895.47729492,-44750701.904296875,-61757667.541503906,-79203804.01611328,-16003744.125366211,-23848430.633544922,-26221567.153930664,-26973140.716552734,-29768680.572509766,-33628959.65576172,-39188571.92993164,-42570648.193359375,-69580436.70654297,-15713161.46850586,-23074710.845947266,-22441116.333007812,-18739223.48022461,-23096683.502197266,-26023082.733154297,-33376869.201660156,-38183265.686035156,-70098365.7836914,-32446552.276611328,-15455125.80871582,-56814002.990722656,-31643016.815185547,-22893331.52770996,-13223066.329956055,-32963661.193847656,185413940.4296875,-28045257.568359375,-32475784.301757812,-32602115.631103516,-37916996.002197266,-30923084.259033203,-29735046.38671875,-30051586.151123047,-29017396.926879883,-28403141.021728516,-33710334.77783203,-32524917.602539062,-33069427.490234375,-32423774.71923828,-29080865.85998535,-33190746.307373047,-33968120.57495117,-33296859.741210938,-32473812.103271484,-32004749.298095703,-28269395.82824707,-33777969.36035156,-34654953.00292969
0.345,-51625766.75415039,-52677021.02661133,-68370040.89355469,-29395668.029785156,-52453659.05761719,-11872817.993164062,-13265929.222106934,-22469167.709350586,-22031118.392944336,-26435636.520385742,-34271892.54760742,-38620109.55810547,-54226505.279541016,-72286094.66552734,-15843783.378601074,-22655227.661132812,-24615991.592407227,-24995506.286621094,-26771141.052246094,-29569824.21875,-34580055.236816406,-37882949.82910156,-66439277.64892578,-16005710.60180664,-23317604.064941406,-22675350.189208984,-17226261.138916016,-22157674.78942871,-23868455.88684082,-30946983.337402344,-36618850.70800781,-68544960.02197266,-33709548.95019531,-19994125.366210938,-57666320.80078125,-31299510.955810547,-21947324.752807617,-12432398.796081543,-32124111.17553711,175652938.84277344,-28820909.50012207,-33516613.006591797,-33586772.91870117,-38690341.94946289,-30131645.20263672,-29069391.25061035,-28987712.860107422,-29137710.571289062,-29378955.841064453,-33485092.163085938,-33792060.85205078,-34072521.2097168,-33533946.990966797,-28326812.744140625,-32507747.650146484,-33199920.654296875,-32514854.431152344,-33572658.53881836,-33087265.014648438,-27606163.024902344,-32928604.125976562,-34155124.66430664
0.35,-53053699.4934082,-53999038.69628906,-68642684.93652344,-29158437.728881836,-51915122.985839844,-11098879.81414795,-11647468.566894531,-21546848.29711914,-21287139.892578125,-26426460.26611328,-32629112.243652344,-36429702.75878906,-52088592.529296875,-71701011.65771484,-15306161.880493164,-21288404.46472168,-22880081.176757812,-23040336.60888672,-25559034.34753418,-27485736.846923828,-32830120.086669922,-36947765.3503418,-67626312.25585938,-15849987.983703613,-20685649.871826172,-19780599.59411621,-13915598.86932373,-20130289.07775879,-22031183.24279785,-28698619.842529297,-38399669.6472168,-68329925.53710938,-31162940.979003906,-19553899.76501465,-52677822.11303711,-26750221.252441406,-19736070.63293457,-11294878.005981445,-30832763.671875,164224929.8095703,-30300483.70361328,-30534694.67163086,-30901998.51989746,-32889987.94555664,-24749454.498291016,-25485631.942749023,-26218631.744384766,-27335739.135742188,-28472856.521606445,-34603443.14575195,-31196762.084960938,-31311637.87841797,-30797298.431396484,-23627220.153808594,-29758035.65979004,-30427017.211914062,-29842885.971069336,-30739236.83166504,-30289075.85144043,-22757347.106933594,-30137308.12072754,-31593345.642089844
0.355,-61059169.76928711,-62200435.638427734,-77018302.91748047,-35563880.920410156,-59203422.54638672,-16816629.40979004,-15898437.5,-26093839.645385742,-25823841.094970703,-31798898.696899414,-38401729.583740234,-42965549.46899414,-58772186.279296875,-79370567.32177734,-18661558.151245117,-25736061.096191406,-26055021.286010742,-26453821.182250977,-29645965.576171875,-31731172.561645508,-37868679.04663086,-42806095.123291016,-74582000.73242188,-19166635.513305664,-21818065.643310547,-20690965.65246582,-15892671.585083008,-21788944.244384766,-25138374.32861328,-32110565.185546875,-44625225.06713867,-72186439.51416016,-31087104.79736328,-18036483.764648438,-51850933.07495117,-26429584.503173828,-21263175.96435547,-11903903.96118164,-33431003.57055664,177610549.9267578,-34232879.638671875,-30180419.921875,-30887754.440307617,-30323020.935058594,-24560508.728027344,-26055103.302001953,-27820892.333984375,-28165266.036987305,-30144649.505615234,-38888187.408447266,-31055118.560791016,-31256273.26965332,-30604696.27380371,-22783243.17932129,-31067871.09375,-31927389.14489746,-31345024.10888672,-30432157.516479492,-30047643.661499023,-21607845.306396484,-31639787.673950195,-32852451.32446289
0.36,-66738815.30761719,-66763626.09863281,-81801284.79003906,-42756996.154785156,-64785774.23095703,-30895303.72619629,-25843421.936035156,-32411796.56982422,-31849132.537841797,-36109504.69970703,-43864849.09057617,-50199039.459228516,-64185577.392578125,-82757171.63085938,-29810100.555419922,-37191814.42260742,-33637210.845947266,-34400630.950927734,-35129070.28198242,-37369529.724121094,-43181240.08178711,-47070316.314697266,-77839950.56152344,-30076843.26171875,-31592845.916748047,-28373109.817504883,-23645818.71032715,-26312515.258789062,-30107212.06665039,-37965629.57763672,-48851528.16772461,-74797698.97460938,-35447738.64746094,-22013130.18798828,-60026016.23535156,-32502601.623535156,-25792764.66369629,-13946536.06414795,-37955558.77685547,208887100.21972656,-37737686.15722656,-34502273.55957031,-35149223.32763672,-35035953.521728516,-30794982.91015625,-30382667.541503906,-32626499.17602539,-31285293.579101562,-33943557.73925781,-42857707.97729492,-35176868.4387207,-35562919.61669922,-34718677.52075195,-25168010.711669922,-35074596.4050293,-36303859.71069336,-35499267.578125,-34534709.93041992,-34201400.75683594,-23806699.752807617,-35954727.17285156,-36624782.56225586
0.365,-60653041.83959961,-57585548.400878906,-72005119.32373047,-41840522.76611328,-58444602.966308594,-44237422.943115234,-33328964.233398438,-33511131.286621094,-32628005.981445312,-32736846.923828125,-39918361.66381836,-47051811.21826172,-57877143.85986328,-70688583.37402344,-42795410.15625,-46841876.98364258,-38103336.334228516,-38848518.37158203,-34988731.384277344,-36342105.865478516,-40300243.37768555,-40827064.514160156,-68789047.24121094,-43061153.411865234,-42803905.48706055,-35328407.287597656,-28521606.4453125,-28036607.74230957,-30418956.756591797,-38181579.58984375,-44754302.978515625,-68406631.46972656,-38560367.584228516,-29393125.534057617,-68197967.52929688,-36918830.87158203,-27530950.54626465,-14864099.502563477,-38838893.89038086,220950134.27734375,-36212287.90283203,-37634380.34057617,-37871894.83642578,-39462192.53540039,-34735866.54663086,-32091358.184814453,-34355148.31542969,-32719284.057617188,-35052783.96606445,-41743633.27026367,-37873989.10522461,-38304096.22192383,-37391475.677490234,-24596199.03564453,-35147506.71386719,-36610885.62011719,-35626571.65527344,-37357784.271240234,-37007747.650146484,-23322610.85510254,-36191612.243652344,-36524204.25415039
0.37,-46762893.67675781,-40375427.24609375,-53791931.15234375,-33000148.77319336,-43871345.52001953,-47816028.5949707,-32314834.594726562,-28169712.06665039,-27271430.96923828,-24086841.583251953,-28976161.95678711,-34935268.40209961,-43892936.70654297,-50368812.561035156,-48327297.21069336,-46699329.3762207,-34948410.03417969,-35281021.11816406,-28830081.939697266,-28901704.788208008,-31016235.3515625,-28051675.79650879,-53379974.365234375,-48909847.259521484,-45458560.943603516,-34081867.21801758,-24860752.10571289,-24584709.16748047,-25527923.583984375,-31328744.888305664,-35483779.90722656,-55176815.032958984,-36640048.98071289,-32942409.51538086,-66805427.55126953,-33503639.221191406,-23998554.229736328,-13399449.348449707,-34941867.82836914,197595672.60742188,-30391740.798950195,-35655399.322509766,-35626846.31347656,-36828941.345214844,-31170812.606811523,-28563560.485839844,-30944147.10998535,-30817798.614501953,-31857467.651367188,-36566837.310791016,-35673751.83105469,-35946937.561035156,-35151851.654052734,-20407001.495361328,-30279001.235961914,-31616188.049316406,-30783645.629882812,-35333557.12890625,-34881084.44213867,-19375854.4921875,-31223602.294921875,-31716020.584106445
0.375,-39299713.134765625,-31514417.64831543,-44256389.61791992,-26283246.994018555,-34783092.4987793,-45333633.42285156,-27475191.116333008,-22961900.71105957,-22334756.85119629,-18888299.9420166,-22255586.624145508,-26359657.287597656,-35699035.64453125,-39866958.61816406,-47214134.216308594,-41063766.47949219,-29462167.739868164,-29403537.75024414,-23763006.21032715,-23426250.457763672,-25255357.74230957,-21253389.358520508,-46480056.76269531,-48164211.27319336,-41385692.59643555,-28385160.446166992,-18359552.38342285,-20113416.67175293,-21331699.37133789,-24737003.326416016,-30758846.282958984,-46721466.064453125,-34527301.78833008,-31958875.65612793,-59764003.75366211,-27056867.599487305,-19452243.80493164,-11196307.182312012,-30948173.52294922,166597412.109375,-26749626.15966797,-33466972.35107422,-33575832.36694336,-31500185.012817383,-25480081.55822754,-23817714.69116211,-26787130.35583496,-27963048.934936523,-28766788.482666016,-33617290.49682617,-33672950.744628906,-33745479.583740234,-33115852.35595703,-18514976.501464844,-27372734.06982422,-28400283.813476562,-27882007.598876953,-33407413.482666016,-32846778.869628906,-17701400.756835938,-28087409.97314453,-29068040.84777832
0.38,-44760459.899902344,-37257389.068603516,-49454097.747802734,-28545259.475708008,-37175586.70043945,-47179241.18041992,-27674793.243408203,-23762960.43395996,-23353797.912597656,-20913059.23461914,-24880355.834960938,-28162002.563476562,-38336654.66308594,-45091274.26147461,-48174392.70019531,-40047908.782958984,-29261375.427246094,-29085391.998291016,-24845218.658447266,-24968076.705932617,-27781421.661376953,-25029933.92944336,-52921024.322509766,-49333038.330078125,-40281261.4440918,-27108825.68359375,-17433996.200561523,-19155670.166015625,-21759162.90283203,-24547504.425048828,-34731964.111328125,-49515712.73803711,-38107452.392578125,-32203830.71899414,-57265293.12133789,-25475828.170776367,-18588439.94140625,-10187018.394470215,-30673698.42529297,158567871.09375,-29286920.54748535,-37070644.37866211,-37435523.986816406,-31175216.674804688,-24472772.5982666,-21740264.892578125,-25716648.10180664,-26695142.74597168,-29886945.724487305,-36237846.37451172,-37571159.36279297,-37616813.65966797,-36995643.615722656,-21768411.63635254,-31088321.685791016,-31948282.24182129,-31513782.501220703,-37240303.03955078,-36701038.3605957,-21145973.205566406,-31641769.409179688,-33038894.653320312
0.385,-53831169.12841797,-46185035.705566406,-57474281.311035156,-34763126.373291016,-42574459.075927734,-54431255.34057617,-33392333.984375,-28435285.568237305,-27996757.50732422,-24899246.215820312,-29996404.64782715,-33463779.44946289,-43168434.143066406,-53297428.131103516,-52967884.0637207,-44561408.99658203,-33624023.4375,-33505069.732666016,-28917366.02783203,-29326086.044311523,-32929229.736328125,-30906639.099121094,-61497936.2487793,-54162528.99169922,-43887207.03125,-30756282.806396484,-21142339.7064209,-20763080.596923828,-24328744.888305664,-28536773.681640625,-40829849.24316406,-56448951.721191406,-44470943.450927734,-35089729.30908203,-60128753.662109375,-28056863.78479004,-20450689.3157959,-10080867.767333984,-32601531.982421875,165874862.67089844,-33602085.11352539,-43549110.412597656,-43938270.568847656,-34653469.08569336,-26610565.185546875,-21374052.047729492,-26391668.31970215,-26711078.643798828,-32977855.682373047,-40142665.86303711,-44052467.346191406,-44322971.34399414,-43518688.2019043,-25550701.141357422,-36730304.71801758,-37602104.18701172,-36993736.267089844,-43682991.02783203,-43313709.2590332,-25177083.96911621,-37256065.368652344,-38754962.92114258
0.39,-54673427.58178711,-45579261.779785156,-55995067.59643555,-36058158.87451172,-41144016.26586914,-57726383.209228516,-36767013.54980469,-30731067.657470703,-30168508.529663086,-24879104.614257812,-29629816.05529785,-33159851.07421875,-41450485.22949219,-51547679.90112305,-53499961.853027344,-46029113.76953125,-35665878.29589844,-35652847.29003906,-30227037.42980957,-30382570.266723633,-33845256.80541992,-29976900.100708008,-60299053.19213867,-54577068.32885742,-44211494.44580078,-31948432.92236328,-22131191.25366211,-21260944.366455078,-25152349.4720459,-30998088.836669922,-40426616.66870117,-56580093.38378906,-45724212.646484375,-34990947.72338867,-60650756.8359375,-28150665.283203125,-21183248.51989746,-9682264.32800293,-33351127.62451172,164032196.04492188,-32143299.102783203,-44894496.91772461,-45176605.224609375,-34744358.06274414,-26217559.814453125,-20542213.439941406,-26191013.33618164,-26401885.986328125,-32762516.021728516,-39027816.77246094,-45150939.94140625,-45731269.83642578,-44745624.54223633,-24841882.705688477,-36885379.791259766,-37748874.66430664,-37041812.896728516,-44924953.46069336,-44707103.72924805,-24679468.154907227,-37472030.63964844,-38836891.174316406
0.395,-48244911.193847656,-37904674.5300293,-48362140.65551758,-32121555.32836914,-34949836.73095703,-52268138.88549805,-33673469.54345703,-29053651.809692383,-28452486.038208008,-22169883.728027344,-25579469.680786133,-28816583.63342285,-35952449.798583984,-42999679.56542969,-45782421.11206055,-40628402.70996094,-33178134.91821289,-33319557.189941406,-28579244.61364746,-28613351.821899414,-31502717.971801758,-24216524.124145508,-51433021.545410156,-46602863.31176758,-37793567.6574707,-27981199.264526367,-18727037.42980957,-20235893.24951172,-24477733.612060547,-30663522.720336914,-33379611.96899414,-48999633.7890625,-40439891.81518555,-28901842.11730957,-56393554.6875,-24482887.268066406,-20218444.82421875,-9293618.202209473,-32588001.251220703,155494827.2705078,-24040063.858032227,-39601291.65649414,-39977455.139160156,-30190740.58532715,-23089944.83947754,-20193964.0045166,-25839694.97680664,-25552896.49963379,-28617498.39782715,-32780899.047851562,-39775672.912597656,-40462268.8293457,-39487197.87597656,-21121036.529541016,-31576148.986816406,-32359790.802001953,-31750888.82446289,-39744922.63793945,-39506546.02050781,-20890710.830688477,-32255001.068115234,-33498916.625976562
0.4,-44475730.895996094,-34726127.62451172,-46139305.114746094,-30001747.131347656,-33126571.655273438,-44998394.01245117,-29156881.33239746,-27410774.23095703,-26805603.02734375,-21991205.2154541,-25111490.24963379,-28460422.51586914,-34938133.239746094,-39399280.5480957,-37341491.69921875,-35052684.78393555,-31076503.75366211,-31334985.733032227,-28167009.353637695,-28614543.914794922,-31123470.306396484,-21351217.26989746,-45627872.467041016,-37897823.333740234,-31781560.89782715,-24705051.42211914,-16699447.631835938,-20332632.064819336,-24812711.715698242,-30217998.504638672,-26935739.517211914,-41933097.83935547,-34955265.045166016,-21809556.96105957,-53336380.00488281,-22504695.892333984,-20196102.142333984,-10023861.8850708,-32308887.481689453,162275253.29589844,-16284038.543701172,-34041660.30883789,-34704456.3293457,-26814781.188964844,-21851221.084594727,-22185478.21044922,-27298791.885375977,-25223651.885986328,-25465370.178222656,-27318725.5859375,-34504508.97216797,-34985885.62011719,-34160297.39379883,-19235942.840576172,-27295583.724975586,-28090255.737304688,-27508815.76538086,-34431106.56738281,-34085479.736328125,-18623853.68347168,-28026960.372924805,-29304662.704467773
0.405,-46664382.93457031,-38874015.80810547,-51167804.71801758,-32221385.955810547,-37642612.45727539,-43292770.38574219,-28605396.270751953,-28154254.913330078,-27499721.52709961,-24784206.39038086,-29215654.373168945,-33205120.086669922,-39270965.576171875,-43265033.72192383,-35606285.095214844,-35174285.888671875,-32476715.087890625,-32622978.21044922,-30042354.583740234,-30928627.014160156,-33197566.986083984,-22843587.87536621,-46474945.068359375,-36081283.56933594,-32108470.916748047,-26247394.561767578,-18912553.787231445,-22040849.685668945,-25950670.24230957,-30317972.18322754,-25661043.167114258,-40022132.873535156,-33421802.520751953,-19167007.446289062,-54662696.838378906,-24674137.115478516,-21705009.46044922,-11366668.701171875,-32924507.14111328,182347595.21484375,-14497907.638549805,-32478771.209716797,-33243633.270263672,-27339052.200317383,-23565885.543823242,-25005853.6529541,-29318580.627441406,-25532281.87561035,-26629106.521606445,-26609653.47290039,-33302478.790283203,-33489448.54736328,-32745574.951171875,-20261508.94165039,-27375045.776367188,-28322305.67932129,-27533279.418945312,-32927043.914794922,-32604812.622070312,-19268394.470214844,-28037227.630615234,-29417537.689208984
0.41,-47728324.89013672,-41389369.96459961,-53816913.60473633,-32934932.708740234,-40712440.490722656,-44318901.06201172,-29476306.915283203,-28174003.60107422,-27532192.23022461,-25313035.96496582,-31025749.20654297,-35356353.759765625,-41661956.787109375,-45708015.44189453,-36770584.10644531,-36800556.18286133,-33388122.55859375,-33224132.537841797,-30209201.81274414,-31080522.537231445,-32934173.583984375,-22793197.631835938,-47063987.731933594,-37350051.87988281,-34085548.400878906,-28171028.13720703,-20380130.767822266,-22382118.225097656,-25100076.67541504,-28510334.014892578,-26322036.743164062,-38690513.610839844,-32859046.936035156,-19390790.939331055,-55368412.017822266,-26335416.793823242,-21886091.232299805,-11466998.100280762,-32677207.946777344,186709152.2216797,-16010366.439819336,-32029579.162597656,-32529422.760009766,-27570602.416992188,-24123743.057250977,-25148834.228515625,-28605978.01208496,-24983968.73474121,-29095069.885253906,-28018106.46057129,-32889503.479003906,-32985584.259033203,-32191795.349121094,-21053539.276123047,-28311161.041259766,-29351934.4329834,-28387748.71826172,-32283714.294433594,-32138626.098632812,-20001863.479614258,-28805923.461914062,-30180778.50341797
0.415,-42298011.779785156,-35782093.0480957,-47942832.946777344,-27461723.32763672,-36254837.03613281,-41685977.935791016,-26484098.434448242,-24089279.174804688,-23609849.92980957,-20264961.24267578,-25762401.580810547,-29878496.170043945,-37505649.56665039,-40407752.990722656,-33375373.84033203,-33296245.574951172,-29279485.70251465,-28943515.77758789,-25774942.39807129,-26508413.314819336,-27851335.525512695,-17531318.66455078,-41572582.24487305,-34024314.880371094,-30730432.510375977,-24812839.50805664,-16278387.069702148,-19470638.275146484,-21313848.4954834,-23936733.24584961,-23598747.25341797,-32437385.55908203,-29721918.1060791,-17904098.510742188,-51171295.166015625,-23365468.978881836,-18944019.317626953,-9879061.698913574,-30585155.487060547,164422576.90429688,-14551437.377929688,-29141742.706298828,-29309169.76928711,-24252258.30078125,-21313077.926635742,-22168174.743652344,-24829614.639282227,-22496927.26135254,-27970748.901367188,-26831953.048706055,-29743326.18713379,-29942180.633544922,-29116102.21862793,-19674514.770507812,-26235864.639282227,-27140832.901000977,-26349252.700805664,-29217214.584350586,-29182369.232177734,-18831823.348999023,-26631551.74255371,-27840129.852294922
0.42,-35379196.16699219,-27537265.77758789,-39615013.122558594,-20197910.30883789,-28257917.404174805,-37081329.345703125,-21165750.50354004,-18191907.88269043,-17847097.396850586,-13138815.879821777,-17441671.37145996,-21696481.704711914,-31038230.895996094,-32267078.399658203,-27344760.89477539,-26957508.087158203,-22752418.518066406,-22590814.5904541,-19599130.630493164,-20610832.21435547,-21697847.366333008,-11000454.902648926,-33709312.438964844,-27865777.96936035,-24505346.298217773,-18434801.10168457,-9717286.109924316,-15701673.50769043,-17210447.311401367,-19598323.822021484,-17965463.638305664,-23666116.71447754,-26046772.003173828,-14735705.375671387,-45973964.69116211,-18743169.7845459,-15279947.280883789,-8407372.47467041,-28063077.926635742,141960784.91210938,-9501263.618469238,-25701375.96130371,-25844234.466552734,-20609964.37072754,-18458431.243896484,-19624410.62927246,-21612186.431884766,-19478878.021240234,-23680084.228515625,-23065397.262573242,-26130670.54748535,-26362621.307373047,-25635805.130004883,-17917676.92565918,-22783966.064453125,-23431020.736694336,-23027729.034423828,-25813083.64868164,-25677087.783813477,-17239526.748657227,-23244653.701782227,-24257928.8482666
0.425,-35340274.810791016,-26294321.060180664,-38489521.02661133,-19147962.57019043,-25383741.37878418,-37430294.036865234,-20160608.291625977,-16134748.458862305,-15693918.228149414,-10148690.223693848,-13825342.178344727,-19119709.014892578,-29479148.864746094,-30221168.518066406,-26629404.067993164,-25540628.43322754,-20319858.55102539,-20447761.53564453,-16896577.835083008,-18538602.828979492,-19725227.35595703,-9275671.005249023,-31146268.844604492,-26933660.50720215,-23273956.298828125,-15814105.987548828,-7312256.813049316,-14681516.647338867,-15777468.68133545,-18639715.19470215,-15044014.930725098,-19432245.2545166,-25579929.35180664,-13384546.279907227,-45639347.076416016,-17839714.05029297,-14387983.322143555,-8620229.721069336,-27073595.04699707,144078384.39941406,-6440337.657928467,-25264242.17224121,-25651725.76904297,-20855291.36657715,-18975362.77770996,-20314979.553222656,-21837327.95715332,-18612770.080566406,-21456346.51184082,-20971897.12524414,-25797769.54650879,-25899391.174316406,-25303998.947143555,-17886186.599731445,-21947542.190551758,-22454982.75756836,-22232086.181640625,-25513765.335083008,-25199674.606323242,-17189188.00354004,-22479612.350463867,-23440839.767456055
0.43,-42583869.93408203,-33542720.794677734,-45825855.25512695,-25328222.274780273,-30534736.63330078,-42626033.782958984,-24805923.461914062,-19616044.998168945,-18992383.95690918,-13234520.91217041,-17431333.541870117,-23750465.393066406,-34421226.501464844,-36380798.33984375,-31226968.76525879,-29820398.330688477,-23448141.09802246,-23644535.064697266,-19014003.75366211,-21218769.073486328,-22585479.736328125,-13154510.498046875,-35608436.584472656,-31448266.983032227,-27519929.885864258,-18363067.626953125,-10079154.968261719,-16681306.838989258,-17152782.440185547,-20486007.690429688,-17884534.83581543,-21922559.73815918,-27291944.50378418,-14176164.627075195,-49069774.62768555,-20730251.31225586,-16390947.341918945,-9873302.459716797,-27862751.007080078,159298934.93652344,-8707534.790039062,-26790653.228759766,-27350610.733032227,-23658597.946166992,-21280418.395996094,-22874416.35131836,-24237749.099731445,-20464094.161987305,-24103939.056396484,-22672195.434570312,-27474412.91809082,-27515016.555786133,-26923021.31652832,-18787635.803222656,-23881053.924560547,-24469150.54321289,-24068033.21838379,-27079877.853393555,-26702692.03186035,-18023584.365844727,-24288780.212402344,-25367761.611938477
0.435,-49539501.19018555,-42139636.9934082,-54585575.103759766,-31613960.26611328,-38466884.61303711,-43989074.70703125,-28154878.616333008,-24001556.396484375,-23433702.46887207,-18497848.510742188,-23578443.52722168,-29835596.084594727,-40940776.82495117,-45386444.091796875,-31735214.233398438,-31948974.609375,-26919647.216796875,-27001937.866210938,-22449131.01196289,-25037729.263305664,-26360454.559326172,-18198068.618774414,-42006450.65307617,-32032577.514648438,-29328411.102294922,-20828737.258911133,-13015749.93133545,-18880584.716796875,-19140245.43762207,-21995693.20678711,-22824874.877929688,-26354364.3951416,-26830381.393432617,-13533680.91583252,-50672042.84667969,-23142047.882080078,-18444925.30822754,-10571511.268615723,-28982051.849365234,162615203.85742188,-12401679.992675781,-26158411.026000977,-26659828.186035156,-24811233.520507812,-21801439.28527832,-24190626.14440918,-25646808.624267578,-22342437.744140625,-28289632.79724121,-25164796.829223633,-26774106.979370117,-27009881.9732666,-26295520.782470703,-18466539.38293457,-24990497.589111328,-25796144.485473633,-25133857.72705078,-26395093.91784668,-26039869.30847168,-17680097.579956055,-25183889.389038086,-26395158.767700195
0.44,-50428768.157958984,-45741336.822509766,-58622013.092041016,-31686466.217041016,-42459396.36230469,-36415203.09448242,-24284528.732299805,-23934722.900390625,-23654518.127441406,-20806007.385253906,-26200077.056884766,-31794372.55859375,-43606132.50732422,-51785907.74536133,-23289894.104003906,-27004301.071166992,-26124389.6484375,-26215238.571166992,-23442302.703857422,-26345611.572265625,-27398786.544799805,-20411483.764648438,-45661956.787109375,-23608783.721923828,-24229265.213012695,-19331161.499023438,-12567962.646484375,-19309793.47229004,-19867403.030395508,-21348987.579345703,-24445005.416870117,-28227415.084838867,-23033342.361450195,-9731296.53930664,-48936332.70263672,-23149320.602416992,-18725925.44555664,-10383405.685424805,-29093723.29711914,155150100.7080078,-11891029.357910156,-22406631.469726562,-22778917.31262207,-23577033.99658203,-20495065.689086914,-23626865.38696289,-25086616.51611328,-21458282.470703125,-29279975.89111328,-24715454.1015625,-22845146.17919922,-23335397.720336914,-22512165.069580078,-16722719.192504883,-23329452.514648438,-24350625.99182129,-23623329.162597656,-22645935.05859375,-22250398.635864258,-15855164.527893066,-23554634.09423828,-24745018.005371094
0.445,-46935630.798339844,-44582283.02001953,-57903060.91308594,-26784032.821655273,-40807113.64746094,-25809543.60961914,-16359523.77319336,-19504707.33642578,-19368824.005126953,-18740793.228149414,-23723852.157592773,-29439443.588256836,-41457885.7421875,-54472644.8059082,-13265691.757202148,-19965734.481811523,-22493474.96032715,-22794368.743896484,-21781322.479248047,-24792730.3314209,-25611167.907714844,-19660902.02331543,-46593509.674072266,-13390187.26348877,-17379507.064819336,-16117874.145507812,-10436390.87677002,-18646404.266357422,-19145009.994506836,-19421329.498291016,-22382726.669311523,-28353317.260742188,-19308485.03112793,-5620239.734649658,-47342140.197753906,-22818571.090698242,-18072463.989257812,-10150901.794433594,-28196386.337280273,157606765.7470703,-7256448.268890381,-18823793.411254883,-19141260.147094727,-22623903.274536133,-20128452.30102539,-23008472.442626953,-24020507.8125,-18318569.18334961,-26810419.0826416,-21740991.592407227,-19277687.072753906,-19743383.407592773,-18919246.673583984,-15297769.546508789,-20805435.180664062,-21937772.750854492,-21277814.865112305,-19147605.895996094,-18670591.354370117,-14244509.69696045,-21395412.44506836,-22441251.754760742
0.45,-44070167.541503906,-42342967.98706055,-55545997.619628906,-22785568.237304688,-36858005.52368164,-21207735.061645508,-12281433.10546875,-15620998.38256836,-15289517.402648926,-15284606.93359375,-19443500.518798828,-26263078.689575195,-37544013.97705078,-54571487.42675781,-11090147.018432617,-18339302.06298828,-20494991.302490234,-20956624.98474121,-19928268.432617188,-22590003.967285156,-23386913.299560547,-17960626.60217285,-46506137.84790039,-10912501.335144043,-15549251.556396484,-15175190.925598145,-9548950.1953125,-18146177.291870117,-17733877.182006836,-17779630.661010742,-20575622.55859375,-28935604.095458984,-18419044.494628906,-4533525.9437561035,-47778938.29345703,-23537408.82873535,-17732116.69921875,-10186911.582946777,-26970191.955566406,173088241.57714844,-2982730.3886413574,-17890827.178955078,-18141521.453857422,-23111604.690551758,-21210838.317871094,-22966543.197631836,-23224302.291870117,-15432358.741760254,-23904556.274414062,-19116968.154907227,-18549427.032470703,-18716852.18811035,-17985761.642456055,-14721924.781799316,-19351190.5670166,-20455995.559692383,-19769041.061401367,-18230522.15576172,-17798242.568969727,-13569443.702697754,-20288057.327270508,-21269453.048706055
0.455,-44045078.27758789,-41218898.77319336,-53590866.08886719,-23314611.434936523,-34835266.11328125,-23729650.497436523,-14781620.979309082,-16257076.263427734,-15671228.408813477,-14631094.932556152,-17668748.85559082,-25301134.10949707,-35389030.45654297,-52845817.56591797,-15896070.48034668,-22304861.068725586,-21835718.154907227,-22232740.40222168,-19917253.494262695,-21919548.03466797,-22779367.446899414,-16731086.730957031,-45372745.513916016,-15535520.553588867,-18074665.069580078,-16687950.134277344,-9780304.908752441,-17681465.14892578,-16296331.405639648,-16906152.725219727,-20980463.0279541,-28751636.505126953,-18828042.98400879,-6006067.752838135,-48028873.443603516,-23514230.728149414,-17401596.069335938,-9918748.85559082,-25511091.232299805,181632583.61816406,-1136384.36794281,-18068677.90222168,-18140338.897705078,-23278175.354003906,-20844024.658203125,-21478523.25439453,-21477588.653564453,-13418293.952941895,-21745840.072631836,-17389402.389526367,-18764839.17236328,-18724479.67529297,-18111225.128173828,-12907579.42199707,-17615640.64025879,-18614038.467407227,-17786113.739013672,-18236867.904663086,-17994045.25756836,-11900230.407714844,-18519735.33630371,-19621591.567993164
0.46,-45569988.25073242,-41256694.79370117,-52535251.61743164,-27126512.52746582,-36249763.48876953,-26983652.114868164,-19203319.549560547,-20580743.78967285,-20032915.115356445,-18275012.969970703,-19858425.14038086,-27102884.29260254,-36166374.20654297,-50293117.52319336,-19186574.935913086,-25866897.583007812,-24434751.510620117,-24691457.748413086,-21749055.862426758,-23276388.16833496,-24021287.91809082,-16345983.505249023,-42892387.39013672,-18783603.66821289,-19308294.29626465,-17851926.803588867,-9199891.090393066,-16577857.971191406,-15163613.319396973,-16557785.034179688,-21363245.010375977,-25791547.775268555,-17236507.415771484,-6824491.024017334,-46148712.158203125,-20939918.518066406,-16267421.72241211,-9146846.771240234,-23380403.518676758,171840255.7373047,174395.6059217453,-16392238.61694336,-16301574.70703125,-21453813.552856445,-16866083.1451416,-16904228.21044922,-17881408.69140625,-10705774.307250977,-19019140.243530273,-14770226.47857666,-16770437.240600586,-16852323.532104492,-16286222.457885742,-7941999.435424805,-13440846.44317627,-14368250.846862793,-13481602.668762207,-16305864.334106445,-16190223.693847656,-7166230.67855835,-14013044.357299805,-15252460.479736328
0.465,-47019821.16699219,-42179241.18041992,-52612094.87915039,-30837667.46520996,-39267894.74487305,-26309562.68310547,-20401321.411132812,-24607051.849365234,-24318532.943725586,-23636762.619018555,-23782726.287841797,-30009269.71435547,-38306129.455566406,-48829765.31982422,-17000219.345092773,-25494569.778442383,-25807397.842407227,-26063949.584960938,-23995935.440063477,-25482889.17541504,-25908821.10595703,-16961866.37878418,-41016513.82446289,-16462219.23828125,-17195705.41381836,-17203214.645385742,-7506313.323974609,-15221678.733825684,-14629978.17993164,-16808958.053588867,-19879365.921020508,-22570936.20300293,-13325113.296508789,-5229412.55569458,-43576969.146728516,-17153095.245361328,-14793897.62878418,-8620720.863342285,-21107927.322387695,156247482.2998047,1768721.342086792,-12711995.124816895,-12681757.926940918,-18147478.103637695,-11065525.05493164,-11272493.362426758,-14195614.8147583,-7563448.905944824,-16280723.571777344,-11739178.657531738,-12735072.135925293,-13080424.308776855,-12413428.30657959,-1741440.4153823853,-8449296.951293945,-9395723.342895508,-8626637.45880127,-12538832.664489746,-12332317.352294922,-1009667.0389175415,-8766838.073730469,-9931628.227233887
0.47,-47607772.82714844,-43315563.2019043,-53222660.064697266,-32013706.20727539,-40489459.99145508,-23186056.13708496,-18259574.89013672,-25345849.990844727,-25179218.292236328,-26376642.22717285,-25838361.740112305,-31361909.866333008,-38974941.25366211,-48932399.74975586,-13517467.498779297,-23321582.794189453,-25404773.712158203,-25768930.435180664,-25096607.208251953,-26745040.893554688,-26828462.600708008,-18213844.299316406,-41710361.48071289,-12583407.402038574,-14997436.5234375,-15800696.37298584,-6167730.808258057,-14714115.142822266,-14945040.702819824,-17753807.067871094,-18236694.3359375,-23701063.15612793,-10436462.40234375,-2726979.0172576904,-42477336.88354492,-15034456.253051758,-14296761.512756348,-8985785.484313965,-20543642.044067383,149534774.78027344,1354446.4111328125,-10059174.537658691,-10285387.03918457,-15247234.344482422,-7408580.780029297,-8892485.618591309,-13393377.304077148,-7409071.922302246,-16989439.010620117,-11857526.779174805,-10131308.555603027,-10534156.799316406,-9680710.792541504,772476.9711494446,-7274127.006530762,-8272586.822509766,-7648723.602294922,-10089219.093322754,-9679958.34350586,1637548.9234924316,-7595586.776733398,-8515352.249145508
0.475,-45946056.3659668,-42233730.31616211,-51674533.84399414,-29738674.16381836,-37494422.912597656,-20928075.790405273,-15663481.712341309,-22783725.73852539,-22469869.61364746,-24249458.31298828,-24050277.709960938,-29148885.72692871,-36073501.58691406,-47385734.55810547,-13188885.688781738,-22325944.900512695,-23884859.085083008,-24284709.930419922,-24254173.278808594,-25908538.818359375,-25554779.052734375,-18286346.435546875,-42728061.67602539,-11768556.594848633,-15365310.668945312,-14921483.039855957,-5912176.132202148,-15285449.981689453,-15770650.863647461,-18397583.0078125,-18123867.03491211,-28078212.73803711,-11398748.397827148,-1978031.9929122925,-42592754.36401367,-15465070.724487305,-15060035.705566406,-9759162.902832031,-22351947.784423828,148515029.90722656,-1689270.6155776978,-10885941.505432129,-11320584.297180176,-14541190.147399902,-7919915.199279785,-11439097.40447998,-15822224.617004395,-11774719.23828125,-21897554.397583008,-15986854.553222656,-11363061.904907227,-11562433.242797852,-10637078.285217285,-2739520.54977417,-11179656.982421875,-12180201.530456543,-11575134.27734375,-11230938.911437988,-10724754.333496094,-1817867.0406341553,-11617579.460144043,-12394133.567810059
0.48,-40214813.232421875,-35974044.79980469,-44843605.041503906,-24224519.729614258,-30515699.38659668,-20062671.661376953,-13913806.915283203,-18674240.112304688,-18180828.094482422,-18720586.7767334,-19050516.12854004,-23496984.481811523,-29630174.63684082,-40138767.24243164,-14582962.989807129,-22222845.07751465,-21821115.493774414,-22163404.46472168,-21790180.206298828,-23171222.686767578,-21873109.817504883,-14896804.809570312,-39047519.68383789,-12951625.82397461,-16646589.279174805,-14600374.221801758,-5869163.513183594,-16016469.955444336,-15988976.47857666,-17000585.556030273,-17360280.990600586,-28473728.17993164,-14663707.733154297,-3596124.1722106934,-42360889.43481445,-16791275.024414062,-15929334.64050293,-9887300.491333008,-23974704.74243164,143859848.02246094,-3143233.53767395,-13769873.61907959,-14210761.070251465,-16491991.04309082,-10920021.057128906,-15748637.199401855,-18249162.673950195,-16344383.239746094,-25619596.481323242,-18854148.864746094,-14507098.197937012,-14526418.685913086,-13734081.268310547,-8444356.918334961,-14972354.888916016,-15913391.11328125,-15265993.118286133,-14227217.674255371,-13785909.652709961,-7625503.5400390625,-15483410.835266113,-16333396.911621094
0.485,-30920698.165893555,-24759670.25756836,-33046100.616455078,-17022209.16748047,-21951049.8046875,-19443782.806396484,-12276370.04852295,-14539089.20288086,-14070333.480834961,-12789032.936096191,-12523102.760314941,-16472757.339477539,-21691844.940185547,-27883941.650390625,-14173589.706420898,-21336399.07836914,-19605087.280273438,-19948207.85522461,-18664531.707763672,-19640279.76989746,-16819129.943847656,-8006902.694702148,-29614204.40673828,-12789838.790893555,-16135408.401489258,-14430915.832519531,-5129771.2326049805,-16093170.166015625,-14621558.18939209,-13196597.0993042,-13165923.118591309,-21238439.559936523,-15979440.689086914,-5582345.008850098,-41477012.634277344,-17247755.05065918,-15856339.454650879,-9059480.667114258,-22338924.407958984,137747055.05371094,610943.5558319092,-14925365.447998047,-15240646.362304688,-19356258.392333984,-13143776.893615723,-17655069.35119629,-17776458.740234375,-15968088.150024414,-23068782.806396484,-15457178.115844727,-15480869.29321289,-15590347.290039062,-14952460.289001465,-10623676.300048828,-13278164.863586426,-14140155.792236328,-13559815.406799316,-15197475.43334961,-14844102.85949707,-9870227.813720703,-13849216.46118164,-14793285.369873047
0.49,-22178625.106811523,-13491968.154907227,-21380212.783813477,-10977665.901184082,-14538694.381713867,-19528755.18798828,-10780622.482299805,-11152612.686157227,-10846856.117248535,-8088919.639587402,-5646708.965301514,-10344002.723693848,-14864363.670349121,-16782766.342163086,-12724803.924560547,-20132524.490356445,-17795257.568359375,-18262500.762939453,-15596321.105957031,-16262825.012207031,-12076039.31427002,-794116.7950630188,-20052297.592163086,-11878511.428833008,-14493139.266967773,-14470089.91241455,-3978688.7168884277,-15582910.537719727,-12014570.236206055,-9091492.652893066,-7669489.38369751,-12349580.764770508,-14029347.41973877,-6037642.002105713,-40853702.545166016,-16695730.209350586,-15032690.048217773,-8031394.004821777,-18488306.045532227,137485260.00976562,6170647.621154785,-13174564.361572266,-13369140.625,-20514392.852783203,-13234509.468078613,-16944419.860839844,-15578731.536865234,-12490304.946899414,-17694458.0078125,-9144628.524780273,-13383281.707763672,-13755826.950073242,-13079280.853271484,-8967835.426330566,-8477780.34210205,-9276826.858520508,-8876953.125,-13198875.427246094,-12822758.674621582,-8121655.464172363,-9133959.770202637,-10001767.1585083
