time,Fp1,Fpz,Fp2,AF3,AF4,F7,F5,F3,F1,Fz,F2,F4,F6,F8,FT7,FC5,FC3,FC1,FCz,FC2,FC4,FC6,FT8,T7,C5,C3,C1,Cz,C2,C4,C6,T8,TP7,CP5,CP3,CP1,CPz,CP2,CP4,CP6,TP8,P7,P5,P3,P1,Pz,P2,P4,P6,P8,PO7,PO5,PO3,POz,PO4,PO6,PO8,CB1,O1,Oz,O2,CB2
0.0,-3798332.2143554688,-1575055.5992126465,-618901.0739326477,-2407985.6872558594,-694484.531879425,-4892540.93170166,-2559385.7765197754,-2509431.6005706787,-2317835.807800293,-892460.7038497925,-627587.4972343445,-696414.2322540283,521476.3283729553,1528179.407119751,-3704993.486404419,-2930967.092514038,-2131962.299346924,-2297184.705734253,-727442.9202079773,-959521.472454071,-456799.56674575806,-147117.45083332062,581441.8196678162,-3511320.8293914795,-2566429.853439331,-1767034.0538024902,-711742.4607276917,-1109681.6062927246,-581055.6411743164,-702850.1629829407,-650415.4205322266,-840167.1051979065,-2294199.4667053223,-1864347.8155136108,-1840312.0040893555,-518462.77713775635,-948891.5801048279,-959370.493888855,-675343.1558609009,-945425.9276390076,-681149.8403549194,-2303103.9237976074,-2266494.2741394043,-1835227.8470993042,-1113781.8098068237,-508288.32387924194,-853795.051574707,-883437.8123283386,-1147255.0630569458,-1974255.084991455,-1552613.0199432373,-1566182.8517913818,-1550681.233406067,-1403790.7123565674,-1009683.2513809204,-1151226.6397476196,-1644721.6272354126,-1585222.7210998535,-1565100.7890701294,-1216487.5268936157,-1340141.4155960083,-1526164.6509170532
0.005,15052788.734436035,8546884.536743164,-15244470.596313477,15607663.15460205,4013875.0076293945,21757530.212402344,16947933.197021484,17883413.314819336,14491577.1484375,15210311.889648438,6752665.996551514,4827311.992645264,-6102710.247039795,-14371745.109558105,17071437.83569336,14671842.575073242,12728551.864624023,14379596.710205078,11534119.606018066,7551540.374755859,831550.0617027283,-5207887.172698975,-13278394.69909668,10624515.533447266,10869806.289672852,5473381.996154785,1199245.572090149,2797687.530517578,596082.9854011536,-840027.391910553,-4266724.109649658,-8869441.986083984,-1190384.9840164185,1420055.1509857178,1124355.673789978,-2808993.5779571533,-1441033.2441329956,-7613273.620605469,-885403.8715362549,-3844930.88722229,-8394137.382507324,-1159508.1090927124,-1097022.4142074585,1230882.6446533203,-4071264.7438049316,2730204.3437957764,2503994.4648742676,-1971924.7817993164,-3956815.481185913,-5685019.493103027,-5984202.3849487305,-6766822.338104248,-7345575.80947876,-2242635.0116729736,-3866469.383239746,-5112970.352172852,-7147823.810577393,-6747789.38293457,-6552411.5562438965,-7996100.902557373,-3684832.3345184326,-4233793.258666992
0.01,8156138.4201049805,6475973.606109619,-19711606.979370117,14906900.405883789,6744384.288787842,16427797.317504883,16561239.242553711,17933357.23876953,14087244.033813477,21175786.9720459,10848110.19897461,9158364.295959473,241788.14888000488,-7812066.555023193,14950241.088867188,13050855.63659668,11834774.9710083,14059447.288513184,14782166.481018066,9741141.319274902,3873229.0267944336,-81065.75161218643,-6666293.144226074,7937090.3968811035,9907554.626464844,4648741.245269775,1552154.779434204,4047733.783721924,1942859.172821045,1901721.2390899658,681783.7357521057,-3898962.4977111816,-4611527.442932129,-1359968.3046340942,-1654476.8810272217,-3612011.9094848633,-2000088.6917114258,-7747293.472290039,1779438.1380081177,-579676.8665313721,-4301600.456237793,-4586875.438690186,-4566267.967224121,-1617832.1838378906,-8115852.355957031,3213975.429534912,2508220.1957702637,-707765.519618988,-2737108.7074279785,-4439680.099487305,-9928333.282470703,-10924843.788146973,-11807507.514953613,-5353026.866912842,-5002003.192901611,-5640717.029571533,-7958776.473999023,-10966911.315917969,-10664423.942565918,-11067495.346069336,-4857519.626617432,-4921432.018280029
0.015,-11062983.512878418,-603312.611579895,-13091886.520385742,3012411.117553711,8522815.704345703,-7224982.261657715,3761335.3729248047,5072151.184082031,2960448.2650756836,18379281.997680664,11744870.18585205,11869447.708129883,14122566.223144531,12521672.248840332,-1476675.7488250732,-409151.73292160034,1280563.5929107666,3127726.3164520264,10613314.628601074,6917453.289031982,7297459.125518799,10679436.683654785,12253709.79309082,-5170787.811279297,-481841.8622016907,-1657867.5508499146,511725.18730163574,2985590.696334839,3109596.014022827,5857821.941375732,9924431.800842285,8197550.7736206055,-10470707.893371582,-7609598.636627197,-7640514.850616455,-3136699.1996765137,-2202969.0742492676,-3339187.8604888916,5957066.535949707,6070581.436157227,6728907.585144043,-10437593.460083008,-10516361.236572266,-7766837.596893311,-11397407.531738281,2663482.427597046,1430201.530456543,2624714.136123657,1392253.2796859741,114355.52686452866,-12006589.889526367,-12778942.108154297,-13579437.255859375,-7329536.914825439,-2735841.989517212,-2735329.6279907227,-4579061.508178711,-12848749.160766602,-12520557.403564453,-9138623.237609863,-3467192.4114227295,-2791427.3738861084
0.02,-13108479.499816895,306091.90464019775,-5486171.722412109,-8888.943120837212,9729300.498962402,-12927949.905395508,-204016.68548583984,893824.1004943848,-568517.6253318787,14915884.017944336,10874650.955200195,12047045.707702637,18741268.157958984,19590463.638305664,-7028331.756591797,-4660791.397094727,-1969499.945640564,-330984.56263542175,6830828.1898498535,4580374.717712402,7568400.859832764,13813714.981079102,18652116.775512695,-9958688.735961914,-4644126.415252686,-4798046.112060547,-438252.7768611908,1750903.7256240845,3282986.640930176,6683203.220367432,12223574.6383667,11159547.805786133,-12721343.040466309,-9792198.181152344,-9612880.70678711,-2493515.729904175,-1752410.888671875,-1261567.7118301392,7900305.74798584,8472901.344299316,10763310.432434082,-12643649.101257324,-12755792.617797852,-9785681.72454834,-10621048.927307129,5162818.431854248,3836560.2493286133,5926101.207733154,4521999.359130859,3090559.959411621,-10612363.815307617,-11258926.391601562,-11735076.904296875,-2764847.0401763916,3610965.2519226074,1688216.6862487793,-502090.9905433655,-11132570.266723633,-10834139.823913574,-3350399.4941711426,1491717.9346084595,1448792.9344177246
0.025,319189.54849243164,4941004.753112793,-8326438.903808594,7462869.644165039,7420570.373535156,3319861.1736297607,7441249.847412109,8515248.29864502,5773928.165435791,13532081.604003906,8201053.619384766,8596326.82800293,8802777.290344238,5781389.236450195,2688189.98336792,3431828.260421753,4094733.238220215,5936472.8927612305,6160364.151000977,4207405.090332031,3516118.7648773193,5655632.495880127,5846254.348754883,-2917073.7266540527,912488.9373779297,-2558465.2423858643,-412126.9881725311,1029463.4103775024,2114974.021911621,3280483.0074310303,5367368.221282959,1573410.6302261353,-9621027.946472168,-5989856.719970703,-5817925.453186035,-2027617.9313659668,-1236070.6329345703,-3490305.4237365723,6674384.593963623,5063671.112060547,4755371.09375,-9598773.956298828,-9563592.910766602,-5869837.760925293,-5520913.124084473,11120203.018188477,9152051.92565918,7852178.09677124,5581747.531890869,3638698.5778808594,-6204831.123352051,-7021815.776824951,-7200875.759124756,7169500.350952148,11894452.095031738,6509142.875671387,2762201.5476226807,-6562517.6429748535,-6328127.384185791,3628561.7351531982,8820517.539978027,5923430.919647217
0.03,2192550.6591796875,294642.1802043915,-20168596.267700195,9411597.25189209,1495893.2399749756,11535252.571105957,10418357.849121094,11632569.313049316,8001159.66796875,11258804.321289062,4540053.844451904,3845515.727996826,-2196467.161178589,-8066055.2978515625,8621886.253356934,7616285.32409668,6287783.622741699,8064362.525939941,5497369.289398193,3315706.253051758,-971641.3021087646,-2888943.4337615967,-6871345.996856689,2053458.6906433105,5061418.533325195,-745408.5350036621,126509.6515417099,-89547.38080501556,680805.8619499207,-288401.60369873047,-916323.3637809753,-6933316.707611084,-5600172.519683838,-1807984.709739685,-1760648.488998413,-1484504.1036605835,-1559083.104133606,-5496970.176696777,5206847.667694092,2008451.9386291504,-629074.6927261353,-5809300.899505615,-5541957.855224609,-1671347.3796844482,-198316.17176532745,15800943.374633789,11651715.278625488,8356719.017028809,6356532.096862793,4536658.763885498,-2167477.607727051,-3141636.1331939697,-3267193.078994751,13891940.116882324,16927240.3717041,10279590.606689453,5347957.611083984,-2544677.0191192627,-2384710.5503082275,8001262.664794922,14202287.673950195,8244713.78326416
0.035,-10387818.336486816,-7502066.612243652,-24248582.83996582,1909048.318862915,406746.92392349243,-746293.6043739319,3199517.4884796143,4430739.402770996,1820794.2247390747,9004361.152648926,4503538.131713867,4178079.605102539,396557.2416782379,-2866163.730621338,1697645.4257965088,1018624.6633529663,375705.361366272,1762592.1964645386,4482289.3142700195,2238857.0308685303,-421029.32929992676,-1046059.7276687622,-2684129.7149658203,-2034463.4056091309,1714275.1216888428,-2564380.645751953,642017.2452926636,-1321956.6345214844,812491.5361404419,178538.68007659912,1103799.9391555786,-3810745.7160949707,-4604036.808013916,-1748964.0712738037,-1834323.2870101929,-1318427.9203414917,-2841180.3245544434,-4088633.0604553223,5747855.663299561,3460157.871246338,1842260.5991363525,-5010009.765625,-4695556.163787842,-1694986.8202209473,805576.741695404,14629671.096801758,7987076.759338379,7081560.6117248535,6505190.849304199,5590023.994445801,-2245079.278945923,-3103225.4695892334,-3445803.8806915283,10452548.027038574,13883065.223693848,9397658.348083496,5274542.331695557,-2749125.4806518555,-2619496.5839385986,6051141.262054443,12690747.261047363,6457490.921020508
0.04,-4494541.168212891,5767274.856567383,-4863411.426544189,2783714.2944335938,13429530.143737793,-6101671.6957092285,2368926.763534546,3362764.1201019287,2063518.762588501,13150680.541992188,12536080.360412598,13324367.52319336,14303209.30480957,13888383.865356445,-1621937.870979309,-1365073.0848312378,39596.25959396362,1807079.553604126,7487747.1923828125,5025619.983673096,5865731.716156006,8240876.197814941,10256930.351257324,-3774612.1883392334,-170489.98177051544,-3019589.1857147217,1732990.9801483154,-549207.3893547058,2975575.9239196777,3635242.700576782,6793541.431427002,3745848.8941192627,-5221180.9158325195,-3455158.233642578,-3717532.157897949,-2390722.5131988525,-4482403.755187988,-2183154.344558716,6485529.42276001,5165490.15045166,5301488.399505615,-5525749.683380127,-5459738.254547119,-3564182.2814941406,-3052541.0175323486,8364341.735839844,1220425.2481460571,3039532.6614379883,2558879.852294922,2294659.13772583,-7014834.403991699,-7651291.847229004,-8298262.596130371,-1011570.5728530884,3040927.8869628906,1174287.4383926392,-722632.3485374451,-7726102.352142334,-7546105.861663818,-2905130.624771118,3309035.7780456543,175707.68296718597
0.045,39326740.26489258,47236560.8215332,33037162.78076172,24337347.03063965,36758464.81323242,20291477.20336914,20789045.333862305,21487596.51184082,19674179.077148438,25220113.75427246,25774040.22216797,25906255.7220459,24925149.91760254,21371320.724487305,14038132.667541504,13725742.34008789,15582383.155822754,19246496.200561523,15414242.7444458,12159292.221069336,12430285.453796387,13509748.458862305,12721579.551696777,7546445.369720459,8414056.777954102,2808226.1085510254,4179757.1182250977,2835644.006729126,5272782.325744629,5204131.126403809,6552587.509155273,1970267.653465271,-4671707.630157471,-2882772.68409729,-3368178.8444519043,-4338607.7880859375,-6184134.960174561,-4001406.669616699,4243622.303009033,873229.3844223022,-247827.88753509521,-4663237.09487915,-4905482.769012451,-3162483.4537506104,-8809138.298034668,1628110.647201538,-4025033.950805664,-3454796.314239502,-6607779.026031494,-7683775.901794434,-13818984.985351562,-14421566.009521484,-15214937.210083008,-12605870.246887207,-9656350.135803223,-11415793.418884277,-11992403.984069824,-14769515.991210938,-14515136.71875,-14889282.2265625,-9358334.5413208,-8822091.102600098
0.05,91172622.68066406,89156600.95214844,64816871.643066406,51345474.24316406,53804584.50317383,59747585.29663086,45176502.2277832,45762447.357177734,42248092.65136719,36476024.62768555,34852012.634277344,31540325.164794922,23705326.080322266,13387919.425964355,36919750.21362305,35542472.83935547,35728782.653808594,41833492.279052734,21685171.127319336,17358629.22668457,13472400.665283203,9662890.434265137,1341034.4123840332,23489597.32055664,21127643.585205078,11044823.64654541,7272556.781768799,5769111.633300781,5312614.440917969,2359396.21925354,-823824.4652748108,-10021847.72491455,-4080932.6171875,-974697.2918510437,-1564053.6546707153,-5453826.427459717,-8094584.4650268555,-8837976.455688477,-784204.3042182922,-8121697.425842285,-12705642.700195312,-3900241.6133880615,-4204461.574554443,-1326873.540878296,-13698542.594909668,-2478308.67767334,-7300245.28503418,-9812447.547912598,-16247735.977172852,-19990385.055541992,-19578460.693359375,-20327938.079833984,-21027418.13659668,-19171306.610107422,-17679649.353027344,-21159048.080444336,-22622110.36682129,-20677989.959716797,-20425640.106201172,-23679712.295532227,-18718292.236328125,-16877742.767333984
0.055,106080696.10595703,98433952.33154297,69126052.85644531,59370090.48461914,52134498.596191406,74401870.72753906,52687129.974365234,53323265.075683594,49148963.928222656,37525493.62182617,33427154.541015625,25816247.940063477,14907222.747802734,1283910.2745056152,44165710.44921875,43456024.169921875,41641056.060791016,48873023.986816406,20328193.66455078,15012032.508850098,8718473.434448242,1949146.3899612427,-10245014.190673828,28409955.978393555,25279504.776000977,14121735.572814941,9279120.445251465,4794647.693634033,2877402.7824401855,-2445687.770843506,-7897516.250610352,-20310884.475708008,-5513298.034667969,-902860.8798980713,-1357998.7287521362,-4585302.829742432,-9852889.060974121,-12478067.398071289,-5130465.984344482,-14399681.091308594,-20658653.259277344,-5430978.775024414,-5551009.178161621,-1210259.9143981934,-16504884.719848633,-4287298.679351807,-10602341.651916504,-13317922.592163086,-20505754.470825195,-27698865.89050293,-22142063.14086914,-22997425.079345703,-23532026.290893555,-20882717.13256836,-19197269.439697266,-23716066.360473633,-26902301.788330078,-23250759.12475586,-23072412.490844727,-25240648.26965332,-21057435.989379883,-19877742.767333984
0.06,80264221.19140625,74597320.55664062,47333049.77416992,46781860.3515625,35948696.13647461,59830295.56274414,41842586.517333984,42502552.0324707,39049987.79296875,29792205.810546875,24441213.607788086,14283040.046691895,5463727.4742126465,-6640626.907348633,35214263.916015625,35929920.1965332,32534950.256347656,38822818.756103516,14311668.395996094,7890313.148498535,2364392.7574157715,-3702559.471130371,-13658651.351928711,23080717.086791992,21054737.091064453,12067908.28704834,9691865.921020508,752631.4854621887,31255.949288606644,-5643412.5900268555,-10064560.890197754,-21652500.15258789,-6043609.619140625,-1228408.0982208252,-1477884.05418396,-2408550.262451172,-10389381.408691406,-13026198.387145996,-6589560.031890869,-14534225.463867188,-19127029.418945312,-6090558.052062988,-6051818.370819092,-1500417.709350586,-16125259.399414062,-4653598.785400391,-13212276.458740234,-13816565.51361084,-19482570.64819336,-28569862.365722656,-20000434.87548828,-20850622.177124023,-21394548.416137695,-19450969.696044922,-17296480.178833008,-21585794.44885254,-24995458.602905273,-21104709.62524414,-20949892.044067383,-20359842.30041504,-17531898.498535156,-16210956.573486328
0.065,49762969.970703125,45273418.42651367,18224657.05871582,33826282.5012207,18997655.868530273,46926494.59838867,31885473.251342773,32488819.122314453,29290739.059448242,22547018.05114746,15495019.912719727,5002498.149871826,-3876155.376434326,-15062413.215637207,30857032.775878906,30427049.63684082,24741825.103759766,28964527.130126953,11282081.604003906,3488819.360733032,-2432852.7450561523,-8038154.602050781,-16137977.600097656,22564243.31665039,20479249.954223633,12131403.923034668,9773214.340209961,-2111485.481262207,-1410203.5760879517,-6941931.72454834,-11046180.725097656,-20108922.958374023,-915662.944316864,2409245.9678649902,2157109.9758148193,-499683.7079524994,-9284764.289855957,-12408244.132995605,-6601271.629333496,-13168882.369995117,-15386734.008789062,-924316.40625,-938916.027545929,2041750.192642212,-11944399.8336792,-2990333.7955474854,-12256986.618041992,-13441564.559936523,-18747087.478637695,-26517929.077148438,-13985901.832580566,-14833317.756652832,-15616701.126098633,-16091890.335083008,-16224534.98840332,-20449424.743652344,-22211538.314819336,-15196123.123168945,-14952373.504638672,-14161459.922790527,-12928725.242614746,-9469248.77166748
0.07,39207054.138183594,29818119.049072266,-2549436.330795288,32627384.185791016,9203876.495361328,53812252.044677734,33639469.146728516,34251422.88208008,29871692.657470703,20422483.444213867,10439599.03717041,393409.8780155182,-14335796.356201172,-28667415.618896484,40431789.39819336,36027721.4050293,27037473.678588867,29448616.02783203,12994623.184204102,4191437.7212524414,-5839083.671569824,-14013739.585876465,-25725172.04284668,31871871.948242188,27921957.01599121,17058218.002319336,10299751.281738281,-1798413.872718811,-1671171.6651916504,-8374252.3193359375,-15437012.672424316,-23952148.4375,7530418.395996094,9078289.985656738,8599668.502807617,187623.2475042343,-7760715.961456299,-12642449.378967285,-7457026.00479126,-15581023.216247559,-17670965.19470215,7583232.402801514,7385826.587677002,8553566.932678223,-6211488.246917725,766428.530216217,-7976715.087890625,-13801847.457885742,-21688858.032226562,-26244321.823120117,-8892662.048339844,-9760601.043701172,-10826662.063598633,-12994935.989379883,-17714241.02783203,-22789890.28930664,-22988752.365112305,-10233075.141906738,-9883617.401123047,-12365690.231323242,-12049315.452575684,-6224605.560302734
0.075,37041828.15551758,22713420.867919922,-13326496.124267578,33882049.560546875,4363383.769989014,62937431.33544922,36837604.52270508,37638404.846191406,31992357.25402832,19318685.53161621,7698728.561401367,-2114844.32220459,-22546308.517456055,-40858512.87841797,48923091.888427734,41690586.09008789,30231260.299682617,31574848.175048828,13994319.915771484,5418534.755706787,-8709215.16418457,-19909431.45751953,-37032714.84375,38320728.30200195,33403900.146484375,20622846.603393555,10161023.139953613,-760577.4998664856,-1984442.7108764648,-10402611.73248291,-20999317.169189453,-31123645.782470703,10945347.785949707,12195093.154907227,11525624.27520752,-222766.10136032104,-7472068.309783936,-13266205.787658691,-8889019.966125488,-20016820.907592773,-23789831.161499023,10877997.398376465,10555648.803710938,11630308.151245117,-3022056.3411712646,4435955.047607422,-4426612.377166748,-14233797.073364258,-25034414.291381836,-27751985.549926758,-9150857.925415039,-9939667.701721191,-11110908.508300781,-12381492.614746094,-19747802.734375,-25720014.572143555,-26072835.92224121,-10477378.845214844,-10096690.17791748,-15768522.262573242,-15086412.42980957,-8687110.900878906
0.08,24771392.822265625,12536200.523376465,-19657213.21105957,26357889.17541504,96678.60716581345,53737716.67480469,29968439.10217285,31038679.122924805,25518594.74182129,14728577.613830566,4979163.646697998,-4508003.711700439,-23981830.596923828,-42500492.095947266,42276355.7434082,36038581.84814453,24425661.087036133,25144182.205200195,10498254.776000977,3367792.1295166016,-10418873.78692627,-21322011.947631836,-39212654.11376953,32130920.41015625,28899412.155151367,17517639.16015625,8381597.518920898,-1586748.6000061035,-2718885.660171509,-11298374.17602539,-22176155.09033203,-33210453.033447266,6924643.993377686,9124493.598937988,8461901.664733887,-903779.2682647705,-8649271.011352539,-13041150.093078613,-9005039.21508789,-20716100.692749023,-25178833.0078125,6658843.040466309,6352054.595947266,8666039.46685791,-3523912.9066467285,5607226.848602295,-4181540.012359619,-13267237.663269043,-23646398.544311523,-27130910.873413086,-12218552.589416504,-12823342.323303223,-13889858.24584961,-13087049.48425293,-18712083.81652832,-24755073.54736328,-26202095.03173828,-13420416.831970215,-13015139.57977295,-18641262.05444336,-16811355.590820312,-11299715.995788574
0.085,8124245.643615723,1701962.1133804321,-24237150.192260742,16067159.652709961,-3633190.393447876,36231742.85888672,19515100.479125977,20704994.201660156,16143177.032470703,9118006.706237793,2663503.885269165,-6125450.134277344,-20416200.637817383,-35872562.408447266,30185718.536376953,26237247.467041016,15458043.098449707,15778528.213500977,5989235.877990723,485297.65009880066,-10141266.822814941,-18119874.954223633,-32324684.143066406,22628604.888916016,21696290.969848633,12264411.926269531,6520799.160003662,-2870898.0083465576,-3162233.591079712,-10154631.614685059,-18513137.817382812,-28220073.699951172,3583512.544631958,5873661.518096924,5298379.421234131,-936702.7282714844,-10098648.071289062,-12218893.051147461,-7573106.288909912,-16559200.286865234,-19386783.599853516,3283840.1794433594,3087310.314178467,5487154.960632324,-4559388.637542725,4400406.837463379,-5330749.988555908,-11131635.665893555,-17972583.770751953,-22476814.27001953,-10896186.828613281,-11420599.937438965,-12324341.773986816,-11660193.44329834,-13962770.462036133,-19423154.830932617,-20885551.45263672,-12061640.739440918,-11556931.495666504,-15373012.54272461,-12857886.31439209,-7989878.6544799805
0.09,4725347.518920898,-591273.3674049377,-26186672.21069336,16221115.112304688,-4602141.857147217,34522640.228271484,19465688.705444336,20495616.912841797,16224292.755126953,8121408.462524414,2389464.6167755127,-5970696.926116943,-18320331.573486328,-31761692.04711914,31089927.673339844,26860826.49230957,15550137.519836426,15855877.876281738,5947427.272796631,1232283.4730148315,-8540086.74621582,-15052284.240722656,-26991657.257080078,24445365.90576172,23490959.16748047,12895173.072814941,7076193.809509277,-1721517.0860290527,-2774975.7766723633,-8475641.250610352,-15214537.620544434,-23017919.540405273,7699589.252471924,8334949.493408203,7781002.521514893,-258553.95197868347,-10942745.208740234,-11976854.32434082,-6503861.427307129,-12730124.473571777,-13392477.989196777,7505546.092987061,7424092.769622803,7840875.625610352,-3884764.1944885254,2634668.8270568848,-5300127.029418945,-9972675.323486328,-14039628.982543945,-17561025.619506836,-4235731.12487793,-4921960.353851318,-5762381.553649902,-8422354.698181152,-10058851.24206543,-14779639.24407959,-14622917.175292969,-5513082.504272461,-4940590.381622314,-8878556.251525879,-6743686.199188232,-1665943.6225891113
0.095,14661825.180053711,4929383.277893066,-25554025.650024414,26183383.94165039,-2693576.0974884033,49734527.587890625,29531862.258911133,30233514.7857666,25418657.302856445,12341032.981872559,4435633.182525635,-4295106.410980225,-20016723.6328125,-34695991.51611328,44069454.193115234,37408397.67456055,24282854.080200195,25045509.338378906,10213213.920593262,5396240.711212158,-6853080.749511719,-15200746.536254883,-29159984.588623047,35452648.1628418,32367534.637451172,18856559.75341797,9666822.43347168,1103789.3295288086,-1823728.6806106567,-7956955.432891846,-15760169.02923584,-23281755.447387695,14047586.441040039,13156039.237976074,12611912.727355957,-155021.0565328598,-11519120.216369629,-12531747.817993164,-6937530.040740967,-13474813.461303711,-13989288.330078125,13857905.387878418,13824420.928955078,12465648.651123047,-3859742.6414489746,1242226.7198562622,-4743042.945861816,-11236717.224121094,-15856946.94519043,-17749610.900878906,-593164.9208068848,-1525434.8516464233,-2433114.2902374268,-8401384.353637695,-12039268.493652344,-16071392.059326172,-14183234.214782715,-1982430.8156967163,-1524856.2097549438,-8143360.137939453,-6598995.208740234,-1235920.9060668945
0.1,20769248.962402344,8504339.218139648,-24121135.711669922,32090473.175048828,93009.44209098816,59239879.6081543,35533325.1953125,36001483.91723633,30935560.22644043,16611959.457397461,7427752.0179748535,-1820570.8265304565,-20999675.750732422,-38175605.77392578,50604934.69238281,42937744.140625,29105901.71813965,30511541.36657715,13599225.044250488,8601613.998413086,-5264135.837554932,-16225456.237792969,-32905178.07006836,40051376.34277344,35423393.24951172,21495822.90649414,10904269.218444824,1667203.3071517944,-784173.2501983643,-8095048.904418945,-17720834.732055664,-26331605.911254883,13071266.174316406,12621107.10144043,12169047.355651855,-1934197.9026794434,-12391417.503356934,-12896840.09552002,-7469406.1279296875,-16592721.939086914,-18995429.99267578,12758409.50012207,12681661.605834961,11847730.63659668,-7170207.0236206055,191201.91037654877,-5367947.101593018,-13453626.63269043,-20256528.854370117,-22646932.60192871,-5870280.2658081055,-6876858.711242676,-7905744.552612305,-13749317.169189453,-18262828.826904297,-21863857.26928711,-19640813.82751465,-7270292.75894165,-7014983.177185059,-15879115.104675293,-13806397.438049316,-8594999.313354492
0.105,13620862.007141113,5386538.505554199,-22925420.7611084,26305099.487304688,2220346.9276428223,49042900.08544922,29357591.62902832,29850805.282592773,25425271.98791504,16718585.968017578,9702589.988708496,847315.6690597534,-17023439.407348633,-35094497.68066406,41132164.001464844,35178817.74902344,23036828.994750977,24896518.70727539,12750674.2477417,8246562.0040893555,-3394420.1469421387,-14450306.89239502,-30096580.505371094,31280080.795288086,27214191.436767578,16098699.569702148,8688591.957092285,-1486558.437347412,202438.39919567108,-7237975.120544434,-16947988.510131836,-26013080.596923828,5041026.1154174805,5921677.589416504,5554650.30670166,-4965285.778045654,-13412771.224975586,-12287411.6897583,-6242589.950561523,-17034217.834472656,-20839483.2611084,4746878.623962402,4569811.3441467285,5257066.249847412,-11576390.266418457,-91944.99254226685,-6470333.576202393,-13760548.59161377,-21134210.58654785,-25820510.864257812,-14181125.64086914,-15067390.441894531,-16165880.20324707,-19340715.408325195,-21470623.016357422,-25046537.399291992,-23578065.872192383,-15564673.42376709,-15337412.83416748,-23748298.64501953,-19958778.381347656,-14952897.071838379
0.11,1418493.5092926025,146650.00140666962,-21817201.614379883,15953053.47442627,3331145.763397217,29592565.536499023,18113376.61743164,18789407.73010254,15321717.262268066,13699829.1015625,10316893.577575684,2713294.744491577,-10175744.05670166,-27102323.532104492,25894435.88256836,22205022.81188965,12700261.116027832,14711673.736572266,9420791.625976562,5973002.4337768555,-1787352.442741394,-10216309.547424316,-21465463.638305664,18415246.963500977,16172168.731689453,7671561.717987061,4896361.351013184,-5062888.145446777,995741.069316864,-5301868.438720703,-13178499.221801758,-21141027.450561523,-1252685.4276657104,-403857.35034942627,-827161.967754364,-7116840.362548828,-14342803.955078125,-11095676.42211914,-3825374.126434326,-13825541.496276855,-16634080.88684082,-1268091.4402008057,-1528834.581375122,-846037.5666618347,-12961642.265319824,502928.07817459106,-6689740.6578063965,-11647443.771362305,-17292572.021484375,-22988613.12866211,-16234737.396240234,-16994228.36303711,-18028547.286987305,-19737400.05493164,-18287389.755249023,-21768062.591552734,-20765817.642211914,-17614225.387573242,-17216619.49157715,-23435768.127441406,-18083553.314208984,-13061003.684997559
0.115,-5170849.323272705,-2483246.088027954,-21090459.8236084,10746800.422668457,3187437.2959136963,17744453.43017578,12016224.86114502,12803347.58758545,9898521.423339844,10950192.45147705,9223457.336425781,2633555.4122924805,-5968799.591064453,-21311693.19152832,18059461.59362793,15382046.699523926,7385887.622833252,9313868.522644043,6966182.708740234,4341515.54107666,-1642318.0103302002,-7136345.386505127,-14604355.812072754,12096907.615661621,11660162.925720215,3338459.7301483154,2659625.53024292,-5578138.828277588,1138259.6492767334,-4033228.874206543,-9649310.111999512,-16044471.740722656,-1929036.1404418945,-2279413.4616851807,-2814670.5627441406,-7442178.726196289,-15548481.941223145,-10267077.445983887,-2574090.003967285,-10658341.407775879,-10981480.598449707,-1701304.4357299805,-1957364.4399642944,-2502529.8595428467,-11800011.63482666,439344.01869773865,-7128507.137298584,-9654229.164123535,-13215151.7868042,-17441923.141479492,-12671772.956848145,-13405618.667602539,-14227650.64239502,-16833059.310913086,-13489861.488342285,-16175294.876098633,-14849576.950073242,-13939390.182495117,-13452906.608581543,-17580278.396606445,-11828433.0368042,-6959931.373596191
0.12,-6215015.888214111,-3773229.1221618652,-21596797.943115234,10696407.318115234,1543425.7984161377,16836027.145385742,11679934.50164795,12438210.487365723,9606115.341186523,9718782.424926758,7189576.148986816,760941.4458274841,-6599168.300628662,-21241127.014160156,18027254.104614258,15548100.471496582,7563657.760620117,9165122.985839844,6273497.104644775,3774956.703186035,-3049235.5823516846,-7098906.04019165,-13916351.318359375,12033563.613891602,12844783.782958984,3788125.2765655518,2377732.515335083,-3922159.6717834473,436119.34781074524,-4478027.820587158,-8531780.242919922,-14184128.761291504,-1541532.1588516235,-2167842.388153076,-2660829.0672302246,-7220628.73840332,-17240932.46459961,-10020915.985107422,-3281229.4960021973,-10180613.51776123,-8809247.016906738,-1429560.3036880493,-1576223.0157852173,-2273122.787475586,-11885524.74975586,-1479354.1431427002,-9192095.756530762,-9620373.725891113,-12254422.187805176,-14795849.800109863,-11180882.453918457,-11920980.453491211,-12479973.793029785,-15760178.565979004,-12190987.586975098,-13843133.926391602,-12128991.12701416,-12180932.998657227,-11837900.161743164,-14232048.034667969,-8648826.599121094,-4338742.733001709
0.125,-7273790.8363342285,-6411983.966827393,-23203895.568847656,9886504.173278809,-872994.7805404663,19531038.284301758,11403280.258178711,12127720.832824707,9105055.809020996,9077310.562133789,5471983.432769775,-1060774.4455337524,-9189914.70336914,-23881095.88623047,18900480.270385742,16322284.698486328,7823054.313659668,8847042.083740234,6256896.018981934,3643398.7617492676,-4505576.133728027,-8153457.6416015625,-16297449.111938477,12573031.425476074,13665344.23828125,4960208.892822266,2019819.2596435547,-3443726.7780303955,-434811.2344741821,-5486056.327819824,-8863403.3203125,-14383566.856384277,-3207484.006881714,-2884224.6532440186,-3186171.054840088,-7815157.413482666,-18623477.935791016,-9684318.542480469,-4086136.3410949707,-10758939.743041992,-9240584.373474121,-3433449.2683410645,-3448895.9312438965,-3037449.598312378,-13573346.138000488,-3409252.166748047,-10864290.237426758,-10097900.390625,-12641510.963439941,-15229014.39666748,-13218650.817871094,-13938099.86114502,-14355085.372924805,-16410285.949707031,-12456015.586853027,-14117247.581481934,-12429025.650024414,-13996186.256408691,-13797457.695007324,-14607048.034667969,-8567413.330078125,-4692354.202270508
0.13,-9349379.539489746,-8928000.450134277,-24265865.325927734,6958772.1824646,-2139492.2733306885,20510669.708251953,9377947.807312012,10153800.010681152,6895959.377288818,8878944.396972656,5216567.039489746,-913262.7844810486,-9624357.223510742,-24206651.68762207,18348957.061767578,14927296.63848877,6227582.931518555,6707121.849060059,6656918.048858643,4372696.399688721,-4433020.59173584,-7400061.130523682,-16116224.28894043,12285613.059997559,12549702.644348145,4835232.257843018,606944.1437721252,-4861361.503601074,-427103.28102111816,-5344807.147979736,-8727287.292480469,-13567926.406860352,-3800178.050994873,-3155355.453491211,-3358891.248703003,-8715921.401977539,-18700901.03149414,-8845550.537109375,-3315720.0813293457,-9865626.335144043,-8552623.748779297,-4128554.344177246,-4149309.6351623535,-3472615.2420043945,-13367625.23651123,-2429516.553878784,-8986401.557922363,-9117616.653442383,-11790833.473205566,-14859619.140625,-12950361.251831055,-13685456.275939941,-14163619.995117188,-14967215.538024902,-10213802.337646484,-13205787.658691406,-11320171.356201172,-13751983.642578125,-13445162.773132324,-13733414.649963379,-6592736.721038818,-2523633.2416534424
0.135,-9513271.33178711,-8170519.828796387,-23234708.786010742,6061312.675476074,-821783.185005188,19545583.724975586,8935059.547424316,9753411.293029785,6467195.0340271,10285450.93536377,6661968.70803833,1277941.4653778076,-6571655.2734375,-20352901.458740234,18304624.557495117,13888223.648071289,5704265.117645264,6118013.381958008,8295556.06842041,6660892.009735107,-2760029.5543670654,-4427797.317504883,-11690290.451049805,12697568.893432617,12225558.280944824,4868644.714355469,-519569.39697265625,-5587979.316711426,696615.9343719482,-4059362.4114990234,-7707979.202270508,-10886639.595031738,-1391882.8964233398,-1529818.1772232056,-1842143.4164047241,-8676355.361938477,-17634654.998779297,-8141395.568847656,-1956892.6095962524,-8187139.511108398,-6423202.5146484375,-1397738.9335632324,-1641165.6141281128,-1931403.398513794,-10402870.178222656,1049801.1112213135,-4506355.762481689,-7763728.141784668,-11123181.343078613,-13008904.457092285,-8947563.171386719,-9787396.430969238,-10395202.63671875,-11697135.925292969,-7257350.444793701,-11838318.824768066,-8919141.76940918,-9918021.202087402,-9395669.937133789,-10766314.506530762,-3041839.122772217,1475938.081741333
0.14,-6623736.85836792,-4611655.712127686,-20764535.903930664,9777669.906616211,2042130.2318572998,18462961.196899414,12310891.151428223,13084580.421447754,10005634.307861328,13404986.381530762,8721537.590026855,3668561.4585876465,-2413485.7654571533,-15069920.539855957,19229188.919067383,15425423.622131348,8508921.62322998,9360171.3180542,11062186.241149902,9647304.53491211,-880203.127861023,-1414156.0792922974,-6481233.1199646,13565014.839172363,14074260.711669922,6493358.612060547,89899.6889591217,-3778054.95262146,2120032.0720672607,-3085443.9735412598,-6778286.457061768,-8111909.866333008,574073.0166435242,429040.6405925751,-5308.183375746012,-7608574.867248535,-16218496.322631836,-8264220.237731934,-1935743.3319091797,-8208694.4580078125,-5907146.453857422,1018332.9582214355,464156.95548057556,165153.92065048218,-7772854.804992676,4126066.207885742,-1045396.3279724121,-8112832.069396973,-13137373.924255371,-12864248.275756836,-6779556.2744140625,-7735352.993011475,-8321457.862854004,-9962894.439697266,-7557163.715362549,-13551305.770874023,-9574535.369873047,-7806794.6434021,-7298511.028289795,-9769690.51361084,-2654428.720474243,1767338.1567001343
0.145,-2451329.469680786,-2180979.9671173096,-19745006.561279297,15450615.882873535,3389374.9713897705,19879520.416259766,17451665.8782959,18201398.849487305,15114791.870117188,16109746.932983398,9629903.793334961,4368752.002716064,-818289.4587516785,-12883538.246154785,20606468.200683594,18743553.161621094,13097314.834594727,14307414.054870605,13253726.959228516,11541650.772094727,-217159.4649553299,-434704.0355205536,-4910683.631896973,14339240.074157715,17083282.470703125,9154994.010925293,1847171.5450286865,-876005.6495666504,3024835.8249664307,-3065383.6727142334,-6614133.358001709,-6969884.395599365,194559.54432487488,1513448.3575820923,1159458.6372375488,-6340027.809143066,-14422056.198120117,-8524554.252624512,-2803715.229034424,-9832736.96899414,-7955764.7705078125,848139.5840644836,119906.91721439362,1483790.0400161743,-6355052.471160889,6475117.6834106445,1374698.281288147,-8650875.091552734,-15701279.640197754,-14779728.889465332,-7942219.257354736,-8915121.078491211,-9314626.693725586,-8377428.05480957,-8262196.5408325195,-16442296.981811523,-12878293.03741455,-8869118.690490723,-8618245.124816895,-10354714.393615723,-4275140.762329102,-730382.3828697205
0.15,938308.06016922,-3217105.8654785156,-22267938.6138916,18873741.149902344,1609598.5174179077,25471914.291381836,20982854.84313965,21831708.908081055,18161476.135253906,16447713.851928711,8820135.116577148,3571976.661682129,-2861075.6397247314,-15470917.701721191,23613744.735717773,21986450.1953125,16434743.881225586,17466236.114501953,13664428.7109375,12134006.50024414,-681915.6408309937,-1252945.899963379,-7671358.585357666,16618251.80053711,20333379.7454834,11463514.32800293,2806195.2590942383,697232.4252128601,3605241.537094116,-2849902.391433716,-6727018.356323242,-7256429.672241211,1332369.5659637451,3363151.3118743896,3218614.8166656494,-5425919.055938721,-11791396.141052246,-7436659.336090088,-2078323.1258392334,-10050438.88092041,-9453968.048095703,1940838.8137817383,1241828.3224105835,3398346.424102783,-2962006.8073272705,10568822.860717773,6265681.266784668,-5645941.257476807,-13967679.977416992,-14275743.48449707,-6102517.604827881,-6991655.349731445,-7289954.18548584,-2016546.7262268066,-2856807.9471588135,-14043277.740478516,-12384014.129638672,-6938830.852508545,-6868401.527404785,-6886118.412017822,-979986.9060516357,1249850.7499694824
0.155,2159999.6089935303,-5741993.427276611,-26282541.275024414,18627861.02294922,-912605.8220863342,31876153.94592285,21358541.48864746,22295989.990234375,17980585.0982666,15294149.398803711,7999964.714050293,3460511.2075805664,-5510268.688201904,-19637479.782104492,27761140.823364258,23402860.641479492,16793029.78515625,17506395.33996582,13249014.854431152,13088289.260864258,-656658.4706306458,-1816118.0019378662,-11185284.614562988,20246423.721313477,22605098.724365234,12132272.720336914,1828456.4018249512,735003.650188446,4609599.590301514,-1251560.926437378,-6197488.307952881,-7581286.430358887,5801987.648010254,6318783.283233643,6268710.136413574,-5314589.977264404,-9303165.435791016,-5032474.040985107,949960.5894088745,-7362577.91519165,-7825562.953948975,6337221.622467041,5747211.456298828,6197522.6402282715,2603342.056274414,15746619.22454834,13144953.727722168,273204.2074203491,-8176958.084106445,-9157468.795776367,786589.6224975586,-5002.942867577076,-472119.9870109558,7000447.2732543945,6467512.130737305,-6115633.010864258,-5929141.998291016,-37749.648094177246,87298.47520589828,281600.83293914795,7279297.828674316,8111760.139465332
0.16,692593.5745239258,-6161118.030548096,-26845611.572265625,16308427.810668945,-122823.566198349,32198818.20678711,19136865.615844727,19958753.58581543,15851690.292358398,15489629.745483398,9552544.593811035,5713429.927825928,-4768093.585968018,-20488674.16381836,28257406.23474121,21566667.556762695,14441257.47680664,15484505.653381348,13896121.02508545,15351002.69317627,1242882.0133209229,-502509.29594039917,-11454320.907592773,20636646.270751953,21560861.587524414,10403683.66241455,-176904.15680408478,909876.0485649109,6133094.310760498,1081691.7419433594,-4770005.226135254,-7057862.281799316,7767070.293426514,6773845.672607422,6620029.449462891,-6600784.3017578125,-9101273.536682129,-3438260.078430176,3767955.541610718,-4167597.2938537598,-4816955.56640625,8279262.542724609,7784788.608551025,6504727.840423584,4337169.170379639,16710239.41040039,15504858.97064209,3087295.0553894043,-4744556.903839111,-4123745.4414367676,3977774.8584747314,3236896.276473999,2498271.703720093,8625427.24609375,8722154.61730957,-1327298.1643676758,-516666.054725647,3196056.365966797,3389896.869659424,1929290.1754379272,10581119.537353516,10387068.748474121
0.165,-2515645.0271606445,-3856160.6407165527,-22223703.384399414,13904788.970947266,4416361.8087768555,24159587.860107422,15780902.862548828,16374658.584594727,13354944.229125977,18218116.760253906,13392231.941223145,9191051.483154297,-345465.2428627014,-16569335.9375,21716955.184936523,16797365.188598633,10995255.470275879,12995238.304138184,15852012.634277344,17374580.38330078,4248418.33114624,2274162.769317627,-7981993.198394775,14641099.92980957,16643156.051635742,7090786.457061768,-1060975.432395935,2065346.4794158936,7296903.610229492,2307394.9813842773,-3132149.6963500977,-5995359.420776367,2132111.3109588623,2381407.9761505127,2059728.8608551025,-8840127.944946289,-11698857.307434082,-4391931.533813477,3857130.765914917,-3567004.442214966,-3882253.408432007,2538701.5342712402,2163369.655609131,2151927.947998047,-1739747.7626800537,10798021.31652832,9436840.057373047,-863059.0438842773,-7794366.359710693,-4767173.290252686,-3449884.4146728516,-4179143.9056396484,-4978582.859039307,-1433992.7434921265,-550804.853439331,-5466436.386108398,-2560461.2827301025,-4107033.2527160645,-4055271.625518799,-6741127.490997314,3222708.225250244,3208571.9108581543
0.17,-6068026.542663574,-1967536.211013794,-16615608.215332031,11705747.604370117,8471184.730529785,13033437.728881836,12372074.127197266,12934043.884277344,10919949.531555176,21159711.837768555,16402788.162231445,11049655.91430664,4541332.244873047,-10305644.989013672,11950587.272644043,11557136.535644531,8010159.492492676,10604575.157165527,17194963.455200195,16886398.315429688,5984799.385070801,4909411.907196045,-3095730.5431365967,6193430.9005737305,11163897.514343262,4446492.671966553,305942.71421432495,3120990.514755249,7215721.607208252,1634831.3093185425,-2104837.656021118,-5157306.671142578,-6497546.195983887,-3380756.616592407,-3804689.407348633,-10175337.791442871,-14908869.743347168,-7019372.463226318,1770573.8544464111,-5417093.753814697,-5491735.458374023,-6337814.3310546875,-6569571.018218994,-3484756.4697265625,-10512644.76776123,3007639.6465301514,57363.34249377251,-7496361.73248291,-13632995.60546875,-10106364.250183105,-14864456.176757812,-15570938.110351562,-16201637.268066406,-14278711.318969727,-11894811.630249023,-13081482.887268066,-8665387.153625488,-15403669.357299805,-15588252.067565918,-17627635.955810547,-7061976.432800293,-5223901.271820068
0.175,-9178063.39263916,-2696427.822113037,-14294401.168823242,9282552.719116211,8851278.305053711,5275751.59072876,9532561.302185059,10357579.231262207,8598400.115966797,21320392.608642578,16153831.481933594,10525212.287902832,7938980.579376221,-3986495.018005371,6044533.729553223,8323315.620422363,6125876.903533936,8331847.190856934,16334428.787231445,14176262.855529785,5396554.946899414,6694156.646728516,1568031.907081604,1925470.7098007202,8928282.737731934,3921398.878097534,2595778.465270996,2780534.9826812744,6073691.844940186,193979.02488708496,-1674064.5170211792,-4703561.782836914,-9884036.06414795,-5586179.256439209,-6053597.450256348,-9549620.628356934,-16480070.114135742,-8997191.429138184,-177554.78620529175,-7141004.0855407715,-7175825.119018555,-9948137.283325195,-10145091.05682373,-5672047.138214111,-13992237.091064453,119725.0485420227,-4542932.510375977,-10359388.35144043,-16412004.470825195,-14866624.83215332,-19209995.26977539,-19840202.33154297,-20371690.75012207,-19186527.252197266,-14748895.645141602,-15817386.627197266,-11479616.165161133,-19675395.965576172,-19940912.2467041,-20830034.255981445,-10257669.448852539,-5902452.46887207
0.18,-10239114.761352539,-3265328.1688690186,-13299205.780029297,7969829.559326172,8075233.459472656,3203774.6906280518,8488656.044006348,9623001.098632812,7654938.697814941,19235240.936279297,14358222.007751465,10304430.00793457,11125278.47290039,2043852.5676727295,6504748.821258545,7850543.975830078,5748345.375061035,7302162.170410156,14417247.772216797,12501717.567443848,4345985.889434814,8345993.0419921875,6031676.292419434,3249791.6221618652,10004510.879516602,4710265.159606934,3289855.2417755127,1392534.613609314,5081338.405609131,-378217.75674819946,-1056570.6491470337,-3994274.377822876,-7747966.289520264,-4387500.286102295,-4896712.303161621,-8509260.177612305,-16634229.66003418,-9346684.455871582,-1002381.2055587769,-7423711.776733398,-7291301.727294922,-7845833.301544189,-8185108.184814453,-4580086.231231689,-11736132.621765137,2358805.8948516846,-2891947.031021118,-8841402.053833008,-15996522.903442383,-16976964.950561523,-16559904.098510742,-17090223.31237793,-17746746.063232422,-16673336.029052734,-10970003.128051758,-14084161.758422852,-10588767.051696777,-16907836.9140625,-17105394.36340332,-18049936.294555664,-7816417.217254639,-2177028.4175872803
0.185,-6482735.633850098,613077.2233009338,-9234127.044677734,10298865.31829834,10543533.325195312,6524840.354919434,10803006.172180176,12047784.805297852,9894787.788391113,18767011.642456055,14907211.303710938,12932916.641235352,14896883.964538574,6889593.601226807,10570142.74597168,9766732.215881348,7607749.462127686,9365110.397338867,14264949.798583984,14590389.251708984,5314658.164978027,10369415.283203125,9732992.172241211,6586106.777191162,11942219.734191895,5300267.696380615,1503690.7196044922,492584.34772491455,5342023.849487305,381908.74457359314,193616.55414104462,-2439852.714538574,-6254990.100860596,-3382424.3545532227,-3940719.3660736084,-9261512.756347656,-16866971.969604492,-8979848.861694336,-1244313.9553070068,-7203681.468963623,-6536243.915557861,-6267472.743988037,-6762875.080108643,-3696506.977081299,-9673951.148986816,4839816.093444824,403007.0900917053,-7254242.420196533,-16249544.143676758,-18380311.965942383,-15201548.57635498,-15714545.249938965,-16471658.706665039,-13964150.428771973,-8888402.938842773,-13859307.289123535,-10860548.973083496,-15345247.268676758,-15547880.172729492,-17084692.001342773,-7255761.14654541,-2290620.5654144287
0.19,1097690.8206939697,7116105.556488037,-4213739.87197876,15432824.13482666,15170768.737792969,13205695.152282715,15336680.41229248,16541110.99243164,14254081.726074219,21930992.126464844,18422222.137451172,16764263.153076172,16726219.177246094,7971486.568450928,14717728.614807129,12676614.761352539,10926394.46258545,13654682.159423828,16719429.016113281,19164100.646972656,7926891.326904297,11793212.890625,10810045.24230957,9021086.692810059,13235731.12487793,5183008.670806885,-1204626.441001892,819646.7757225037,6761075.973510742,1740887.6419067383,1534419.8942184448,-323115.17000198364,-7428570.747375488,-3709838.628768921,-4302552.700042725,-11553446.769714355,-17286127.0904541,-8769252.77709961,-843997.8361129761,-7140361.309051514,-5732342.24319458,-7442227.363586426,-7896517.276763916,-4114742.7558898926,-10396424.293518066,5461989.879608154,2712891.101837158,-7113091.945648193,-17389255.52368164,-19223337.173461914,-16751367.568969727,-17398313.522338867,-17937484.741210938,-12338689.804077148,-8844234.466552734,-14984573.364257812,-12138495.445251465,-16693582.534790039,-17041397.094726562,-17793014.526367188,-7967760.5628967285,-4524992.942810059
0.195,4764206.409454346,8554929.733276367,-5332476.1390686035,17469430.923461914,16022350.311279297,17172149.658203125,16963342.666625977,18144599.91455078,15760177.612304688,25458425.521850586,20885847.091674805,17552204.132080078,14404985.427856445,4855602.741241455,16061077.117919922,13266452.78930664,11981962.203979492,15240222.930908203,19100883.48388672,21936485.290527344,9225792.88482666,11534589.767456055,9095111.846923828,9488668.441772461,13140397.071838379,4114923.0003356934,-3013749.599456787,1439366.8174743652,8096685.409545898,2902507.3051452637,2312101.364135742,1541625.2613067627,-7770959.854125977,-4040412.9028320312,-4625455.856323242,-13220065.116882324,-16897655.487060547,-8443435.668945312,1102059.1259002686,-6121306.419372559,-4165881.1569213867,-7927669.048309326,-8168354.034423828,-4504300.117492676,-10694760.3225708,6444616.317749023,5607688.903808594,-5201755.523681641,-15191941.261291504,-16325864.791870117,-14898456.573486328,-15745526.313781738,-15853342.056274414,-7616232.395172119,-3933264.970779419,-11050204.277038574,-8606642.723083496,-14720470.428466797,-15171208.381652832,-13533931.732177734,-2836630.344390869,-469528.76448631287
0.2,-1321685.9102249146,2368433.713912964,-12387022.972106934,12288791.65649414,11437749.862670898,12161510.467529297,12087445.259094238,13246672.630310059,11116426.467895508,24775363.92211914,19130720.138549805,14397488.594055176,10813015.937805176,2025576.114654541,12198842.04864502,8815099.716186523,7929849.624633789,10671059.608459473,18528594.970703125,20622201.919555664,7798364.639282227,10556171.417236328,7748263.359069824,6668038.845062256,10431186.67602539,1607640.6240463257,-3634418.249130249,1152639.5082473755,8303794.860839844,3767033.815383911,2861618.5188293457,2762357.9502105713,-6642768.383026123,-4708550.453186035,-5204024.314880371,-13403131.484985352,-15988246.91772461,-7630624.294281006,4289048.671722412,-3256641.626358032,-1280956.1491012573,-6912668.228149414,-6983425.140380859,-5116691.112518311,-8722336.769104004,8408716.201782227,9315518.379211426,-20267.412066459656,-8450065.612792969,-8965780.258178711,-8742787.36114502,-9697615.623474121,-9534900.665283203,-1264005.184173584,6120231.628417969,-1305109.3816757202,501360.83364486694,-8520071.983337402,-8898562.43133545,-5148551.940917969,7234851.837158203,9083168.983459473
0.205,-9625543.594360352,-1823752.1648406982,-13876343.727111816,5293751.7166137695,8535317.420959473,1683714.3898010254,5310995.101928711,6300134.181976318,4877791.404724121,20938953.399658203,16113296.508789062,12050738.334655762,11525695.80078125,4463515.281677246,4607160.568237305,2265350.103378296,2363002.061843872,4432548.999786377,16270797.729492188,18142198.56262207,6217700.958251953,11251463.890075684,9519852.638244629,859356.2841415405,5749891.28112793,-1229670.524597168,-3380148.8876342773,394375.65207481384,7845876.216888428,4682876.110076904,3829641.819000244,3309414.6251678467,-8079120.635986328,-7100346.088409424,-7423357.009887695,-13368611.335754395,-16272836.685180664,-6935768.127441406,6472825.527191162,-316925.0786304474,1037912.130355835,-8253137.588500977,-8330595.016479492,-7278495.311737061,-7797129.154205322,8006620.407104492,10153379.440307617,3951397.8958129883,-3094831.705093384,-2572417.4976348877,-6785820.007324219,-7712947.368621826,-7602545.738220215,-1639673.7098693848,11027606.010437012,4855506.420135498,6435721.397399902,-6627902.030944824,-6863368.511199951,-3098449.945449829,10901114.463806152,12492704.391479492
0.21,-5173439.502716064,7448202.133178711,-1031638.0262374878,6543338.298797607,14635823.249816895,-1882150.2923965454,5514303.207397461,6211569.786071777,5432409.286499023,20140289.306640625,17664001.46484375,15218667.984008789,17219829.559326172,10635883.331298828,-313916.4447784424,659956.3360214233,2591717.004776001,5006824.016571045,16621631.622314453,19284305.572509766,7770047.187805176,13890639.305114746,12026568.412780762,-3795000.5531311035,2919960.2603912354,-1622312.4265670776,-2118800.640106201,858399.0335464478,8107145.309448242,5532217.025756836,4203777.313232422,2151117.5632476807,-13465296.745300293,-10004119.873046875,-10173746.109008789,-14249974.250793457,-18345260.620117188,-7350014.686584473,5469982.147216797,-930175.9600639343,-860862.3147010803,-13372140.884399414,-13569566.72668457,-9931616.78314209,-11102029.800415039,3265455.722808838,5605595.588684082,1090120.792388916,-6388174.057006836,-4092131.6146850586,-14711794.85321045,-15562118.530273438,-15650190.353393555,-12086228.370666504,2820877.0751953125,-1292940.0205612183,620752.3941993713,-14810644.149780273,-14963535.30883789,-13287121.772766113,1141454.577445984,2902474.880218506
0.215,13733493.80493164,26667125.701904297,17884950.637817383,16642261.505126953,25989439.010620117,6542228.698730469,13580046.653747559,14143241.882324219,13413214.683532715,24913352.966308594,23865804.67224121,21487724.30419922,21275957.107543945,12770625.114440918,1405681.848526001,5673579.692840576,9415143.013000488,13053270.33996582,20732769.012451172,24175277.709960938,11262413.024902344,14780622.482299805,9316119.194030762,-3920788.288116455,4126993.179321289,719898.0450630188,-600989.4013404846,2962007.2841644287,9210749.626159668,5109965.3244018555,1227717.638015747,-2924455.165863037,-18859689.712524414,-11010074.615478516,-11168594.360351562,-15756781.578063965,-20470804.21447754,-9034836.769104004,1243474.7219085693,-7061704.635620117,-8961318.969726562,-18549221.03881836,-18831972.122192383,-10903750.4196167,-16319982.528686523,-2023987.2932434082,-923724.1744995117,-7978494.167327881,-18545631.408691406,-14791898.727416992,-26693761.825561523,-27461154.93774414,-27701835.63232422,-24183509.826660156,-12979019.165039062,-16663303.37524414,-14892122.268676758,-27157245.635986328,-27222579.956054688,-28117343.90258789,-14916646.003723145,-12932731.628417969
0.22,28923955.9173584,37850097.65625,24597290.0390625,23300928.115844727,30051578.521728516,15767894.744873047,19096061.70654297,19891700.744628906,18745378.494262695,29064355.850219727,27035192.489624023,22783521.65222168,16818391.799926758,5400978.088378906,4620254.993438721,9529982.566833496,13923263.549804688,18395423.889160156,23766397.47619629,27157011.032104492,11348660.469055176,9830233.573913574,-998938.3220672607,-2813744.54498291,5429286.003112793,1399964.3325805664,-1371721.9829559326,4561367.511749268,9255468.368530273,2032821.1784362793,-6368150.71105957,-12457726.47857666,-21554195.404052734,-11134630.20324707,-11400035.858154297,-17371408.462524414,-20702604.293823242,-11067925.453186035,-4104269.9813842773,-16435918.807983398,-20720409.393310547,-21239624.0234375,-21465860.36682129,-11197479.248046875,-18214776.99279785,-2070605.2780151367,-3151384.3536376953,-16299003.601074219,-31973758.697509766,-28902723.31237793,-33162109.375,-33787258.14819336,-34130191.802978516,-26792381.286621094,-23219482.421875,-29623758.31604004,-29834762.573242188,-33801490.783691406,-33674556.732177734,-35707992.55371094,-24939794.540405273,-24252540.588378906
0.225,23311187.744140625,29243412.017822266,12389516.830444336,16182128.90625,20486375.80871582,12271060.943603516,13042886.734008789,14239901.542663574,12740618.705749512,24921079.635620117,20824239.73083496,15031414.031982422,5214730.262756348,-7594966.411590576,1099688.5299682617,4515360.8322143555,8236116.409301758,12350021.362304688,20460100.173950195,23556005.477905273,5188524.24621582,310470.43204307556,-13485006.332397461,-6615989.685058594,1414190.0539398193,-3456115.72265625,-5954949.855804443,3238684.1773986816,6702726.8409729,-3109768.3906555176,-15263040.542602539,-22309791.564941406,-23560426.712036133,-13559366.226196289,-13883678.436279297,-19103567.123413086,-19267480.850219727,-12183739.66217041,-7780726.432800293,-23636547.088623047,-29815925.59814453,-23385770.797729492,-23414894.104003906,-13728044.509887695,-14781859.397888184,4058700.5615234375,1133744.478225708,-17678901.67236328,-38281566.61987305,-38422969.818115234,-31816886.90185547,-32241321.563720703,-32660350.799560547,-18305793.76220703,-21242256.16455078,-32065303.802490234,-36081462.86010742,-32262481.689453125,-31961446.76208496,-32875503.540039062,-24802471.160888672,-27660894.3939209
0.23,3113947.868347168,10250086.784362793,-5558486.461639404,1179149.2700576782,5944184.78012085,-1121991.9919967651,244280.3829908371,1519364.833831787,47762.09965348244,14208784.103393555,9299954.414367676,4125524.9977111816,-4567748.546600342,-16355724.334716797,-8315013.885498047,-5882740.9744262695,-3359551.9065856934,-281180.9778213501,12536432.266235352,16126195.907592773,-2914110.8989715576,-6905406.951904297,-19579664.23034668,-14520639.419555664,-6166695.117950439,-10696548.461914062,-11511741.638183594,-345384.71698760986,3049562.2158050537,-7076169.490814209,-19541429.51965332,-25973136.90185547,-25930267.333984375,-17340791.702270508,-17587669.372558594,-20439144.134521484,-18050352.096557617,-11738628.387451172,-7934961.795806885,-24420593.26171875,-30905866.622924805,-25838455.200195312,-25665842.056274414,-17421525.955200195,-8827715.873718262,11352291.107177734,7932156.562805176,-12461518.287658691,-35199394.22607422,-38715801.23901367,-26653060.913085938,-26932226.181030273,-27331718.44482422,-6640292.644500732,-11757773.399353027,-25403480.529785156,-33048873.901367188,-26732471.466064453,-26482580.184936523,-25017650.604248047,-18996969.22302246,-25506870.26977539
0.235,-9952270.5078125,202586.0846042633,-11906587.600708008,-6484969.615936279,263191.8787956238,-9470500.946044922,-6469892.0249938965,-5695902.347564697,-6722960.948944092,6908895.492553711,2911477.0889282227,-513550.93717575073,-5444804.1915893555,-15057166.09954834,-14059814.453125,-11014918.327331543,-9297538.757324219,-6876795.291900635,7334714.889526367,11996035.5758667,-5996420.860290527,-6473415.374755859,-16264524.459838867,-18666868.209838867,-9620397.567749023,-12984209.060668945,-12985782.623291016,-2813011.646270752,1476215.8393859863,-6982063.293457031,-16775253.295898438,-21380186.080932617,-25295164.108276367,-17360755.920410156,-17495075.225830078,-20080169.677734375,-18321811.67602539,-10374966.621398926,-5137988.567352295,-19612741.470336914,-24561819.076538086,-25153800.96435547,-24945480.346679688,-17327976.22680664,-4559628.486633301,14105092.04864502,11304363.250732422,-6389212.131500244,-27491001.12915039,-31373703.002929688,-20796760.55908203,-21059539.794921875,-21327598.571777344,180562.16835975647,-3740146.3985443115,-16646293.640136719,-25416433.334350586,-20699138.641357422,-20649707.794189453,-17674707.412719727,-12598513.60321045,-19809251.78527832
0.24,-5573060.512542725,5508327.960968018,-4416998.863220215,-1185998.4397888184,6085887.432098389,-5759189.605712891,-2268530.6072235107,-2246614.694595337,-2567643.880844116,8786437.034606934,5674767.49420166,2753474.235534668,314417.60063171387,-7437385.082244873,-10586288.452148438,-6739858.627319336,-5158423.42376709,-2638767.4808502197,8826478.958129883,13733477.592468262,-2981538.0573272705,-911488.5926246643,-8940026.28326416,-14676212.310791016,-5489217.758178711,-8118099.212646484,-9092741.012573242,-2158571.481704712,2740547.1801757812,-4026962.7571105957,-11056807.518005371,-13982741.355895996,-19571662.90283203,-11847730.63659668,-11955545.425415039,-17707029.342651367,-19655660.62927246,-9687267.303466797,-2408687.114715576,-14521015.167236328,-17102003.09753418,-19370359.420776367,-19296203.61328125,-11832347.869873047,-3923568.9640045166,11073314.666748047,8722424.507141113,-4815780.162811279,-22250150.680541992,-23089818.954467773,-15264030.456542969,-15580468.17779541,-15751222.610473633,183427.05070972443,-2161970.1385498047,-11929140.090942383,-19059133.529663086,-15304037.094116211,-15282632.827758789,-13165258.407592773,-8247473.71673584,-13105985.641479492
0.245,5174919.605255127,14443787.574768066,4331953.048706055,7631508.350372314,12848178.86352539,1986841.6786193848,5217470.645904541,4832471.3706970215,5024181.842803955,14543397.903442383,10719244.003295898,6398378.849029541,4260034.084320068,-2122830.629348755,-3167957.305908203,338680.4759502411,2009627.5806427002,4858036.041259766,13103929.51965332,16666574.478149414,204994.46988105774,2286778.9268493652,-5425993.919372559,-7498748.779296875,889590.322971344,-1882739.1862869263,-4115239.6202087402,-157837.48030662537,4199897.766113281,-2565263.271331787,-8685431.480407715,-11125020.980834961,-13182878.494262695,-5964125.633239746,-6094584.4650268555,-15095571.517944336,-20752010.345458984,-10662684.440612793,-2640481.472015381,-13928927.421569824,-14727306.365966797,-13007517.81463623,-13059726.71508789,-5992483.615875244,-5941224.575042725,5680589.67590332,2427658.796310425,-8438317.29888916,-23217679.977416992,-20677570.343017578,-12284167.289733887,-12653445.24383545,-12896513.938903809,-4285439.491271973,-6511973.857879639,-13583549.499511719,-18362941.74194336,-12603717.803955078,-12344334.602355957,-13163708.686828613,-8497447.01385498,-10783822.059631348
0.25,7381628.99017334,14250619.888305664,3591238.9755249023,9258050.918579102,11103254.318237305,3949995.756149292,7265327.453613281,7003773.6892700195,7042352.676391602,15753178.596496582,10190211.296081543,4087307.929992676,1468338.966369629,-3937926.5308380127,-28982.47539997101,2597079.7538757324,4027896.4042663574,6801429.748535156,14257076.263427734,15975366.592407227,-1303212.6426696777,-614982.9626083374,-8458701.133728027,-4602685.451507568,2669637.2032165527,-546118.1998252869,-2915997.02835083,272069.0071582794,3616185.9035491943,-4852108.955383301,-11593860.626220703,-14391868.591308594,-12186343.1930542,-5493822.09777832,-5606991.767883301,-14477813.720703125,-20682014.46533203,-12444189.071655273,-5620947.83782959,-17842378.616333008,-18241899.490356445,-12021792.4118042,-12086038.589477539,-5455922.1267700195,-8505311.965942383,2444125.8907318115,-3107777.3571014404,-13904964.447021484,-28711526.87072754,-25432018.280029297,-14356720.924377441,-14781653.40423584,-15201913.833618164,-10074697.494506836,-13549902.91595459,-20113895.416259766,-23870916.36657715,-14876278.8772583,-14440849.304199219,-18561298.370361328,-14653636.932373047,-15989886.283874512
0.255,1079910.7551574707,6451920.509338379,-4464189.052581787,4616063.117980957,3738886.3563537598,991740.4055595398,4313720.703125,4287281.036376953,3708623.170852661,11857707.977294922,5367044.925689697,-1482108.473777771,-5089394.092559814,-10961384.773254395,-2155930.519104004,347082.7639102936,1251272.7975845337,3547364.2349243164,11959415.435791016,13184047.69897461,-5293031.215667725,-6286165.714263916,-15002017.974853516,-6916141.033172607,-173377.97582149506,-3590946.1975097656,-5788512.229919434,-980818.8676834106,2167263.0310058594,-8363986.968994141,-16498386.38305664,-19663953.78112793,-16183218.002319336,-9665936.470031738,-9769558.906555176,-16096837.997436523,-19415136.337280273,-13220706.939697266,-8453190.803527832,-22499252.319335938,-23950613.021850586,-15906639.099121094,-15973715.782165527,-9562976.837158203,-10212018.013000488,3513949.8710632324,-4419193.267822266,-17380887.985229492,-34063587.1887207,-32202632.904052734,-19733772.27783203,-20206214.904785156,-20729612.350463867,-13804847.717285156,-19111509.323120117,-27072193.145751953,-31230752.94494629,-20282642.364501953,-20027347.564697266,-25918739.318847656,-22562599.182128906,-23735309.600830078
0.26,-2917368.173599243,1707750.5588531494,-10336661.338806152,1735517.5018310547,89439.36228752136,-111614.71158266068,2209254.503250122,2091364.3836975098,1276284.3370437622,8918425.559997559,3116350.4123687744,-3588705.062866211,-9505934.715270996,-18088653.564453125,-4765229.70199585,-1481648.2067108154,-756223.0825424194,1165509.9391937256,10213702.201843262,12780371.66595459,-6622212.4099731445,-9555030.822753906,-20677595.138549805,-9922720.909118652,-2768568.0389404297,-6135035.514831543,-9369605.06439209,-1726398.4680175781,2173571.3481903076,-9373155.59387207,-19442403.79333496,-23077463.150024414,-19275650.024414062,-13102967.262268066,-13306701.66015625,-18029542.922973633,-17788105.010986328,-12362586.975097656,-8962268.829345703,-24432809.829711914,-27914058.685302734,-18900226.593017578,-19051940.91796875,-13088337.898254395,-10585583.686828613,7650309.5626831055,-1009717.1068191528,-17077228.546142578,-35365146.63696289,-34507186.88964844,-22550809.860229492,-22999835.968017578,-23477024.07836914,-12109195.709228516,-18958759.307861328,-29057678.22265625,-33931270.599365234,-22989833.83178711,-23087884.9029541,-28249053.955078125,-24287569.046020508,-25236923.217773438
0.265,-58457.16968178749,4413209.438323975,-9198531.150817871,3138683.795928955,2853355.1692962646,1732218.7423706055,2636474.609375,2232898.235321045,1942676.305770874,9659844.398498535,5257771.015167236,-1101372.9572296143,-9474954.605102539,-21049764.63317871,-5664921.760559082,-1534155.011177063,-235491.24598503113,1683467.3881530762,10445347.785949707,14821646.690368652,-4688160.8963012695,-8936120.03326416,-22689275.74157715,-11106153.48815918,-2913414.239883423,-6017015.9339904785,-11040687.561035156,-1318002.9392242432,3377758.502960205,-7536931.51473999,-19086046.21887207,-23776163.10119629,-18205190.658569336,-12943084.716796875,-13275862.693786621,-18204898.834228516,-16949230.194091797,-10896844.863891602,-7544073.104858398,-22638755.798339844,-28017034.53063965,-17944826.126098633,-18140399.932861328,-13014823.913574219,-9349446.296691895,11720817.565917969,4491926.670074463,-13364010.81085205,-31531887.05444336,-30527603.149414062,-19138055.8013916,-19512058.25805664,-19881038.665771484,-4658765.79284668,-11602144.241333008,-23501764.29748535,-28851549.14855957,-19438215.255737305,-19666551.58996582,-22214393.615722656,-16694808.959960938,-18373319.625854492
0.27,2716474.0562438965,8275571.823120117,-4798875.331878662,3514805.0785064697,5909626.007080078,874820.6496238708,1776047.3489761353,1376331.3293457031,1689668.7746047974,10166367.530822754,6801099.77722168,1017093.1816101074,-6785360.813140869,-18075330.73425293,-7532567.024230957,-2869446.277618408,-665653.645992279,1277032.3753356934,9857579.231262207,15007731.437683105,-3278597.354888916,-6095307.350158691,-19962228.775024414,-12447399.139404297,-3071591.1388397217,-5447024.345397949,-10795406.341552734,-1634478.9266586304,3645703.7925720215,-5307145.595550537,-16076290.130615234,-21745443.34411621,-15986962.31842041,-11237545.96710205,-11508196.830749512,-16294296.264648438,-17429317.474365234,-9861292.839050293,-5612927.9136657715,-18104593.27697754,-23920026.779174805,-15929734.230041504,-16000940.322875977,-11109200.477600098,-6854418.2777404785,13190910.339355469,8031299.591064453,-8159173.965454102,-24720485.68725586,-24270700.454711914,-12867570.877075195,-13243177.41394043,-13584135.055541992,3165196.657180786,-1536943.4356689453,-13886100.769042969,-19676046.37145996,-13132660.865783691,-13232902.526855469,-13257539.749145508,-6350386.619567871,-10412836.074829102
0.275,-1996258.25881958,6219047.546386719,-3329435.348510742,-1261078.3576965332,4063481.8077087402,-6262969.017028809,-2966194.6296691895,-2936761.6176605225,-2702375.4119873047,6807421.2074279785,4240264.892578125,-534274.160861969,-3831547.975540161,-10999760.627746582,-12554864.883422852,-7176259.0408325195,-4545351.505279541,-3018504.3811798096,6596872.806549072,11475989.34173584,-4356021.404266357,-2918713.5696411133,-13919126.510620117,-16122467.041015625,-5619074.34463501,-6626789.093017578,-9736196.517944336,-3744478.940963745,2426967.6208496094,-4291452.407836914,-12049015.998840332,-17294651.03149414,-17146335.60180664,-11111584.663391113,-11096273.422241211,-13850015.640258789,-18801183.700561523,-9296506.881713867,-3995831.9664001465,-13353076.934814453,-17969995.498657227,-17025236.129760742,-16935096.740722656,-10572725.296020508,-5179814.81552124,11657446.86126709,7005085.9451293945,-4561662.673950195,-19550432.205200195,-21612979.888916016,-11124335.289001465,-11606687.545776367,-12072857.856750488,3751049.518585205,2918472.7668762207,-8039718.6279296875,-14296273.231506348,-11497262.954711914,-11532218.933105469,-10854364.395141602,-3273510.456085205,-9710699.081420898
0.28,-11185844.421386719,-278904.67643737793,-6338356.494903564,-7443459.033966064,-134789.49666023254,-14771379.470825195,-8277053.8330078125,-7778142.45223999,-8098373.4130859375,2067713.0222320557,583516.7765617371,-3305462.36038208,-2098040.5807495117,-5460534.09576416,-17590982.43713379,-11196444.511413574,-9055993.08013916,-8224220.275878906,3199164.390563965,7828956.604003906,-5736565.113067627,-1059246.1824417114,-9357554.43572998,-20060214.99633789,-8738917.350769043,-8341501.235961914,-8538141.250610352,-5598999.0234375,1336210.012435913,-4184324.7413635254,-9706208.229064941,-13383745.193481445,-21429529.190063477,-12678274.154663086,-12420694.351196289,-12750430.1071167,-20249174.118041992,-9096680.641174316,-3339556.4556121826,-11730136.87133789,-15074663.162231445,-20959800.720214844,-20889959.33532715,-11955245.971679688,-6645384.311676025,8695010.1852417,2581020.8320617676,-5118210.315704346,-19945993.423461914,-24976018.90563965,-16914419.174194336,-17468568.801879883,-18139331.817626953,-4409621.715545654,-2152683.4964752197,-10891277.313232422,-17490280.151367188,-17451959.60998535,-17615056.99157715,-18049444.1986084,-10044358.253479004,-16862268.447875977
0.285,-15217995.643615723,-4031122.2076416016,-9934381.484985352,-8165908.8134765625,-894708.9910507202,-16239389.419555664,-8700338.363647461,-8045639.991760254,-8673392.295837402,997377.9320716858,477551.01323127747,-3309426.784515381,-2165827.0359039307,-5995925.9033203125,-17266349.79248047,-10452158.92791748,-9434508.323669434,-8867341.995239258,3222464.5614624023,8124494.552612305,-5081707.000732422,-1649356.9612503052,-10339503.288269043,-19883003.23486328,-8606830.596923828,-7855787.27722168,-7472775.936126709,-4699472.904205322,1444366.9319152832,-4414520.740509033,-10858456.6116333,-13811133.38470459,-24045515.060424805,-13466809.272766113,-13252200.12664795,-13363726.615905762,-21305133.819580078,-9599578.857421875,-4284260.272979736,-14388056.755065918,-17828981.399536133,-23402477.264404297,-23488252.639770508,-13006952.285766602,-10591376.304626465,6199106.216430664,-1508188.247680664,-9126618.385314941,-24861671.447753906,-30938312.530517578,-24798261.642456055,-25325721.740722656,-26091812.133789062,-13971666.33605957,-11356770.515441895,-18755781.173706055,-25671451.568603516,-25474172.592163086,-25701930.99975586,-27795803.07006836,-19256324.768066406,-24847368.240356445
0.29,-10319781.303405762,-1602734.088897705,-9654047.966003418,-2378808.4983825684,3133030.414581299,-9084376.335144043,-3463723.89793396,-2872471.332550049,-3402657.985687256,4678939.342498779,4166366.1003112793,143047.034740448,-2720601.3202667236,-9836894.989013672,-11080214.500427246,-5113790.988922119,-4956397.533416748,-3866353.0349731445,6760110.378265381,11907437.324523926,-2854689.359664917,-3119177.3414611816,-14239583.969116211,-14688991.54663086,-4457938.671112061,-4737825.393676758,-6776304.721832275,-1689915.8954620361,2219800.2338409424,-4560470.5810546875,-13271068.572998047,-17276542.66357422,-21514329.91027832,-11729670.524597168,-11744982.719421387,-14195387.840270996,-21717788.696289062,-10455620.765686035,-5957859.992980957,-17787250.518798828,-21916866.302490234,-21154048.919677734,-21313364.028930664,-11682045.936584473,-13373167.037963867,4964900.970458984,-2744315.8626556396,-12532852.172851562,-28350364.685058594,-33132499.69482422,-26707372.665405273,-27252027.51159668,-27902732.849121094,-16747406.005859375,-15891596.794128418,-22910026.55029297,-30020795.822143555,-27495347.97668457,-27532567.977905273,-31168094.635009766,-22214565.27709961,-26590242.385864258
0.295,-3070091.485977173,3150660.991668701,-5447938.442230225,3851013.422012329,8149499.893188477,-1040942.0728683472,2349409.341812134,2931819.438934326,2491744.5182800293,9731685.638427734,8446294.784545898,4826496.124267578,-1042338.0136489868,-9439157.485961914,-4909872.531890869,-243171.46837711334,105337.44841814041,1983284.7118377686,10912940.979003906,15826942.443847656,-643664.0024185181,-1754637.8374099731,-13984647.750854492,-8920766.830444336,225247.20430374146,-1549468.994140625,-6707476.1390686035,510984.6591949463,3234789.6099090576,-3654129.2667388916,-12363769.53125,-17524099.349975586,-15668823.2421875,-8407388.687133789,-8544171.333312988,-13605399.131774902,-21045068.740844727,-10118718.147277832,-5835477.828979492,-16916719.436645508,-20342372.89428711,-15644332.885742188,-15796551.704406738,-8510157.585144043,-12464151.382446289,5116935.729980469,-1454154.0145874023,-11815550.804138184,-25816293.716430664,-28434570.3125,-21049203.872680664,-21735008.239746094,-22213495.2545166,-12581984.519958496,-13195199.012756348,-19221000.67138672,-25632078.170776367,-21894687.65258789,-21703102.111816406,-27108781.814575195,-17842998.504638672,-21251817.70324707
0.3,-1094717.6218032837,4815381.5269470215,-1858701.3483047485,5144484.996795654,10234330.177307129,849809.4081878662,4076846.5995788574,4731832.027435303,4109337.80670166,12771027.565002441,10853646.278381348,8104319.5724487305,2783674.2401123047,-3347758.2931518555,-3399630.069732666,650498.3901977539,1778604.0306091309,3899115.0856018066,13241982.460021973,17862499.237060547,520080.1491737366,2724869.4896698,-8319927.215576172,-6631925.582885742,2295318.365097046,-568137.4073028564,-7438863.277435303,479838.19246292114,4620159.149169922,-1511124.4916915894,-7882586.0023498535,-12274085.04486084,-10761393.547058105,-5536467.552185059,-5570295.810699463,-11645653.72467041,-19112846.37451172,-7950850.963592529,-2960893.154144287,-11889733.31451416,-13019692.420959473,-10553454.399108887,-10838923.454284668,-5498730.659484863,-8825025.55847168,7333279.132843018,1427704.8110961914,-7671371.4599609375,-19435461.044311523,-20282043.45703125,-13447814.94140625,-14200736.999511719,-14697402.954101562,-7076777.458190918,-7695453.16696167,-11987936.973571777,-16462013.244628906,-14181786.53717041,-14020395.278930664,-21263719.55871582,-11371614.456176758,-13418354.988098145
0.305,-3467406.988143921,2784508.9435577393,-3039299.964904785,2777076.244354248,8734167.098999023,-777721.3454246521,2725425.958633423,3376642.7040100098,2356275.3200531006,12849951.74407959,10633234.977722168,8075193.405151367,4262097.8355407715,640856.683254242,-3571133.3751678467,-20327.894017100334,749178.8268089294,2371763.9446258545,13117109.298706055,17942192.07763672,-433327.70466804504,5028032.7796936035,-4706654.5486450195,-5893671.035766602,2862045.7649230957,-1064093.4705734253,-8764363.288879395,-692825.198173523,5466395.378112793,-272633.6121559143,-5449950.218200684,-7582820.415496826,-7967030.048370361,-3656254.529953003,-3516651.153564453,-9922070.503234863,-16924594.87915039,-5994251.728057861,-34073.23360443115,-8384411.811828613,-7650903.224945068,-7163441.181182861,-7752665.042877197,-3454966.3066864014,-4696622.371673584,11971120.834350586,5850069.046020508,-3828337.9077911377,-15203804.969787598,-14896579.74243164,-8648873.329162598,-9199759.483337402,-9895511.627197266,-2775393.009185791,-3265917.3011779785,-7491294.860839844,-10126009.941101074,-9090129.852294922,-9136186.599731445,-16947814.94140625,-6478021.144866943,-7318344.593048096
0.31,-4289578.437805176,239473.80483150482,-8055500.9841918945,1259869.933128357,5337399.005889893,771211.6837501526,2221091.2704467773,2781121.9692230225,1228088.37890625,10432059.288024902,7647735.118865967,4484011.173248291,355568.8261985779,-3200297.3556518555,42976.90838575363,1780261.9934082031,223551.13923549652,1071343.183517456,10950862.884521484,16236677.169799805,-4055454.730987549,1341695.5471038818,-8385122.299194336,-2357588.291168213,4765224.933624268,-781084.4779014587,-9780742.645263672,-1802437.424659729,4193865.7760620117,-2036518.5737609863,-8712127.685546875,-9205398.559570312,-5249372.0054626465,-1929944.1576004028,-1733785.3908538818,-9745149.612426758,-16141481.399536133,-6798042.774200439,-166969.10560131073,-10079678.535461426,-9191986.083984375,-4130024.4331359863,-4911308.288574219,-1703896.6417312622,-1239279.7470092773,16896400.451660156,10647363.662719727,-2658513.5459899902,-15398334.503173828,-14571208.953857422,-5635862.350463867,-5886434.078216553,-6685070.514678955,2249723.6728668213,476595.81899642944,-6695992.946624756,-9329622.268676758,-5826683.99810791,-5932593.34564209,-12121014.595031738,-2309232.9502105713,-3202706.813812256
0.315,-3332296.133041382,-1411544.4421768188,-12084300.04119873,1223390.6984329224,2063087.7017974854,3961394.786834717,2874486.207962036,3397962.0933532715,1386926.4125823975,6690422.058105469,3145652.5325775146,-4704.788792878389,-4663239.002227783,-8862090.110778809,5185723.781585693,4583713.531494141,690471.5299606323,921240.0317192078,8092599.868774414,13450997.352600098,-7982477.66494751,-3807091.9513702393,-13286558.151245117,2307233.8104248047,7109153.747558594,340738.445520401,-9495220.184326172,-2779942.035675049,1533583.641052246,-4953255.653381348,-12970696.449279785,-13322324.752807617,-2507031.202316284,-686616.8975830078,-588571.1312294006,-10912275.314331055,-17164962.768554688,-9696465.492248535,-2333842.7543640137,-13535730.361938477,-12896972.65625,-1707128.7631988525,-2354722.9766845703,-526313.066482544,459855.46708106995,18246759.41467285,12453568.458557129,-3229440.689086914,-16682298.66027832,-16119581.22253418,-2374013.1855010986,-2566078.4244537354,-3227329.0157318115,7569199.085235596,4018118.381500244,-6441790.1039123535,-10537137.985229492,-2563897.6097106934,-2506793.0221557617,-5831050.395965576,2074626.9226074219,403254.03213500977
0.32,-6023936.748504639,-3888494.4915771484,-12394128.799438477,-283103.346824646,164688.18485736847,1105771.6608047485,1626596.5700149536,2196752.3097991943,220441.2817955017,3957749.843597412,270307.86871910095,-1526469.2306518555,-4202884.197235107,-7069460.868835449,3925113.2011413574,3388120.174407959,-57252.52628326416,-239151.29899978638,6883564.9490356445,11894942.283630371,-8088061.332702637,-3012403.0113220215,-10492308.616638184,1568493.9622879028,6154140.472412109,40790.65844416618,-8076687.812805176,-3238993.8831329346,825955.6293487549,-4724132.537841797,-11210558.891296387,-11877766.609191895,-2740277.2903442383,-1554232.3589324951,-1642485.6185913086,-12206223.487854004,-18347309.112548828,-11218058.586120605,-2545578.718185425,-13237631.797790527,-11540790.557861328,-2497359.51423645,-2816839.9333953857,-1496027.8272628784,-1104973.0777740479,14874108.31451416,9647333.145141602,-3388491.630554199,-15560378.074645996,-15589647.29309082,-695098.9961624146,-1097341.4182662964,-1583839.2972946167,8772069.931030273,5364329.814910889,-5068449.4972229,-9808119.773864746,-1024872.7798461914,-836139.6193504333,-2043691.873550415,4736203.193664551,3059791.088104248
0.325,-11610723.495483398,-7269812.107086182,-11235157.012939453,-2564629.7931671143,-154876.9325017929,-5705842.018127441,-706863.284111023,-134164.9293899536,-1602661.0136032104,4801885.12802124,1346228.4803390503,663815.0811195374,481759.27996635437,-369718.3132171631,-3130668.6401367188,-660615.6229972839,-1337440.6099319458,-1761564.9700164795,8946438.789367676,13717826.843261719,-3856306.314468384,2810165.6436920166,-2821019.411087036,-4291185.8558654785,2598588.466644287,-1928020.1196670532,-6761205.196380615,-2010057.4493408203,3669589.9963378906,-768735.408782959,-4711636.543273926,-5182503.700256348,-6056493.759155273,-3987023.115158081,-4269215.5838012695,-12597906.112670898,-17902166.36657715,-9711215.97290039,390082.8957557678,-9508845.329284668,-6135272.50289917,-6073410.0341796875,-6129139.9002075195,-4088611.602783203,-5143128.395080566,10355631.828308105,5872910.976409912,-2443834.5432281494,-12825740.814208984,-12572576.522827148,-2481000.4234313965,-3074435.4724884033,-3586207.866668701,4687087.535858154,3759665.4891967773,-3619140.386581421,-7009101.867675781,-2835603.2371520996,-2736583.709716797,-3867080.2116394043,4194953.918457031,3262409.9254608154
0.33,-9481326.10321045,-7162765.5029296875,-11459247.589111328,416697.05510139465,864079.8926353455,-1805229.5446395874,2270950.3173828125,2755484.3425750732,1449974.1792678833,9585149.765014648,5251063.823699951,3453766.5843963623,1250225.9016036987,-634501.9936561584,-3276954.6508789062,1171522.855758667,1778501.6298294067,1455890.2978897095,13203701.01928711,18007284.16442871,94175.25678873062,5025597.57232666,-2241448.402404785,-4752818.1076049805,3222350.835800171,-1885767.4598693848,-6094322.204589844,625602.4837493896,7188166.618347168,2321895.122528076,-1925548.3150482178,-2084962.3680114746,-6937778.949737549,-4236191.272735596,-4633023.738861084,-11940101.623535156,-16230451.583862305,-7558988.094329834,3032336.950302124,-7732557.29675293,-4281241.416931152,-6906304.836273193,-6846998.21472168,-4527142.04788208,-7871630.1918029785,8514249.801635742,5884145.259857178,-1499729.5141220093,-11666646.003723145,-9702400.207519531,-4813330.173492432,-5419612.884521484,-6080659.38949585,263586.1933231354,1650406.7182540894,-3103311.30027771,-4512842.655181885,-5082787.036895752,-5186235.9046936035,-8322351.455688477,2237150.4306793213,1628388.4048461914
0.335,6809350.967407227,241632.29763507843,-11618909.83581543,11499495.506286621,3221226.215362549,19977264.404296875,13573908.805847168,13987318.992614746,11857658.386230469,15584955.215454102,8943219.184875488,4225522.041320801,-5086293.697357178,-11640182.495117188,11520881.652832031,13307407.37915039,11470622.062683105,11686210.632324219,16711936.950683594,21402214.05029297,-189289.4059419632,-375743.7467575073,-12750164.031982422,7233335.971832275,12010786.056518555,3098284.0061187744,-5157853.126525879,1962263.4649276733,7649915.2183532715,986921.0124015808,-6720353.603363037,-7207407.474517822,-1423345.685005188,24622.52229452133,-340894.9673175812,-10789272.30834961,-15269200.325012207,-7669277.667999268,2173496.961593628,-10617341.995239258,-9257452.011108398,-1376352.9062271118,-1300847.6495742798,-381906.56900405884,-6875366.687774658,8739682.1975708,8864957.809448242,-1871986.985206604,-13549562.454223633,-9749444.961547852,-3922000.6465911865,-4488415.241241455,-5194830.894470215,-729147.0766067505,530298.4118461609,-3788209.1999053955,-4455982.208251953,-4237201.21383667,-4465113.639831543,-10817440.9866333,900248.2295036316,447010.1594924927
0.34,27347972.869873047,11572690.0100708,-8611795.425415039,23870746.612548828,6441797.256469727,45016315.46020508,26056276.321411133,26478790.283203125,23123077.392578125,19086881.637573242,10658340.454101562,3603956.699371338,-12294672.012329102,-23530727.38647461,30851242.065429688,27511716.842651367,21873882.293701172,22704801.559448242,17578786.849975586,21766132.354736328,-3199131.727218628,-7513473.033905029,-24689331.0546875,23361562.728881836,23132638.931274414,10211567.878723145,-3251443.862915039,-40525.60031414032,5332861.90032959,-2677331.9244384766,-13589136.123657227,-14947493.553161621,6010370.73135376,5840816.974639893,5616156.578063965,-9639598.846435547,-15553524.017333984,-9480384.826660156,-893331.4681053162,-15189031.600952148,-16303133.010864258,5905069.351196289,5918525.218963623,5430962.085723877,-4025429.7256469727,8614429.473876953,10122485.160827637,-3543523.073196411,-17336612.701416016,-13771645.545959473,-1569586.5154266357,-2147562.7422332764,-2785248.5179901123,-554714.4412994385,-1225402.3551940918,-6283102.989196777,-7692121.505737305,-2102748.6324310303,-2353410.7208251953,-11486930.847167969,-630894.660949707,194622.42722511292
0.345,35698978.424072266,18232706.06994629,-4166457.176208496,27877744.674682617,8253071.7849731445,53099243.1640625,29822496.41418457,30257413.864135742,26362995.147705078,18183240.89050293,10143198.013305664,2658695.2209472656,-14588156.700134277,-27414548.873901367,37807708.740234375,32289962.768554688,25017747.87902832,25950683.59375,16230283.737182617,19890480.041503906,-5295920.848846436,-10063507.080078125,-28830194.4732666,29516223.907470703,27556119.918823242,13755514.144897461,-1382391.2143707275,-3669041.156768799,3484836.3399505615,-4680219.650268555,-16321540.832519531,-18468309.40246582,7960216.999053955,8561389.923095703,8458375.930786133,-8312869.071960449,-15289792.06085205,-10272227.28729248,-2656115.2935028076,-17736425.399780273,-20062026.977539062,7698248.863220215,7595401.287078857,8194667.816162109,-1756963.0146026611,9378061.294555664,9146134.376525879,-4880403.0418396,-20878936.767578125,-20265089.03503418,-1970522.6421356201,-2519382.7152252197,-3152688.980102539,-1285244.8225021362,-3536323.308944702,-10132784.843444824,-13020792.007446289,-2614250.421524048,-2864331.9606781006,-12537697.792053223,-3139150.1426696777,-665926.3968467712
0.35,28388618.46923828,15529894.828796387,-4315676.689147949,22518085.479736328,5780253.887176514,43453922.271728516,24336620.330810547,24731805.8013916,21067218.780517578,13760416.030883789,7194143.295288086,232125.32699108124,-14628598.2131958,-26598411.560058594,30600034.713745117,27254259.10949707,20483047.485351562,20842435.836791992,13943233.489990234,17491525.650024414,-6219134.330749512,-9790081.977844238,-27786251.068115234,23942096.710205078,24383615.493774414,12275647.163391113,-1019952.8932571411,-5450354.099273682,3437832.832336426,-4809224.605560303,-15948483.46710205,-18539478.302001953,4413998.126983643,7795589.447021484,7706617.832183838,-6483411.78894043,-13177382.469177246,-9386869.430541992,-2219229.221343994,-18192237.854003906,-20709041.595458984,4134657.859802246,3951856.851577759,7462448.596954346,678474.2474555969,14031205.177307129,10449531.555175781,-4228551.387786865,-22451864.24255371,-25547752.380371094,-4233828.067779541,-4649353.981018066,-5375264.644622803,369606.70351982117,-2433523.416519165,-12441432.95288086,-17167770.385742188,-4700230.598449707,-4941326.61819458,-12528613.090515137,-4293843.746185303,-2316587.6865386963
0.355,16941583.63342285,7559725.284576416,-10883621.215820312,15555491.44744873,-563102.0069122314,32288455.963134766,17848350.524902344,18207540.51208496,14746137.619018555,8680559.158325195,2537777.6622772217,-4265793.800354004,-17012815.475463867,-27871025.08544922,22068542.48046875,21509258.270263672,14887667.655944824,14566496.849060059,11483247.756958008,15265439.987182617,-7885211.944580078,-11234954.833984375,-28222951.889038086,17126207.35168457,20192171.096801758,9509505.271911621,-2022648.572921753,-4744252.681732178,3489147.424697876,-5404576.301574707,-16489810.943603516,-19377014.16015625,1478956.937789917,6501092.910766602,6351937.294006348,-4830769.5388793945,-10939852.714538574,-8885076.522827148,-1674047.7085113525,-18277421.951293945,-20894178.39050293,1296951.413154602,1122258.0671310425,6208770.275115967,3958177.8049468994,20178445.81604004,14970777.51159668,-2239649.772644043,-21935279.846191406,-26704904.556274414,-4236753.940582275,-4537858.963012695,-5286872.386932373,6233120.441436768,2950203.4187316895,-11392424.583435059,-17846313.4765625,-4435798.168182373,-4637185.573577881,-9247219.08569336,-2472339.868545532,-3096918.1060791016
0.36,12185340.881347656,2483709.0969085693,-17066347.122192383,13476956.367492676,-5544532.775878906,29749042.510986328,16339342.11730957,16670894.622802734,13143174.171447754,6284590.721130371,-470584.12432670593,-7470090.389251709,-19224378.58581543,-29351434.7076416,20457052.23083496,20442039.489746094,13102089.881896973,12755791.664123535,9703186.03515625,13705230.712890625,-9515134.811401367,-12927529.335021973,-28958486.557006836,15781559.944152832,18951417.922973633,8625997.543334961,-2885306.3583374023,-4049699.7833251953,2526336.193084717,-6384506.702423096,-17275327.682495117,-20489973.068237305,1356609.1060638428,5744055.271148682,5554112.911224365,-4662728.309631348,-11282014.846801758,-10081383.70513916,-2390296.220779419,-18130191.802978516,-20644542.694091797,1326777.2197723389,1163047.0752716064,5518943.309783936,5002343.17779541,20680217.742919922,16818981.170654297,-1672902.226448059,-21211938.858032227,-24683031.08215332,-2724966.287612915,-3046292.304992676,-3661526.2031555176,10054305.076599121,5905715.465545654,-10042250.633239746,-16839305.877685547,-2830876.111984253,-3001688.4803771973,-6034904.479980469,-1178930.401802063,-2822288.0363464355
0.365,14659707.069396973,4807183.265686035,-14832032.203674316,16120281.219482422,-3633354.425430298,32248180.389404297,18759201.049804688,18921636.5814209,15596076.965332031,8522089.004516602,1898690.7005310059,-5115939.140319824,-15780652.046203613,-25180809.020996094,22144002.91442871,21757215.49987793,14610246.658325195,15003011.703491211,10112849.235534668,14173017.501831055,-8212819.0994262695,-10166445.7321167,-24757585.525512695,16798559.188842773,18864849.090576172,9094912.5289917,-2688329.6966552734,-4664390.563964844,1986430.048942566,-5452583.789825439,-14816091.537475586,-18358854.293823242,532606.2440872192,4338621.139526367,4184904.5753479004,-5946670.5322265625,-13831707.954406738,-11657278.060913086,-3300179.0046691895,-16993803.024291992,-18509895.32470703,683614.7904396057,437790.3342247009,4175980.567932129,1285876.8701553345,13608181.953430176,12300039.291381836,-3970523.5958099365,-22160001.754760742,-22896146.774291992,-4429518.699645996,-4841462.135314941,-5282006.26373291,5493719.100952148,753746.3903427124,-12582635.879516602,-17589389.80102539,-4570868.015289307,-4773798.46572876,-8338841.438293457,-4633949.279785156,-3392810.106277466
0.37,20552619.93408203,12691578.86505127,-5109973.907470703,20760019.302368164,4774950.981140137,36169448.85253906,22607097.625732422,22375860.2142334,19584693.908691406,14278347.969055176,8978367.805480957,1940656.065940857,-8379928.5888671875,-17590976.71508789,23579183.57849121,23602693.557739258,17873826.98059082,19081502.91442871,13428686.141967773,17566879.272460938,-4078316.2117004395,-3955502.2716522217,-17649814.60571289,17400863.647460938,18885030.74645996,9715123.176574707,-1784031.7487716675,-4566117.763519287,3371854.305267334,-2613357.3055267334,-9959606.170654297,-13716065.406799316,-1795488.8343811035,3028978.8246154785,2973983.2878112793,-6837031.841278076,-15169280.052185059,-11882914.543151855,-2945146.7990875244,-15439241.409301758,-15392628.66973877,-1496777.2960662842,-1864622.1160888672,2879559.7553253174,-3320351.1238098145,6495545.864105225,7058956.623077393,-6843265.533447266,-23772006.98852539,-22485227.584838867,-8772651.672363281,-9244213.104248047,-9594575.881958008,-2520982.027053833,-7219340.3244018555,-17234434.127807617,-19692680.35888672,-8874600.410461426,-9136810.302734375,-14309603.691101074,-10146083.83178711,-4894237.995147705
0.375,27654979.705810547,20600559.23461914,3213362.216949463,25583539.962768555,13129936.218261719,43558712.005615234,27190477.37121582,26556997.299194336,23912809.371948242,19522758.48388672,15254670.143127441,7861291.885375977,-4275520.801544189,-14391708.374023438,27464141.845703125,27491033.55407715,22337745.666503906,23753711.700439453,17733011.24572754,22261865.615844727,-772081.0770988464,-302540.1830673218,-14887329.1015625,20283107.75756836,21023092.26989746,10704371.452331543,-890394.5684432983,-1905946.4931488037,5863389.492034912,-577054.1429519653,-7313742.637634277,-10964230.53741455,-1254454.0166854858,4175808.906555176,4204504.489898682,-6193339.3478393555,-13520569.801330566,-11005612.37335205,-1312702.8942108154,-14514188.766479492,-13613334.655761719,-929401.5765190125,-1323623.6572265625,3972103.1188964844,-2807872.2953796387,6631903.648376465,8369306.564331055,-6854647.159576416,-22971500.396728516,-21209800.720214844,-9086428.64227295,-9602393.15032959,-9941879.272460938,-3349667.3107147217,-7821914.196014404,-17687713.623046875,-19091629.028320312,-9085788.72680664,-9357123.374938965,-15894302.368164062,-10670147.895812988,-4396539.211273193
0.38,32792301.177978516,23724729.537963867,4153613.0905151367,28169740.676879883,15472023.010253906,51333511.35253906,30236614.227294922,29529249.19128418,26438060.760498047,20490581.512451172,16135251.998901367,8574688.911437988,-5291821.9566345215,-16138860.702514648,33211006.16455078,31669458.389282227,25391208.64868164,26536205.291748047,19688127.517700195,25024904.251098633,-232761.07013225555,-1002360.1055145264,-16870338.439941406,25181482.315063477,24439954.75769043,11382715.225219727,-449545.11523246765,1524174.5710372925,7723123.073577881,-262437.4032020569,-7927340.030670166,-10896690.368652344,3285290.479660034,6796043.395996094,6799510.955810547,-5475702.76260376,-11353076.934814453,-10325612.06817627,834328.5918235779,-13667525.291442871,-13130854.606628418,3507738.8286590576,3222914.695739746,6479166.507720947,1745551.2285232544,11078391.075134277,13802447.319030762,-4014525.890350342,-19139869.689941406,-17881147.384643555,-3387170.7916259766,-3952744.245529175,-4336227.4169921875,3504997.968673706,-697543.6210632324,-12480402.946472168,-14674745.559692383,-3402698.9936828613,-3634910.5834960938,-10716048.240661621,-5342627.048492432,-816160.4404449463
0.385,31327325.82092285,21607847.213745117,1123370.2898025513,25852603.912353516,12570181.846618652,49064716.33911133,27810533.52355957,27417274.475097656,24151193.618774414,17407312.393188477,12981766.700744629,6089722.633361816,-5297171.115875244,-14672634.12475586,32629211.42578125,30040449.142456055,23090349.197387695,24170301.43737793,18155572.89123535,24350650.787353516,-181675.35960674286,-1084846.9734191895,-15675288.200378418,24991453.170776367,23819913.864135742,9374265.670776367,-683228.4927368164,2485280.0369262695,8611353.874206543,553517.5800323486,-7574346.542358398,-9171558.380126953,5781764.030456543,6561219.215393066,6437462.80670166,-6537775.993347168,-11794268.608093262,-10120397.567749023,2945553.5411834717,-11516283.03527832,-11490518.569946289,5863572.597503662,5738092.422485352,6134894.371032715,3314367.2943115234,11600517.272949219,14593301.773071289,-1821799.874305725,-15642687.797546387,-14965806.96105957,1261052.6084899902,736189.7230148315,218552.29139328003,7431986.8087768555,4034470.0813293457,-7802987.575531006,-10813736.915588379,1113808.035850525,904965.9371376038,-5966110.706329346,-1434768.1999206543,2100861.7877960205
0.39,24033250.80871582,18448997.497558594,1268745.8992004395,20155517.578125,10387091.636657715,34967277.52685547,20758293.15185547,20783584.594726562,18189798.35510254,14233694.076538086,10935790.061950684,5104766.845703125,19481.662660837173,-5814575.1953125,22502380.37109375,21821573.25744629,16449907.302856445,17905204.77294922,15490193.367004395,21885129.928588867,1654853.9400100708,3125090.1222229004,-7329961.776733398,16691087.72277832,17421155.92956543,4610884.666442871,-1343678.1167984009,833784.8782539368,9096641.540527344,2914376.2588500977,-3539483.3087921143,-3314681.053161621,1977002.9783248901,2467056.0359954834,2273904.323577881,-8345165.252685547,-14034919.738769531,-9758555.41229248,4314728.736877441,-8325178.146362305,-7705605.983734131,1977956.771850586,1953297.49584198,2043094.6350097656,-308703.750371933,7021591.1865234375,9112091.064453125,-2447110.176086426,-15252266.883850098,-14867301.940917969,-807163.7153625488,-1141058.9218139648,-1851140.3799057007,2948766.2315368652,881839.0965461731,-8499705.31463623,-11076721.19140625,-980251.3122558594,-1188446.7601776123,-7388417.720794678,-3640526.294708252,820608.7350845337
0.395,18344179.153442383,18380413.055419922,6037313.938140869,16525646.209716797,12650029.182434082,22788948.05908203,15831315.040588379,16101003.646850586,14263167.381286621,13880746.841430664,12327773.094177246,6963060.8558654785,6727061.2716674805,4131022.9301452637,12762228.012084961,15346935.272216797,12097383.499145508,13763015.747070312,14328174.591064453,19982179.641723633,3649578.57131958,8401599.884033203,1864678.2636642456,8720156.6696167,11541959.762573242,1209616.0650253296,-1535157.2036743164,-568592.4291610718,8920412.063598633,4244164.46685791,1176025.2714157104,3127147.1977233887,-3089369.058609009,-590950.9062767029,-648576.6768455505,-8016438.4841918945,-14581270.217895508,-9113978.385925293,4087348.461151123,-5862857.341766357,-3777168.9891815186,-3064415.216445923,-3100929.4986724854,-867184.2217445374,-3115727.186203003,4273931.503295898,5439731.121063232,-3858746.290206909,-15882185.935974121,-15815070.152282715,-4972853.183746338,-5111620.4261779785,-5909912.109375,-2215772.3903656006,-3192059.04006958,-10715749.740600586,-12564689.636230469,-4992878.437042236,-5160748.9585876465,-10470251.083374023,-6837461.471557617,-2046031.2366485596
0.4,18661041.259765625,20508476.25732422,10170371.055603027,17351959.228515625,16559677.124023438,24213130.950927734,17086868.286132812,17424663.543701172,15396187.782287598,14856453.895568848,14224843.02520752,8660884.857177734,8626461.029052734,7359220.504760742,13983459.47265625,17347774.505615234,13834061.622619629,14933361.053466797,14314505.577087402,19011615.753173828,2886250.0190734863,9632484.436035156,4399692.535400391,10341391.563415527,12616387.367248535,2532459.259033203,-650274.2767333984,-86877.77817249298,7524849.891662598,2375204.8015594482,2481107.234954834,5489505.767822266,-1786197.6623535156,1714327.6929855347,1904587.984085083,-5056302.547454834,-12372212.409973145,-8484975.814819336,2617519.8554992676,-4920955.657958984,-1865024.3282318115,-1647207.8561782837,-1783886.5518569946,1596184.1344833374,-195841.75944328308,7441182.613372803,9203413.963317871,-2932558.298110962,-13520600.318908691,-14222997.665405273,-3205444.812774658,-3354613.3041381836,-4034483.4327697754,713729.739189148,184774.7564315796,-7712074.279785156,-10040650.367736816,-3127946.376800537,-3202861.3090515137,-7575023.651123047,-3650689.125061035,-758033.9908599854
0.405,21546718.59741211,21134939.193725586,9248600.959777832,19614534.378051758,17071632.385253906,34053047.18017578,21205781.936645508,21573427.200317383,18575325.01220703,14438251.495361328,13259582.51953125,7502587.795257568,5159177.780151367,3777497.7684020996,23509706.497192383,24332876.205444336,18238306.045532227,18301012.03918457,13860235.214233398,18439598.083496094,37007.47340917587,6799979.686737061,922242.6414489746,19306779.861450195,19086612.701416016,6782802.581787109,772691.3094520569,1205721.378326416,6063598.6328125,-341909.3191623688,786945.2834129333,3911963.2244110107,5759794.235229492,7625528.335571289,7921646.1181640625,-2216303.1101226807,-9854288.101196289,-7420650.959014893,1919439.3157958984,-4536775.588989258,-1707898.0207443237,6005400.657653809,5782968.997955322,7513260.364532471,5386909.484863281,12231989.860534668,15871014.595031738,206803.99239063263,-8355002.403259277,-9900361.061096191,4389872.074127197,4017348.289489746,3542670.249938965,8962546.348571777,8315014.839172363,-143856.77874088287,-3781585.216522217,4295730.113983154,4294028.759002686,395984.6794605255,4572635.173797607,5322579.383850098
0.41,23920135.498046875,20369029.998779297,5315449.7146606445,21230270.385742188,14127937.316894531,41138504.02832031,24196813.583374023,24582124.710083008,20831064.224243164,13791175.842285156,10967240.333557129,5076100.3494262695,457458.2278728485,-1822443.2468414307,31510227.20336914,29255439.75830078,21207862.854003906,20706253.051757812,13966338.157653809,19361152.64892578,-1031424.5223999023,3961846.351623535,-3229873.8956451416,26724287.033081055,25005527.49633789,10041347.50366211,1829331.874847412,2417586.8034362793,6970856.189727783,198957.72635936737,-579599.3804931641,1910426.0206222534,12911426.544189453,12553758.62121582,12745217.323303223,-1615466.594696045,-8788427.352905273,-5062679.767608643,3538262.8440856934,-3844879.388809204,-1752210.9746932983,13130919.456481934,12924400.329589844,12323681.831359863,8184251.78527832,13268890.380859375,18471439.361572266,2655680.1795959473,-5052143.096923828,-6333505.630493164,10431436.538696289,9818898.20098877,9445518.493652344,13621661.186218262,11778342.247009277,4378681.182861328,408692.3897266388,10029601.097106934,10036607.74230957,5273396.015167236,9370815.27709961,10185162.544250488
0.415,29140525.817871094,22477037.42980957,3793224.573135376,24768806.45751953,12960893.630981445,45237037.658691406,27518968.58215332,27847856.521606445,23973489.76135254,16724218.368530273,12015955.924987793,5500357.627868652,-2320385.456085205,-6674140.453338623,35301441.19262695,31563491.821289062,23977920.532226562,23863533.02001953,17262468.338012695,23494043.350219727,1737609.2672348022,3525563.0016326904,-6080001.8310546875,29764478.68347168,28221824.645996094,11589661.598205566,2497209.072113037,4447067.737579346,10829438.209533691,4159993.6485290527,-299571.54393196106,1326977.7297973633,15701629.638671875,14921384.811401367,15028712.272644043,-2156049.4899749756,-7833571.910858154,-1826279.9978256226,6490177.154541016,-3141093.2540893555,-1404224.157333374,15777172.088623047,15633208.274841309,14606449.127197266,8139963.150024414,11610812.187194824,17525632.858276367,2889125.5855560303,-6481989.860534668,-5965819.835662842,10597303.39050293,9894466.400146484,9507048.606872559,12607944.48852539,7908630.847930908,1655582.9048156738,-1071395.754814148,10073797.225952148,10076441.764831543,2997311.83052063,6576279.163360596,8958539.009094238
0.42,38740398.40698242,28192964.553833008,6413394.451141357,31164958.953857422,16548105.239868164,51891937.255859375,32837783.813476562,33081493.377685547,29307594.299316406,22939615.24963379,17234272.003173828,9875321.388244629,-2714313.9839172363,-10036616.325378418,38592117.30957031,34428798.67553711,28335054.397583008,29091798.782348633,22766876.220703125,29232641.220092773,5890965.938568115,4451586.2464904785,-8773631.09588623,31762798.309326172,30136478.424072266,12995309.829711914,3074424.982070923,7333383.560180664,14803049.087524414,7479289.0548706055,273504.94265556335,1295493.1259155273,15561817.169189453,15741050.720214844,15972676.277160645,-2004452.9438018799,-5675999.164581299,383373.82674217224,8305311.20300293,-2860858.44039917,-1231963.5152816772,15571116.44744873,15391710.28137207,15377019.882202148,8417555.809020996,11408314.70489502,18146358.489990234,2381283.760070801,-9940114.974975586,-7686205.863952637,7662909.030914307,7012613.773345947,6638445.3773498535,11288790.702819824,3482152.9388427734,-3755417.3469543457,-5290941.7152404785,7303947.925567627,7337233.066558838,-1847699.9998092651,1149165.2727127075,4133223.056793213
0.425,44923278.80859375,31417152.404785156,9267162.322998047,35050231.93359375,20726675.033569336,57633686.06567383,36036262.51220703,36309696.197509766,32541584.014892578,26479759.216308594,21303075.790405273,13986371.994018555,-1447012.7820968628,-10422562.599182129,40887756.34765625,36600299.83520508,30853553.771972656,32172115.325927734,25202228.546142578,31571405.4107666,7314488.887786865,4907814.979553223,-10632266.998291016,33085617.065429688,30474452.97241211,13948162.078857422,3006855.7262420654,8589698.791503906,15384573.936462402,7046470.165252686,-3670.2596116811037,866969.645023346,14477109.909057617,15124410.629272461,15529531.478881836,-1614967.942237854,-4035786.1518859863,154696.88177108765,7705755.710601807,-2991206.645965576,-1867158.4129333496,14627912.521362305,14307357.788085938,14577887.535095215,8997111.320495605,12744453.430175781,20731445.3125,2651647.5677490234,-11290919.303894043,-9418626.78527832,5770956.039428711,5198545.932769775,4913659.09576416,12621122.360229492,4223687.648773193,-5260433.673858643,-7354234.218597412,5623709.201812744,5684084.415435791,-3430486.2022399902,-382308.9301586151,1670444.369316101
0.43,39881877.89916992,27123208.99963379,7970246.315002441,31703956.604003906,19413520.81298828,53765274.04785156,32747825.622558594,33186431.884765625,29464797.973632812,23283113.479614258,19224527.35900879,12904752.731323242,2285.345457494259,-7373867.511749268,37715148.92578125,34356502.532958984,27756404.876708984,29003583.908081055,21735065.460205078,27918848.037719727,4810760.974884033,4282017.230987549,-9585824.012756348,30438819.885253906,27827800.750732422,12807528.495788574,1796328.7830352783,6592240.810394287,12385383.605957031,3970193.62449646,-941900.4917144775,262130.61809539795,12570141.792297363,12737023.35357666,13080021.858215332,-2354465.4846191406,-5124695.301055908,-1844310.5220794678,5444194.793701172,-3822285.4137420654,-3369692.802429199,12914517.402648926,12524738.311767578,11862021.446228027,7361019.134521484,12231197.357177734,20513694.763183594,2584355.115890503,-10689849.853515625,-10977468.490600586,5375741.958618164,4813559.532165527,4557337.760925293,13336397.171020508,7235566.61605835,-2898164.2723083496,-6636944.29397583,5220681.190490723,5254116.535186768,-2099839.687347412,1625330.3289413452,2936806.2019348145
0.435,28528068.54248047,18983303.07006836,2876035.451889038,25030368.80493164,12790224.075317383,42444347.3815918,26505332.946777344,27072254.180908203,23517728.805541992,17168401.71813965,12961634.635925293,7044209.003448486,-388989.8955821991,-4022008.8958740234,30441461.56311035,29412158.966064453,22343021.392822266,23113994.598388672,16636806.48803711,22142755.50842285,1039601.3259887695,2887721.300125122,-6525179.862976074,24734394.073486328,24099582.67211914,10495915.412902832,736177.8616905212,4035641.670227051,9142333.984375,1429481.5063476562,-2165750.503540039,-142842.41199493408,10453462.600708008,10243545.532226562,10301729.202270508,-3514535.903930664,-7549354.553222656,-3616794.8246002197,3049356.9374084473,-5728890.419006348,-5052472.114562988,10790442.46673584,10502883.911132812,9164140.701293945,3939572.811126709,9219923.973083496,15783238.410949707,330547.3327636719,-11465284.34753418,-13075569.152832031,4705029.010772705,4099009.5138549805,3693257.3318481445,10346001.625061035,6238743.782043457,-2122637.0334625244,-6307360.1722717285,4348140.716552734,4349734.783172607,-2196724.8916625977,1827420.3538894653,3792030.5728912354
0.44,23183319.091796875,14798863.410949707,-1810606.1220169067,22758844.37561035,7024281.978607178,36538898.46801758,24782907.485961914,25288225.173950195,21792057.037353516,14912189.483642578,8946148.872375488,1842903.733253479,-2855747.699737549,-3786697.8645324707,26989009.857177734,27916641.235351562,21312980.65185547,21567939.75830078,16051208.49609375,20304355.62133789,-629141.5095329285,1663087.248802185,-4766782.283782959,22218360.900878906,23380027.770996094,10117510.795593262,1836634.7551345825,5013094.425201416,8719308.853149414,1190768.7187194824,-3172643.1846618652,-129260.89763641357,9979636.192321777,9993369.102478027,9823460.578918457,-3081313.371658325,-7668212.890625,-3723620.1763153076,1855270.8625793457,-7507845.878601074,-5440985.202789307,10128909.11102295,9950540.542602539,9008431.434631348,2242206.09664917,7183184.623718262,11273400.30670166,-2972508.430480957,-14207703.590393066,-14916831.016540527,3237227.9167175293,2640522.003173828,2009830.9516906738,5975455.284118652,1025018.9304351807,-5298628.807067871,-7898564.81552124,2750778.1982421875,2804583.3110809326,-4948286.533355713,-1567861.795425415,1654738.3069992065
0.445,27585098.266601562,16641408.920288086,-2967455.6255340576,26077392.578125,6404387.950897217,42306060.791015625,28692007.064819336,29011924.743652344,25303819.65637207,17472761.154174805,10023945.808410645,1403322.9351043701,-4813882.350921631,-5853447.437286377,31324556.350708008,31766059.87548828,25303297.04284668,25244935.989379883,19909381.866455078,23379533.767700195,562838.1967544556,1888317.2273635864,-5399382.1144104,26141313.552856445,26330232.620239258,12490506.172180176,4717604.160308838,9245742.797851562,10881381.98852539,2876028.537750244,-2771370.6493377686,715065.1812553406,11605811.11907959,11778870.582580566,11563083.64868164,-1006356.5969467163,-4694492.340087891,-2188239.336013794,2760330.91545105,-6765736.5798950195,-3465875.8640289307,11648983.001708984,11391216.278076172,10961138.725280762,3769937.9920959473,8747321.128845215,11938755.989074707,-3600244.2836761475,-15403207.778930664,-14709033.012390137,2220744.848251343,1762054.3241500854,1054128.4084320068,4985103.130340576,-2031874.8950958252,-8298845.291137695,-9163387.298583984,1854835.3910446167,2022930.8605194092,-6655062.198638916,-3930668.354034424,-236324.17619228363
0.45,34609672.54638672,20278093.338012695,-1017406.8212509155,29969221.115112305,9381711.959838867,52356380.462646484,32914897.918701172,33132282.257080078,29065874.099731445,20358701.705932617,13286475.18157959,4636250.4959106445,-4146183.0139160156,-7249032.974243164,38856712.341308594,36671207.427978516,29095973.96850586,29043617.248535156,22980754.852294922,27142175.674438477,2847494.602203369,3680667.1619415283,-6670891.284942627,32686119.079589844,29654743.194580078,15119849.20501709,6455252.647399902,12342626.571655273,13270346.641540527,5196443.0809021,-561261.9519233704,2057619.8101043701,13605639.457702637,13454916.954040527,13209996.223449707,527027.6069641113,-1759157.419204712,-113533.17648172379,5426097.393035889,-3401004.3144226074,-420138.47827911377,13714859.008789062,13282985.68725586,12564817.428588867,6371430.87387085,12374820.709228516,16779157.638549805,-72355.55350780487,-12937554.359436035,-12444840.431213379,2909572.3628997803,2629782.199859619,2045069.694519043,8826927.185058594,1444488.8830184937,-6702617.168426514,-7828830.718994141,2800811.0523223877,3015872.7169036865,-4096934.3185424805,-869043.5290336609,2125036.7164611816
0.455,38168537.13989258,22476982.11669922,1935911.4170074463,31738170.623779297,12598224.639892578,57173439.025878906,34354946.13647461,34663387.298583984,30312669.75402832,21317670.822143555,15602520.942687988,8129641.532897949,-2273508.071899414,-7696483.612060547,43201324.462890625,38618850.70800781,29946317.672729492,30204702.377319336,22965646.743774414,28636207.580566406,4547206.401824951,5133263.58795166,-7648423.194885254,36303512.57324219,30820438.385009766,15770843.505859375,5268119.335174561,11991683.959960938,14481709.480285645,6825545.787811279,1366595.5066680908,2151198.387145996,14239227.294921875,13930763.244628906,13554102.897644043,192796.12600803375,-1577401.7572402954,1101097.9413986206,7667876.720428467,-1085960.5073928833,590157.6280593872,14368766.784667969,13937535.285949707,12823851.585388184,7659213.542938232,14588187.217712402,20612236.02294922,4128969.192504883,-9990079.879760742,-10656446.45690918,4760688.304901123,4517940.521240234,4048086.643218994,14102607.727050781,7842566.967010498,-2387943.983078003,-5319516.658782959,4796359.062194824,4927619.934082031,355309.0989589691,4924458.5037231445,6599037.170410156
0.46,38780021.66748047,23629241.943359375,4303197.860717773,32850856.78100586,15040720.93963623,55563621.520996094,34607589.72167969,35119960.78491211,30707416.534423828,22586296.08154297,17357934.951782227,10389326.095581055,-1873308.777809143,-8842592.239379883,42636054.99267578,37619377.13623047,29813619.61364746,30484134.674072266,22969909.66796875,29280078.887939453,5585559.368133545,4456710.8154296875,-9076372.146606445,35438262.939453125,30197055.81665039,14652661.323547363,2789713.144302368,10768384.93347168,14920010.566711426,6948408.603668213,468423.992395401,25111.107155680656,13354957.580566406,13571837.425231934,13102103.233337402,-922377.9439926147,-3295257.329940796,661248.3859062195,7275846.481323242,-2958698.034286499,-1431434.7505569458,13314659.118652344,13089040.756225586,12456542.015075684,7385399.81842041,13688705.444335938,20235992.431640625,4602426.052093506,-10618844.985961914,-11209996.223449707,5597733.497619629,5208644.390106201,4638037.68157959,16023717.880249023,10318095.207214355,-564600.1100540161,-4475580.69229126,5586161.6134643555,5596241.9509887695,1239171.7433929443,6874157.905578613,7348756.313323975
0.465,37242362.97607422,23599189.75830078,5007620.811462402,33062767.028808594,16566696.166992188,51183319.091796875,34217964.17236328,34882789.611816406,30699419.021606445,25065828.323364258,19321790.69519043,11627131.462097168,-2645617.4850463867,-9725903.511047363,38875549.31640625,34893569.94628906,29538984.298706055,30422309.87548828,25214885.711669922,30806127.548217773,6394091.606140137,2752457.3802948,-10279878.616333008,31963048.934936523,28704597.47314453,12821534.156799316,1628872.6329803467,11563424.110412598,15164776.802062988,6008919.239044189,-2340023.7560272217,-2045265.1977539062,11957704.544067383,12513498.306274414,12130878.448486328,-1308880.4483413696,-4511331.558227539,-886687.9940032959,4943260.192871094,-6752519.130706787,-3242627.6206970215,11781362.533569336,11665337.562561035,11624756.813049316,6252897.262573242,10681129.455566406,17069692.611694336,1827860.5937957764,-13372533.798217773,-12398857.116699219,4270647.5257873535,3725252.151489258,2924661.39793396,13080663.681030273,7772165.298461914,-1791478.5146713257,-4779807.567596436,4171646.5950012207,4151337.146759033,-2660827.63671875,3725676.5365600586,3818011.2838745117
0.47,31886280.059814453,20582492.82836914,3212491.989135742,29706079.483032227,15739740.371704102,46208080.29174805,31179594.039916992,31853185.653686523,28079364.776611328,25563106.536865234,19616559.982299805,11505738.258361816,-2091721.0578918457,-7589796.06628418,34150188.44604492,31028259.27734375,27088047.02758789,27842453.002929688,26937038.42163086,31771598.81591797,6656168.9376831055,2822525.5012512207,-9024610.51940918,28311714.17236328,26529453.27758789,10811991.691589355,2001367.0921325684,13226443.29071045,15003376.007080078,5509761.810302734,-3284949.779510498,-833632.8268051147,11223404.884338379,10757771.492004395,10511601.448059082,-1006047.8448867798,-4417433.738708496,-2003486.6333007812,3842480.8979034424,-7204916.477203369,-1375110.149383545,11237143.516540527,10903330.80291748,9967543.601989746,4789281.368255615,7959111.213684082,14590227.127075195,344619.0059185028,-13316014.289855957,-11255145.072937012,2622010.9462738037,2078385.591506958,1201478.6005020142,8491312.980651855,5396065.711975098,-1740049.4813919067,-3298726.0818481445,2528706.3121795654,2582947.4925994873,-6438585.28137207,1072668.194770813,2048679.8286437988
0.475,24170530.319213867,15249594.688415527,-508042.3951148987,23580570.220947266,12070622.444152832,41368476.86767578,25947227.478027344,26517803.192138672,23069049.835205078,22031558.990478516,16730955.123901367,9670588.493347168,138022.82512187958,-3103116.273880005,30326065.063476562,27222307.205200195,22457870.483398438,22914447.784423828,24836864.471435547,30175909.0423584,6010326.385498047,5158518.314361572,-5539720.058441162,25822961.807250977,23987201.690673828,9063529.968261719,2108447.313308716,12959122.657775879,14228491.78314209,6259830.951690674,-954616.1890029907,2837219.23828125,11172513.961791992,9012912.75024414,8744822.50213623,-898797.2140312195,-3747141.3612365723,-1793258.4285736084,5428421.974182129,-3410515.546798706,2462051.6300201416,11605078.69720459,10900196.075439453,8038355.827331543,3596432.685852051,7431327.342987061,14400063.514709473,2008241.6534423828,-10150661.46850586,-8655640.602111816,2859486.3414764404,2425882.339477539,1718070.7454681396,6384568.691253662,6077159.881591797,537373.6619949341,-662449.1810798645,2785686.0160827637,2934572.696685791,-6128068.923950195,2331483.6025238037,5040042.400360107
0.48,19894693.37463379,11746243.476867676,-3449384.6893310547,19743814.46838379,8645157.814025879,37546260.833740234,22488721.84753418,22931846.618652344,19611703.872680664,17659294.12841797,13317255.020141602,7825046.539306641,1734624.0282058716,-460843.20545196533,27992162.704467773,24893068.313598633,19163187.02697754,19481933.59375,20407865.524291992,27236961.364746094,5342052.459716797,7172560.691833496,-3422845.1251983643,24085344.314575195,21483718.872070312,7843701.8394470215,1029830.4557800293,11027959.823608398,13343427.658081055,7294025.421142578,1588719.2487716675,4249227.523803711,9973452.5680542,7667328.357696533,7281114.57824707,-1235219.2401885986,-3092454.671859741,-1017524.003982544,7291257.858276367,-456869.57240104675,3016347.4082946777,10658765.79284668,9813244.819641113,6554390.430450439,2905194.9977874756,8930300.71258545,15023145.67565918,3221358.53767395,-9579195.976257324,-9262832.641601562,3429502.248764038,3038904.6669006348,2505581.6173553467,6728511.810302734,5831035.137176514,-425830.8410644531,-2001262.1879577637,3229501.247406006,3431964.635848999,-4779014.587402344,2936081.4094543457,6816728.115081787
0.485,21587041.8548584,12629566.192626953,-2896150.1121520996,20493698.120117188,9216276.168823242,34708660.12573242,22584386.825561523,22932559.967041016,19709482.192993164,16541011.810302734,13384413.719177246,8549918.174743652,1693201.4226913452,-1293912.5299453735,25990095.138549805,23617422.103881836,19041135.787963867,19520101.54724121,17742525.100708008,25859945.29724121,6028622.150421143,7024208.545684814,-4710460.186004639,21788761.138916016,18887792.587280273,6537591.457366943,-325044.8405742645,10200287.818908691,12944892.883300781,7270381.927490234,1326844.9306488037,1102506.7567825317,6118727.207183838,5860377.788543701,5501715.183258057,-1720668.4350967407,-2692873.954772949,-922917.366027832,6589741.230010986,-2351378.4408569336,-1153076.7679214478,6706143.379211426,6082139.015197754,4930414.67666626,1738303.6613464355,10300591.468811035,14324341.773986816,644397.1991539001,-14679201.126098633,-14818451.881408691,628117.9189682007,157357.8268289566,-427847.0277786255,5856616.973876953,756609.6782684326,-7834403.038024902,-9335187.911987305,192524.716258049,410643.93520355225,-7829583.168029785,-2349480.390548706,887520.1344490051
0.49,25408617.01965332,16112262.725830078,1086994.7671890259,22603944.778442383,13397827.1484375,32841079.711914062,23811611.17553711,24111373.901367188,21007844.924926758,18181842.803955078,16772529.602050781,11958056.449890137,2041960.7162475586,-2098258.2569122314,24259433.74633789,22599948.88305664,20032907.485961914,20765727.996826172,18120708.465576172,26711694.717407227,8093083.381652832,6334457.874298096,-6544669.151306152,19699846.267700195,16993726.73034668,4916634.082794189,-792412.2214317322,11356152.534484863,13134504.318237305,6547284.126281738,-282586.09771728516,-2848634.0045928955,2005850.3150939941,3542937.0403289795,3389119.1482543945,-2229683.8760375977,-2883879.8999786377,-1418988.823890686,4241194.725036621,-6294296.741485596,-5122767.925262451,2349388.599395752,2056008.3389282227,2869450.330734253,-691523.2539176941,9855325.698852539,12666440.963745117,-3131589.412689209,-20182950.973510742,-20189474.10583496,-4924667.3583984375,-5479503.154754639,-6231430.530548096,2435029.0298461914,-5226002.216339111,-15390055.656433105,-16437387.466430664,-5447855.472564697,-5248212.3374938965,-13987030.982971191,-9785447.120666504,-8636420.249938965
0.495,28141178.131103516,19736955.642700195,5678406.238555908,23460365.295410156,17227943.420410156,34339481.353759766,24702404.022216797,25003965.377807617,21774644.85168457,19621080.39855957,19582220.07751465,15281811.714172363,4193319.320678711,37469.16353702545,25647792.81616211,23506536.48376465,20766819.00024414,21547904.96826172,19797349.92980957,28207483.291625977,10046290.397644043,7399451.25579834,-5425183.7730407715,21059476.852416992,18238086.700439453,4773033.142089844,-181781.45587444305,12514865.87524414,13838878.631591797,6697265.148162842,93967.7283167839,-2806603.193283081,2484622.001647949,3057626.724243164,3043774.127960205,-2641179.084777832,-3440967.321395874,-1380261.3019943237,3525437.831878662,-6833015.918731689,-4183382.987976074,2684206.485748291,2520970.8213806152,2334359.645843506,-2906740.90385437,8484447.479248047,12693735.122680664,-2998252.3918151855,-19341197.967529297,-19373680.114746094,-7496035.575866699,-8002281.188964844,-8766076.08795166,-50615.17283320427,-4977028.846740723,-14598325.729370117,-15810211.181640625,-7776767.730712891,-7646628.379821777,-16080947.875976562,-10726153.373718262,-11182644.844055176
0.5,31321918.487548828,23315076.82800293,8089004.5166015625,24855611.80114746,18161132.8125,40773406.982421875,26992477.416992188,27325119.018554688,23650388.717651367,20608657.836914062,19706909.1796875,16140695.571899414,5981538.772583008,2455002.3078918457,31140913.009643555,27815456.39038086,22812896.728515625,23410219.192504883,21613912.58239746,29399360.65673828,10628709.79309082,9266764.640808105,-2695287.7044677734,26282287.59765625,22988677.978515625,7702409.744262695,950615.9424781799,12196914.672851562,14927290.916442871,8059156.41784668,2255519.8669433594,550303.2207489014,7856885.91003418,5901438.7130737305,5807592.868804932,-2630264.0438079834,-3244596.004486084,-641708.9104652405,5274456.024169922,-3588017.225265503,-60522.92138338089,7994574.546813965,7750832.557678223,4921688.556671143,-2552778.0055999756,8279342.6513671875,15643591.88079834,1097531.4378738403,-13564442.63458252,-13773409.843444824,-4234021.6636657715,-4549639.2250061035,-5168442.726135254,1464204.4305801392,1182023.6444473267,-6967653.751373291,-8959938.049316406,-4086012.363433838,-4052611.3510131836,-11568649.291992188,-4302213.191986084,-4362016.677856445
