time,Fp1,Fpz,Fp2,AF3,AF4,F7,F5,F3,F1,Fz,F2,F4,F6,F8,FT7,FC5,FC3,FC1,FCz,FC2,FC4,FC6,FT8,T7,C5,C3,C1,Cz,C2,C4,C6,T8,TP7,CP5,CP3,CP1,CPz,CP2,CP4,CP6,TP8,P7,P5,P3,P1,Pz,P2,P4,P6,P8,PO7,PO5,PO3,POz,PO4,PO6,PO8,CB1,O1,Oz,O2,CB2
0.0,-521002.1138191223,-2329921.7224121094,-3300007.3432922363,-112019.6133852005,-2393566.131591797,6054998.397827148,460978.35898399353,474537.1341705322,151312.88766860962,-705636.8589401245,-967896.8787193298,-2017192.1253204346,-5050437.450408936,1244385.1232528687,5069890.022277832,1481989.5029067993,530664.1459465027,123915.8883690834,-189923.79307746887,-78133.83638858795,-792788.0883216858,-3196875.57220459,2673788.547515869,5040662.76550293,882333.7554931641,1758575.9162902832,825714.111328125,1835472.4645614624,-115662.8429889679,-112742.93810129166,-2298823.356628418,3026312.5896453857,2496299.2668151855,1194475.4123687744,1134242.296218872,422544.4197654724,746447.6227760315,688046.2765693665,261163.74135017395,333017.4684524536,1068115.234375,2554870.60546875,2465859.4131469727,1212939.1431808472,98743.31951141357,-164828.19616794586,1086078.405380249,1357313.871383667,1685806.393623352,1371421.8139648438,2073678.731918335,2076422.6913452148,2033757.209777832,-167226.28474235535,2010207.8914642334,2235229.015350342,3371715.307235718,2137396.812438965,2115708.351135254,2771002.769470215,2870611.9060516357,3339452.9819488525
0.005,-22482328.414916992,-13869244.575500488,-3436704.635620117,-17806447.982788086,-9842498.779296875,-6515618.801116943,-14279734.61151123,-13206575.393676758,-13219153.40423584,-7084780.693054199,-5393256.664276123,-6015298.366546631,-24865085.60180664,-34181533.81347656,-20708053.588867188,-17398954.391479492,-11838367.462158203,-13469208.717346191,-5790646.553039551,-1223075.50907135,6904909.610748291,2827411.890029907,-16833868.0267334,-11412235.260009766,-13691595.077514648,-8037525.177001953,-7632529.735565186,-253356.51636123657,6898940.086364746,11734828.94897461,12709671.020507812,1197670.340538025,-16524692.53540039,-13280703.5446167,-13573030.471801758,-8587150.573730469,-2121673.345565796,9653422.355651855,9916865.348815918,4943583.011627197,10822428.703308105,-15902453.422546387,-17180992.126464844,-12850373.268127441,-14203802.108764648,-4291881.084442139,1996064.54372406,7600414.752960205,8352107.048034668,10004933.35723877,-21235395.431518555,-20848426.818847656,-21793481.826782227,-13201591.491699219,1646804.0943145752,4041695.1179504395,5771025.657653809,-21423336.029052734,-21619916.915893555,-14554831.504821777,-8085004.806518555,-17731983.184814453
0.01,-35818759.91821289,-25822183.60900879,-13148689.270019531,-25762012.481689453,-18443458.557128906,-9200810.432434082,-20624502.182006836,-18824550.62866211,-19236629.486083984,-11306920.051574707,-10007231.712341309,-12387056.350708008,-42656833.64868164,-54154994.96459961,-28733730.31616211,-25032445.907592773,-16961450.576782227,-19478303.909301758,-8274433.135986328,-3058654.78515625,6599532.604217529,-2054321.050643921,-28837163.9251709,-15327589.03503418,-19721113.204956055,-11839409.828186035,-10567654.609680176,-682308.01820755,7747933.387756348,13792563.438415527,11385177.612304688,-3674652.8148651123,-23444709.77783203,-18802511.21520996,-19354118.34716797,-11118283.27178955,-2790018.320083618,12535880.088806152,11320101.737976074,3628942.4896240234,9976813.316345215,-22783889.770507812,-24375444.412231445,-18263246.536254883,-19570034.02709961,-6403903.007507324,2168761.968612671,9336007.118225098,9802839.279174805,11199945.449829102,-31630508.422851562,-31199510.57434082,-32514575.958251953,-20264099.12109375,1683318.6149597168,3103780.98487854,5863228.797912598,-32009113.311767578,-32193355.560302734,-22256753.92150879,-13449958.801269531,-27341749.19128418
0.015,-38929328.91845703,-34439342.4987793,-25746290.20690918,-24058002.471923828,-23958507.537841797,-3780503.511428833,-18443830.490112305,-16409164.428710938,-17706863.403320312,-12769817.352294922,-12794806.480407715,-17206727.981567383,-50755096.435546875,-52804206.84814453,-20598339.080810547,-21188997.268676758,-14658298.49243164,-17744724.27368164,-8160473.823547363,-4893683.910369873,1523544.5499420166,-11233413.696289062,-29184610.36682129,-8154217.720031738,-16216299.057006836,-9209671.020507812,-8309603.691101074,244136.7208957672,3912037.8494262695,8882174.491882324,1011597.6333618164,-6428531.646728516,-17646068.572998047,-14795572.280883789,-15535535.81237793,-7180428.028106689,-1498665.5712127686,10225388.526916504,6968980.78918457,-395534.4557762146,4201324.462890625,-17332149.505615234,-18502834.32006836,-14369776.725769043,-15233713.150024414,-5428424.835205078,2535903.215408325,8053669.9295043945,7809872.150421143,8117040.634155273,-26993473.052978516,-26770410.537719727,-27984405.517578125,-18261011.123657227,4168194.7708129883,1652645.7071304321,5174781.322479248,-27407472.610473633,-27503526.68762207,-17669792.17529297,-10673572.540283203,-23691139.221191406
0.02,-37107540.130615234,-35747360.22949219,-27542207.717895508,-20672887.802124023,-21800333.02307129,20540.60809314251,-14741669.654846191,-12835960.388183594,-14609591.484069824,-12260681.15234375,-11744102.478027344,-15203451.156616211,-44142738.342285156,-38694156.646728516,-12529187.202453613,-15256613.731384277,-11030905.723571777,-14499231.338500977,-8039293.28918457,-5514743.804931641,440193.5338973999,-11024932.861328125,-21330518.72253418,-2080527.7824401855,-10214241.027832031,-5184417.247772217,-5871078.968048096,806945.5623626709,1387995.1238632202,6563449.382781982,-335650.83146095276,-2005340.814590454,-9943941.116333008,-9061125.755310059,-9800165.176391602,-2937809.467315674,-776620.8052635193,7920000.5531311035,4862834.453582764,-550056.9939613342,5188397.407531738,-9824004.173278809,-10644606.590270996,-8646231.651306152,-8993714.332580566,-3118698.1201171875,3476678.6098480225,7738140.58303833,7102472.78213501,8358514.785766602,-17594371.795654297,-17491035.46142578,-18566404.342651367,-11005268.096923828,8977420.806884766,2868166.208267212,6241243.362426758,-17898380.279541016,-18028120.040893555,-7933976.650238037,-3377184.8678588867,-15185880.661010742
0.025,-35884880.06591797,-31848785.400390625,-18672086.715698242,-21120977.4017334,-15179787.635803223,-1475514.0542984009,-14849763.870239258,-13120089.530944824,-14540125.846862793,-10700608.253479004,-8295079.231262207,-8641147.61352539,-31408536.911010742,-28418617.248535156,-13788584.70916748,-14526919.3649292,-10909754.753112793,-14500658.988952637,-8431347.846984863,-4787564.754486084,4508187.770843506,-2394103.2886505127,-15206575.393676758,-3825680.4943084717,-8921552.658081055,-4258610.248565674,-6339334.964752197,405827.73089408875,2416295.5284118652,8993309.020996094,8041962.623596191,4060468.6737060547,-10132900.23803711,-8769702.911376953,-9381251.335144043,-3325923.204421997,-2102099.895477295,8039808.27331543,6409554.004669189,2045590.4006958008,11274174.690246582,-9855619.430541992,-10787200.927734375,-8149847.984313965,-8381671.905517578,-2941510.4389190674,3336732.1491241455,8367051.124572754,7598590.37399292,11495184.898376465,-15189410.209655762,-14993141.174316406,-16082363.12866211,-7292284.4886779785,11510311.126708984,4820720.672607422,7926475.524902344,-15411217.68951416,-15635374.069213867,-3554900.4077911377,755961.2989425659,-11352300.643920898
0.03,-36358753.2043457,-29359870.91064453,-13526706.69555664,-23871341.705322266,-12653299.331665039,-2381222.4864959717,-17720705.032348633,-16002822.875976562,-16787439.346313477,-8985372.543334961,-6447953.701019287,-5634880.542755127,-28224500.65612793,-31631380.081176758,-18176948.54736328,-17602918.62487793,-13538790.702819824,-16931955.337524414,-7887616.6343688965,-3896157.5031280518,6755960.464477539,375203.13262939453,-18138723.373413086,-7902660.846710205,-12713370.323181152,-6180749.893188477,-8190091.133117676,-61649.06919002533,3879153.251647949,9950836.181640625,9980550.765991211,2205190.420150757,-16789293.28918457,-13258763.313293457,-13829122.543334961,-6815208.435058594,-3893483.6387634277,8716708.183288574,6042001.247406006,393578.1419277191,10293622.970581055,-16294431.686401367,-17503026.962280273,-12444171.905517578,-12704181.671142578,-5912847.518920898,1079459.6672058105,6900162.220001221,5365410.327911377,10027213.096618652,-20897596.35925293,-20556398.391723633,-21657588.958740234,-11599473.95324707,8029327.392578125,2768698.9307403564,6416821.479797363,-21179166.793823242,-21360410.690307617,-7736660.480499268,-2447656.3930511475,-14367843.627929688
0.035,-36775177.001953125,-30796617.50793457,-19094219.207763672,-25399467.46826172,-16450929.641723633,728439.8674964905,-19901546.478271484,-18086170.196533203,-18617259.979248047,-7850791.931152344,-7553726.1962890625,-8846057.891845703,-37366905.212402344,-41334659.576416016,-18087471.00830078,-19894901.275634766,-15796227.45513916,-18830930.709838867,-6214772.701263428,-3682423.5916137695,4107534.408569336,-7374759.197235107,-26104923.248291016,-7745478.15322876,-16980367.66052246,-8266829.490661621,-9170833.587646484,-139631.80780410767,3413777.1129608154,6817686.557769775,-28655.484318733215,-6062289.714813232,-21603820.80078125,-17034275.05493164,-17736806.869506836,-8715031.623840332,-3813810.8253479004,8394568.44329834,2004434.8239898682,-6020725.250244141,212764.06943798065,-21095527.64892578,-22390150.07019043,-16247669.219970703,-15709827.423095703,-9067751.88446045,-1182097.5542068481,3618700.0274658203,382361.88888549805,2358553.647994995,-26126247.40600586,-25719861.98425293,-26731723.78540039,-18467016.220092773,1773370.1467514038,-3112922.430038452,1084656.9538116455,-26481458.66394043,-26515785.217285156,-13886073.112487793,-9060200.691223145,-19295959.47265625
0.04,-36481349.94506836,-31231338.500976562,-23752948.760986328,-25612886.428833008,-18343006.134033203,397161.0367298126,-21002813.3392334,-19129508.97216797,-19589853.286743164,-6836163.04397583,-7890344.619750977,-10809438.705444336,-42847621.91772461,-42323524.475097656,-17897167.205810547,-21453266.143798828,-17069803.23791504,-19674602.508544922,-4808293.342590332,-3315418.481826782,2806704.28276062,-11773534.774780273,-27594537.73498535,-7101421.83303833,-19302860.260009766,-9870775.22277832,-9928263.664245605,-551102.6978492737,3073093.4143066406,5475981.23550415,-6444139.48059082,-9205308.91418457,-21589654.92248535,-17958696.365356445,-18796527.862548828,-8010976.791381836,-2373826.503753662,8189000.129699707,180973.06787967682,-8511734.008789062,-6046883.106231689,-21197294.235229492,-22370330.810546875,-17329465.866088867,-15044872.283935547,-9645637.512207031,-1003582.5967788696,2555551.290512085,-2283959.38873291,-3152082.2048187256,-25169269.561767578,-24742460.250854492,-25686311.721801758,-19830972.67150879,-760856.568813324,-7234777.927398682,-3825998.544692993,-25443195.343017578,-25458232.879638672,-15084791.18347168,-12402966.499328613,-21263471.603393555
0.045,-37177947.998046875,-26561660.766601562,-15060544.01397705,-26675006.866455078,-11317465.782165527,-11521259.307861328,-23161882.400512695,-21290416.717529297,-21184282.302856445,-4959632.396697998,-4021793.842315674,-4641885.280609131,-30946870.803833008,-28707065.58227539,-25833518.981933594,-25599409.103393555,-19088806.15234375,-21067369.46105957,-4189734.45892334,-1740104.9137115479,8344818.115234375,-1014054.2984008789,-16803197.860717773,-13559790.61126709,-21556327.81982422,-12189400.672912598,-12053084.373474121,-1490721.2257385254,5158939.361572266,10389039.993286133,3497516.870498657,-2029560.5659484863,-21692998.8861084,-18941738.12866211,-19730690.002441406,-7972502.2315979,-2360613.1076812744,8915290.832519531,4489499.568939209,-2015840.5303955078,392618.7753677368,-21379653.930664062,-22348398.208618164,-18373815.536499023,-15053642.272949219,-9052945.137023926,287241.69731140137,4806681.6329956055,-373347.4016189575,-269127.90536880493,-22389135.360717773,-21953327.178955078,-22952501.29699707,-16250881.19506836,1006881.9522857666,-6854011.058807373,-4721667.289733887,-22527584.075927734,-22685251.235961914,-12918930.053710938,-11661912.91809082,-20687465.66772461
0.05,-41074966.43066406,-21678609.84802246,-230886.17622852325,-29227315.90270996,-1098030.924797058,-29518989.56298828,-26906476.974487305,-25027212.142944336,-23874557.495117188,-3252140.2835845947,1128038.4063720703,5011047.36328125,-10272557.258605957,-9615565.299987793,-38321678.161621094,-32020961.76147461,-22356767.654418945,-23653816.22314453,-3530613.899230957,278088.83786201477,16231855.392456055,16090738.296508789,277547.4190711975,-24559371.948242188,-25100688.934326172,-14734705.924987793,-14495801.92565918,-1583807.2299957275,8015384.674072266,16876560.21118164,19646202.087402344,8116925.239562988,-25277885.43701172,-21815786.361694336,-22437614.44091797,-10084998.13079834,-4380102.157592773,9386065.483093262,10102711.67755127,6574251.174926758,11794637.680053711,-25005071.64001465,-25778491.973876953,-21180553.436279297,-18880653.381347656,-9909054.75616455,-75478.72513532639,6488858.222961426,2078660.7265472412,6006756.30569458,-24253280.639648438,-23867958.068847656,-24958534.240722656,-15245331.764221191,1700463.891029358,-5648090.839385986,-2853791.4752960205,-24424533.84399414,-24651000.9765625,-13204021.453857422,-11289375.305175781,-20636571.884155273
0.055,-48617012.02392578,-25093830.108642578,2878553.1520843506,-32412986.755371094,556840.9562110901,-39751621.24633789,-30650083.541870117,-28755676.26953125,-26891988.75427246,-4800428.867340088,1254358.8876724243,7867645.263671875,-539552.0329475403,2779427.0515441895,-43494117.736816406,-36488151.55029297,-25576086.044311523,-26724004.7454834,-2989088.535308838,900111.6156578064,18562026.977539062,22777114.868164062,13965595.245361328,-29496105.194091797,-28174236.297607422,-15665228.843688965,-15092284.202575684,-168473.36292266846,8765013.694763184,18487220.764160156,24341184.616088867,13675347.328186035,-28809165.954589844,-24332057.95288086,-24873853.68347168,-11487546.920776367,-5655671.119689941,9144125.938415527,11111006.736755371,8624554.634094238,16780038.833618164,-28584316.25366211,-29313241.958618164,-23636663.43688965,-22700801.849365234,-11142924.308776855,-890199.6612548828,5468140.125274658,1996289.4916534424,7832006.931304932,-29343463.897705078,-29061910.62927246,-30149997.71118164,-19262750.62561035,-553879.2610168457,-6570307.731628418,-876882.9107284546,-29649915.69519043,-29742292.404174805,-16176277.160644531,-12674854.278564453,-20975067.138671875
0.06,-57674674.98779297,-36433891.29638672,-8370815.277099609,-36232902.52685547,-7757280.8265686035,-39107040.40527344,-33874198.91357422,-32006092.071533203,-30227338.790893555,-10574714.660644531,-4529128.074645996,2588751.3160705566,-5287077.903747559,5910037.517547607,-39346511.84082031,-37619400.02441406,-28399484.634399414,-30208621.978759766,-4301133.632659912,-280431.98585510254,15764526.3671875,18633846.282958984,21187591.552734375,-25889959.33532715,-29573545.455932617,-15756571.769714355,-14909782.409667969,476143.86677742004,7843709.945678711,16928318.02368164,18536237.716674805,16852062.225341797,-28635789.87121582,-24797185.89782715,-25382774.353027344,-10199234.008789062,-4698393.34487915,9858318.328857422,9891031.265258789,6716983.318328857,17134553.909301758,-28404380.798339844,-29350566.864013672,-24090625.762939453,-21563709.259033203,-9828715.324401855,1628551.0063171387,5463986.396789551,3114835.262298584,7106659.412384033,-30822980.880737305,-30607313.15612793,-31581220.626831055,-21677152.633666992,-415039.15190696716,-5738097.190856934,2357969.5224761963,-31029285.430908203,-30976430.892944336,-16045404.434204102,-11163133.62121582,-17514974.59411621
0.065,-64339485.16845703,-45087116.24145508,-17560968.39904785,-40879257.20214844,-14776506.423950195,-38615139.00756836,-37495578.76586914,-35665245.056152344,-34259391.78466797,-16535873.413085938,-9698371.887207031,-1605427.1459579468,-8795938.491821289,5100473.880767822,-36798561.096191406,-38673004.150390625,-31706104.278564453,-34382205.963134766,-7796732.9025268555,-1635590.672492981,15186136.245727539,18183282.85217285,25097335.815429688,-23180492.401123047,-30767450.3326416,-17809501.64794922,-17202266.693115234,-2113158.4644317627,7889653.68270874,18449035.64453125,18093227.38647461,22731000.900268555,-26710559.844970703,-25019155.502319336,-25631057.739257812,-8894608.497619629,-4219099.044799805,12214089.393615723,12741928.100585938,9800213.813781738,22579044.342041016,-26369644.165039062,-27627922.05810547,-24272436.141967773,-17184276.580810547,-6733321.666717529,7125229.835510254,10104144.096374512,10082848.54888916,12482490.539550781,-25784219.74182129,-25589515.686035156,-26400476.455688477,-16543582.916259766,6495133.876800537,2159416.437149048,10273768.424987793,-25560373.306274414,-25568696.975708008,-9328763.961791992,-2716623.306274414,-7043282.032012939
0.07,-65660255.432128906,-43579166.412353516,-13493145.942687988,-44345840.45410156,-12247378.3493042,-45044101.71508789,-40597846.98486328,-38751544.95239258,-37384914.39819336,-17472658.157348633,-8753211.02142334,1302933.5737228394,-1452124.3572235107,4147633.5525512695,-41647815.7043457,-40949203.49121094,-34531738.28125,-37557407.37915039,-10593526.840209961,-1622699.1415023804,19261657.71484375,26842273.712158203,28024110.794067383,-26857606.887817383,-31926263.8092041,-20814559.936523438,-21340852.737426758,-5811823.844909668,9332741.737365723,23111911.77368164,27665834.426879883,29445882.79724121,-25098451.614379883,-25695703.506469727,-26274600.982666016,-10076095.581054688,-6481938.83895874,14075421.333312988,19072193.145751953,18343595.504760742,33825786.59057617,-24645872.116088867,-25988418.579101562,-24890525.817871094,-14639334.678649902,-5475868.701934814,10762654.304504395,16594524.383544922,20072145.462036133,25615831.37512207,-16919666.290283203,-16794860.83984375,-17476419.44885254,-6729892.253875732,16694019.317626953,15125082.015991211,22696043.014526367,-16291034.698486328,-16486997.604370117,1387838.1252288818,10402642.250061035,8907204.627990723
0.075,-62878925.32348633,-37306751.2512207,-5667161.94152832,-43981861.11450195,-5854669.094085693,-50411880.49316406,-40386341.0949707,-38515056.61010742,-36987037.658691406,-13472674.369812012,-4359695.4345703125,5825726.03225708,5857954.502105713,2555017.4713134766,-45271820.068359375,-40869148.25439453,-34078342.43774414,-37096904.75463867,-9824131.01196289,-560905.6353569031,22136135.10131836,32600337.982177734,29130498.8861084,-29372638.702392578,-30206098.556518555,-19623638.153076172,-22127193.450927734,-5517284.870147705,10059715.270996094,24785625.457763672,34079715.728759766,31297771.453857422,-20806711.196899414,-23514436.721801758,-24124631.881713867,-10964764.595031738,-8478169.441223145,13889472.007751465,22084959.030151367,23399065.017700195,41027698.5168457,-20354526.51977539,-21514991.760253906,-22744821.548461914,-13811785.697937012,-6243583.679199219,10767519.9508667,19661359.786987305,25765750.885009766,37781230.92651367,-6945952.892303467,-6919837.474822998,-7591884.136199951,1075123.7869262695,23870845.794677734,25529432.29675293,34667385.10131836,-6260836.601257324,-6542024.1355896,12024873.733520508,22734676.361083984,25691913.604736328
0.08,-60797325.134277344,-36813262.939453125,-8557708.740234375,-40697498.3215332,-6122275.829315186,-45725044.25048828,-36743232.72705078,-34942108.154296875,-33539615.631103516,-10036788.940429688,-3243698.1201171875,3859808.921813965,-302101.37367248535,738252.1629333496,-39201351.165771484,-36432403.564453125,-30194925.30822754,-33512287.139892578,-6807882.785797119,29339.458793401718,19026691.436767578,25308780.670166016,28529085.159301758,-23013242.721557617,-25011007.30895996,-12885305.404663086,-17246726.989746094,-584398.5080718994,8911660.194396973,21012802.124023438,27666671.752929688,28426561.35559082,-11618755.340576172,-16722332.000732422,-17467992.782592773,-7698407.6499938965,-5913013.935089111,13474350.929260254,19314222.33581543,20377346.03881836,38914466.857910156,-11219745.635986328,-12238999.366760254,-16058111.190795898,-10141912.460327148,-5134810.447692871,11374842.643737793,19291208.267211914,25424175.262451172,41509567.26074219,3612524.7478485107,3663716.5546417236,2868550.3005981445,5224349.021911621,27324644.088745117,29816736.221313477,41991485.595703125,4173976.8981933594,3929389.715194702,21269893.646240234,31743879.318237305,39563243.8659668
0.085,-62035495.75805664,-43061775.20751953,-19445117.950439453,-38523769.37866211,-13008071.899414062,-36178020.47729492,-33686103.82080078,-32000881.19506836,-31006633.758544922,-10977845.191955566,-6680369.3771362305,-2867182.493209839,-14127210.61706543,1766962.0513916016,-29544025.421142578,-32031570.434570312,-26932985.305786133,-30805549.62158203,-5622466.087341309,-581565.3800964355,13498911.85760498,12873596.19140625,28860559.463500977,-13538278.579711914,-21235326.766967773,-7014158.725738525,-11806605.339050293,2990448.474884033,7028103.351593018,16609369.277954102,16843166.35131836,26334135.055541992,-2884241.819381714,-10185852.05078125,-11024225.234985352,-2611504.554748535,-735321.7005729675,14904563.903808594,15816966.05682373,15447588.920593262,33896034.240722656,-2445909.023284912,-3562980.890274048,-9504336.3571167,-3487052.4406433105,-1019076.2281417847,15525715.827941895,19584014.892578125,24231588.36364746,39169464.111328125,12996094.703674316,13192049.026489258,12263012.886047363,8474119.186401367,30501281.73828125,31347257.614135742,45074649.810791016,13615835.189819336,13343819.618225098,28789855.95703125,37795394.89746094,48527008.056640625
0.09,-63679759.97924805,-46778495.78857422,-23158231.735229492,-39345436.096191406,-16565856.93359375,-33685081.481933594,-34357646.94213867,-32627922.05810547,-31899692.53540039,-13840568.542480469,-9160893.440246582,-5326069.8318481445,-18616510.39123535,7042881.965637207,-27974445.343017578,-32823661.80419922,-27584438.32397461,-31502986.907958984,-7587965.965270996,-1521571.6361999512,12212764.739990234,9899977.684020996,31796533.584594727,-12130605.697631836,-23254766.4642334,-8243501.663208008,-11951411.247253418,540013.9093399048,5731587.886810303,16263267.517089844,14763955.116271973,27423086.166381836,-1859108.0904006958,-9999541.282653809,-10791505.813598633,-1947951.1976242065,449681.28204345703,16835975.646972656,15971446.990966797,15578437.805175781,33738296.50878906,-1280484.914779663,-2573616.5046691895,-9115443.229675293,58328.550308942795,1697329.2827606201,19357561.111450195,21428691.864013672,25679050.44555664,37239700.31738281,17265508.6517334,17480693.817138672,16538682.93762207,11383295.059204102,33515083.31298828,33267284.393310547,46222930.908203125,18100522.994995117,17666038.513183594,32674964.904785156,40291778.564453125,51135166.16821289
0.095,-62162204.74243164,-42506088.25683594,-14996875.762939453,-41002017.974853516,-11751412.391662598,-39750770.568847656,-37110065.46020508,-35105331.42089844,-34341678.619384766,-14264388.084411621,-6810477.256774902,-246018.648147583,-9915555.000305176,14154621.124267578,-34648551.94091797,-37401679.99267578,-30513883.590698242,-33788520.81298828,-9689774.513244629,-1515072.7033615112,15886487.007141113,17460180.282592773,36040252.685546875,-19039258.95690918,-28419433.59375,-14001391.410827637,-16534330.368041992,-4376183.032989502,5153292.655944824,18641571.044921875,21073970.794677734,28953350.067138672,-7472715.377807617,-15081025.123596191,-15804237.365722656,-6650201.320648193,-4083683.490753174,16968666.076660156,18029685.974121094,19178312.301635742,37341632.84301758,-6795238.494873047,-8139698.028564453,-14018018.72253418,-2942000.150680542,-145566.2101507187,18322809.21936035,21816295.623779297,27348398.208618164,37219776.15356445,14756250.381469727,14756263.732910156,13886294.3649292,11849305.152893066,33069824.21875,33948677.06298828,45863067.626953125,15619283.676147461,15056399.34539795,31397026.06201172,37983585.357666016,47398006.439208984
0.1,-59746837.6159668,-36787490.84472656,-7012765.884399414,-41874874.114990234,-5681431.293487549,-45763313.29345703,-39020370.48339844,-36747150.42114258,-35862735.748291016,-12929284.09576416,-3454166.6507720947,5318776.607513428,-1251080.7514190674,19890699.38659668,-40243366.24145508,-40670497.89428711,-32490337.371826172,-35321079.25415039,-9579782.485961914,-862042.248249054,19022165.298461914,23726133.346557617,39412647.24731445,-25044502.25830078,-31083713.53149414,-17120971.6796875,-19574647.903442383,-5409864.42565918,4924384.593963623,19799560.546875,25440570.831298828,29028663.635253906,-12159250.259399414,-19133056.640625,-19894887.924194336,-10924007.415771484,-8662169.456481934,16088510.513305664,18727493.286132812,20634914.39819336,38830070.49560547,-11527699.47052002,-12862524.032592773,-18102775.57373047,-7829173.564910889,-3141975.6412506104,14877913.475036621,20000944.137573242,26455518.72253418,36234634.39941406,9049373.626708984,8879664.421081543,8030534.744262695,10383307.456970215,29247970.581054688,31418727.87475586,43217510.22338867,9688456.535339355,9193465.232849121,26742074.966430664,32575466.15600586,40635112.76245117
0.105,-61315288.54370117,-38464363.09814453,-9800460.815429688,-43578712.463378906,-7448042.869567871,-46539436.34033203,-40278308.8684082,-38042503.356933594,-37111362.45727539,-14496449.47052002,-5450848.10256958,3859181.4041137695,-2925696.1345672607,23523183.822631836,-40531372.0703125,-41137367.248535156,-33464263.916015625,-36798374.17602539,-9377686.500549316,-1463920.1164245605,17364183.42590332,21671440.12451172,41049419.40307617,-25542470.932006836,-30470928.192138672,-15916483.879089355,-19200599.670410156,-3166385.4122161865,4613818.168640137,18632854.461669922,23644702.911376953,29374341.96472168,-12072047.233581543,-19340957.641601562,-20169988.63220215,-10825282.096862793,-8843958.854675293,16244693.756103516,18249345.779418945,18876316.07055664,37078525.54321289,-11587332.725524902,-12989916.801452637,-18433145.52307129,-8230476.379394531,-2532540.0829315186,14680364.608764648,18910997.39074707,24499307.63244629,33402248.38256836,6215357.780456543,6208249.568939209,5316196.918487549,10852471.351623535,26771459.579467773,28018125.534057617,39224288.94042969,6728017.330169678,6421360.015869141,23108671.188354492,28647123.336791992,36025279.9987793
0.11,-65204139.709472656,-45111587.52441406,-17713235.85510254,-46496028.900146484,-15165127.754211426,-44465015.41137695,-41785915.37475586,-39879508.97216797,-38937343.59741211,-19543056.48803711,-12076103.210449219,-2206667.423248291,-9060423.851013184,26147964.477539062,-39346858.978271484,-40711982.72705078,-34663887.02392578,-38909229.27856445,-11856611.251831055,-3955857.276916504,13043188.095092773,17058427.810668945,40747344.970703125,-24105052.947998047,-29762334.8236084,-14530651.092529297,-18945724.487304688,-3659576.892852783,3767505.884170532,16903890.60974121,21188785.552978516,30749654.76989746,-9878973.007202148,-18140731.811523438,-18902709.9609375,-9090241.432189941,-7409083.366394043,16549768.447875977,18091583.251953125,16996124.267578125,35705924.98779297,-9516864.776611328,-10987224.578857422,-17196584.701538086,-4144356.7276000977,463889.15181159973,17423397.064208984,19513717.651367188,23635103.225708008,30734514.236450195,9350365.63873291,9657651.901245117,8777958.869934082,14934881.210327148,27804008.48388672,26941492.080688477,35975631.71386719,10045036.315917969,9848152.160644531,23616022.10998535,28525716.78161621,35549766.540527344
0.115,-63883464.81323242,-45767292.02270508,-17849645.614624023,-46668560.02807617,-18334817.88635254,-42453777.31323242,-41465820.3125,-39848472.595214844,-38878025.05493164,-21930770.874023438,-15359670.639038086,-4078778.7437438965,-8691725.730895996,29469707.489013672,-39425750.732421875,-39760932.92236328,-34566848.75488281,-38958526.611328125,-14918505.668640137,-5751628.875732422,11530103.68347168,17970531.463623047,38897502.89916992,-23855552.673339844,-29612646.102905273,-14902195.930480957,-20504693.98498535,-7933162.689208984,2845666.4085388184,16303874.969482422,22999511.71875,30557460.78491211,-8727175.71258545,-17440206.52770996,-17996591.567993164,-9315925.598144531,-8568743.705749512,14730201.721191406,17960838.317871094,16676540.37475586,36443981.1706543,-8378892.89855957,-9743568.420410156,-16292783.737182617,-357421.07033729553,1146026.2537002563,17571250.915527344,18856786.727905273,22628890.991210938,29168907.165527344,15429231.643676758,15775300.979614258,15005074.501037598,19587757.110595703,28245826.721191406,27053955.078125,33752628.326416016,16339143.753051758,16119260.787963867,26913867.950439453,29392078.399658203,35613769.53125
0.12,-55718933.10546875,-36909530.63964844,-8529574.394226074,-41554737.09106445,-12429992.67578125,-40907798.767089844,-37469345.09277344,-35843833.923339844,-34839431.76269531,-17217275.619506836,-10871828.079223633,951267.8980827332,-2125280.1418304443,35202136.9934082,-39329402.923583984,-37344974.517822266,-31250619.888305664,-34814319.6105957,-14063547.134399414,-4075374.126434326,14552710.53314209,23330825.805664062,37173610.68725586,-23882961.27319336,-27923595.428466797,-14492696.762084961,-20781898.498535156,-9980722.427368164,3228312.9692077637,17076734.54284668,26699478.149414062,27077171.325683594,-9110321.044921875,-16394374.84741211,-16757314.682006836,-10117982.864379883,-10851657.86743164,11757079.124450684,17339672.088623047,16971160.888671875,37078636.169433594,-8694608.688354492,-9804203.987121582,-15114577.293395996,302771.59810066223,-1114528.1791687012,13443747.520446777,15504086.4944458,19769136.428833008,27518331.52770996,17222949.981689453,17282035.82763672,16616209.030151367,21292278.289794922,23912559.509277344,25009988.78479004,30806194.305419922,18014982.223510742,17770723.342895508,27627391.815185547,26817403.79333496,31174816.131591797
0.125,-49281421.66137695,-28663709.64050293,-1522254.9438476562,-36014991.760253906,-5885609.149932861,-40646583.557128906,-33114356.994628906,-31312519.073486328,-30318132.400512695,-10594634.056091309,-4961022.37701416,5166042.804718018,192440.07766246796,41911811.82861328,-38810054.779052734,-34898387.90893555,-27297624.588012695,-30143774.032592773,-10021821.975708008,-883055.0312995911,17349962.23449707,25325931.549072266,35945747.37548828,-23882432.93762207,-25003578.186035156,-12270636.558532715,-17915941.23840332,-6872098.922729492,4576318.264007568,17661947.25036621,26866176.60522461,22145687.103271484,-11025085.44921875,-15089466.094970703,-15399416.92352295,-8774966.2399292,-10682787.895202637,10493906.021118164,16819517.135620117,16358489.990234375,35280830.38330078,-10580720.901489258,-11492946.62475586,-13910909.652709961,-1395118.4749603271,-2964783.191680908,9293758.392333984,12235415.4586792,16596790.313720703,24964952.46887207,10479216.575622559,10319866.180419922,9663137.435913086,20299720.764160156,16933422.088623047,20862806.32019043,26166080.474853516,10883136.749267578,10711184.50164795,21408931.732177734,20083080.291748047,21936788.55895996
0.13,-50666748.046875,-31219676.971435547,-6562174.320220947,-36234432.220458984,-9436581.6116333,-40420009.61303711,-32703945.15991211,-30907445.907592773,-30174667.358398438,-11147032.737731934,-7087552.547454834,465171.09870910645,-8337493.896484375,42854377.74658203,-38102020.263671875,-33773605.34667969,-26706867.218017578,-29945100.784301758,-8974056.243896484,-1608206.7489624023,13960471.153259277,19031215.66772461,31159132.00378418,-23775775.909423828,-22939256.66809082,-10744803.428649902,-15085489.273071289,-4248595.714569092,3595068.6931610107,15109037.399291992,21150583.267211914,17066711.42578125,-13404728.889465332,-15043807.029724121,-15470251.083374023,-6911327.362060547,-9603874.206542969,10234733.581542969,15624915.12298584,13154516.220092773,30729269.02770996,-13059760.093688965,-13959917.068481445,-14119619.369506836,-4188836.5745544434,-3718052.387237549,7653488.1591796875,10881564.140319824,15007157.325744629,21517063.14086914,189941.52545928955,135204.5089006424,-617489.1591072083,19086277.00805664,12508480.072021484,17572948.455810547,20847431.182861328,279033.1840515137,199804.91697788239,10740327.835083008,12835242.27142334,13235381.126403809
0.135,-52571067.810058594,-40378231.048583984,-19650753.021240234,-39132446.2890625,-21817953.10974121,-32878601.07421875,-33332565.307617188,-31847194.67163086,-31950510.025024414,-18930612.564086914,-16717149.73449707,-10740292.5491333,-23915075.302124023,31995418.548583984,-32630569.458007812,-30325370.78857422,-27327154.1595459,-31729778.289794922,-13534097.671508789,-7693130.016326904,4806465.148925781,6404385.566711426,18018390.655517578,-19149225.23498535,-20313156.127929688,-10541518.211364746,-15261887.550354004,-7517306.327819824,-1898795.8431243896,8061379.432678223,10808021.545410156,9069860.458374023,-12336543.083190918,-15350763.320922852,-16005517.959594727,-8086349.4873046875,-12038615.226745605,7384088.99307251,11077339.172363281,5878579.616546631,23384437.561035156,-12156399.726867676,-13164623.260498047,-14661946.296691895,-7561077.59475708,-6565126.895904541,5553193.56918335,8594542.503356934,12827833.17565918,16122987.747192383,-3813817.262649536,-3660868.1678771973,-4620798.110961914,18394163.131713867,11327440.26184082,15428977.966308594,15671053.886413574,-3860629.081726074,-3943413.496017456,3594811.201095581,8740897.178649902,10105379.104614258
0.14,-44131496.42944336,-43439666.748046875,-29644495.010375977,-35176052.09350586,-31549373.626708984,-12221210.479736328,-27478464.126586914,-26349924.087524414,-27853620.529174805,-23978815.07873535,-23667909.622192383,-19212833.404541016,-39626998.90136719,14039057.731628418,-17377475.73852539,-19855958.938598633,-22480318.069458008,-27633176.803588867,-18161155.700683594,-13686483.383178711,-3674064.1593933105,-7964186.668395996,-292466.04442596436,-5406956.195831299,-13552541.732788086,-8163182.258605957,-15943408.012390137,-12725238.800048828,-8784811.973571777,-599528.8491249084,-1802557.110786438,-3679648.8761901855,-5336965.560913086,-12981513.977050781,-13826507.568359375,-11531049.728393555,-17131576.538085938,2079482.078552246,3050184.2498779297,-4116580.009460449,13317316.055297852,-5230830.192565918,-6328701.972961426,-12425211.906433105,-10356287.002563477,-12194911.95678711,964657.0086479187,2840462.6846313477,6778688.430786133,7669810.2951049805,923768.4011459351,1067726.2544631958,-175152.79352664948,16874837.87536621,9480330.467224121,11472715.377807617,10079515.45715332,729309.7972869873,581847.9061126709,4562742.710113525,7942245.006561279,11702500.343322754
0.145,-28510173.797607422,-37535503.38745117,-32808147.430419922,-23314935.6842041,-32697017.669677734,13452178.955078125,-15381015.77758789,-14348068.237304688,-17227054.595947266,-20434375.762939453,-22508762.35961914,-21888742.446899414,-53395339.96582031,2117672.920227051,1995462.8944396973,-6131406.307220459,-12026746.74987793,-16994735.717773438,-17321313.858032227,-14662628.173828125,-7636185.646057129,-21480142.59338379,-13253775.596618652,12062647.819519043,-4654276.8478393555,-2240560.77003479,-13505246.16241455,-12565933.227539062,-12097477.912902832,-6664756.298065186,-14480031.967163086,-16293441.772460938,2652551.8894195557,-8577622.413635254,-9412972.450256348,-13151268.95904541,-19233135.223388672,-1029456.1386108398,-4215285.778045654,-12590967.178344727,2742496.4904785156,2822460.651397705,1725431.7998886108,-8070217.132568359,-11330705.642700195,-16306568.145751953,-2480735.0635528564,-3444629.192352295,-1481905.9371948242,-1971374.8693466187,5678686.618804932,5629657.26852417,4225425.243377686,13650816.917419434,5050143.241882324,5044713.020324707,3971653.461456299,5267003.059387207,5129454.612731934,9110641.479492188,7707670.211791992,12439240.455627441
0.15,-21115709.30480957,-33650382.99560547,-35531208.03833008,-15716167.449951172,-32238330.841064453,26008140.563964844,-8379877.090454102,-7217099.189758301,-10761422.157287598,-15797463.417053223,-20378173.828125,-25024124.145507812,-65935379.02832031,1060067.4152374268,10634449.005126953,-638436.3770484924,-6011711.120605469,-10509777.069091797,-14747601.509094238,-13873643.87512207,-10620257.377624512,-33099067.68798828,-16797370.91064453,19497409.82055664,-1974544.882774353,1691559.6723556519,-10747954.368591309,-8929861.068725586,-12466940.879821777,-10275214.195251465,-25184885.025024414,-22640687.942504883,2820610.761642456,-8000726.699829102,-8642266.273498535,-12778882.026672363,-17501155.853271484,-715435.6241226196,-7815051.555633545,-17455747.604370117,-5369965.076446533,3066379.3087005615,2031937.599182129,-7504195.690155029,-11759088.516235352,-16292387.008666992,-1809827.0893096924,-6431504.249572754,-7291881.084442139,-9439953.804016113,1495851.5167236328,1339799.8809814453,99891.84886217117,9107622.146606445,53910.80677509308,-791568.5176849365,-1806939.6018981934,1018733.6206436157,988764.5244598389,8750740.051269531,4929513.931274414,7619828.701019287
0.155,-29658853.53088379,-40373805.99975586,-43136585.2355957,-22585647.583007812,-38571971.89331055,17130111.694335938,-15287966.72821045,-14074655.532836914,-17463497.161865234,-20699909.210205078,-26217638.01574707,-33009296.417236328,-75059364.31884766,-912552.2971153259,1262030.2438735962,-9175297.737121582,-12678868.293762207,-17168962.478637695,-18866764.068603516,-18439691.5435791,-17106884.002685547,-41090572.357177734,-20695468.90258789,10326940.536499023,-10196762.084960938,-2949197.292327881,-14634909.629821777,-11690103.530883789,-15768313.40789795,-15249023.4375,-32487697.60131836,-25765808.10546875,-6814381.5994262695,-15260942.459106445,-15753335.952758789,-15552012.44354248,-18760080.337524414,-2631407.7377319336,-10618558.883666992,-21560770.03479004,-11631860.733032227,-6605118.751525879,-7578119.277954102,-14758417.129516602,-14860030.174255371,-16211263.656616211,-1450461.3876342773,-8349214.553833008,-10453119.277954102,-14869211.196899414,-9848064.422607422,-9920852.661132812,-10807241.439819336,3606652.4982452393,-4407500.743865967,-4700663.5665893555,-7685689.449310303,-10130801.2008667,-10077660.56060791,732249.2003440857,-1980954.5278549194,-2737268.6862945557
0.16,-44552219.39086914,-51651168.82324219,-51802783.96606445,-37762222.29003906,-48759830.474853516,-2019651.6513824463,-30023202.896118164,-28987554.5501709,-31848617.553710938,-33361537.93334961,-37304443.359375,-40811759.94873047,-77904396.0571289,-17153865.814208984,-16516571.044921875,-23807529.44946289,-26782155.990600586,-31539863.58642578,-30147569.65637207,-28563203.811645508,-24760986.328125,-44466506.95800781,-35707859.03930664,-6426901.340484619,-23360958.099365234,-14637538.90991211,-26036617.279052734,-24191642.76123047,-24160554.885864258,-22218107.223510742,-36542224.8840332,-36254787.44506836,-18831493.377685547,-26537117.00439453,-27094169.61669922,-24116334.915161133,-27582958.221435547,-10970843.315124512,-16252479.553222656,-27681348.80065918,-20077495.574951172,-18752401.35192871,-19651266.09802246,-25989263.5345459,-21376615.524291992,-20983255.38635254,-7662813.663482666,-14303369.522094727,-15476042.747497559,-21705759.048461914,-19809707.641601562,-19759687.423706055,-20515010.833740234,-2516607.5229644775,-10209426.879882812,-9531514.167785645,-15474729.537963867,-19912887.573242188,-19871883.392333984,-9935260.772705078,-11861301.42211914,-14608466.148376465
0.165,-51936553.955078125,-56173465.728759766,-55003734.58862305,-45712837.21923828,-53567615.5090332,-13352967.262268066,-38004573.822021484,-37195735.931396484,-39669189.453125,-41290626.525878906,-43073600.76904297,-41958152.770996094,-77888404.8461914,-43100635.52856445,-26616859.436035156,-31228162.76550293,-34785968.78051758,-39479019.16503906,-38849048.61450195,-35966751.09863281,-27527322.76916504,-46176097.86987305,-57151744.8425293,-15926709.175109863,-30555913.9251709,-23622573.852539062,-35906764.98413086,-36281871.7956543,-31569528.579711914,-26528524.39880371,-39738967.89550781,-57587638.85498047,-24721910.47668457,-33268081.665039062,-33991203.30810547,-32588119.506835938,-37786952.97241211,-20440511.70349121,-22225879.669189453,-33390075.68359375,-32109828.94897461,-24775480.270385742,-25500783.920288086,-32607986.450195312,-26874464.03503418,-27783950.805664062,-17768634.796142578,-23010118.48449707,-23215341.567993164,-30398303.985595703,-23621112.823486328,-23562398.91052246,-24556911.46850586,-7088520.050048828,-17149457.931518555,-16429647.445678711,-24239519.119262695,-23866821.2890625,-23856800.079345703,-16462474.822998047,-20275148.391723633,-22797008.514404297
0.17,-48407249.450683594,-52684211.73095703,-53467102.05078125,-39684947.9675293,-51415134.42993164,-8282305.717468262,-32276741.02783203,-31526002.883911133,-34060459.13696289,-37390808.10546875,-39748390.197753906,-38754154.205322266,-83159149.16992188,-60991050.720214844,-21295818.328857422,-25645341.873168945,-29679277.420043945,-34093219.75708008,-36674495.697021484,-33986770.62988281,-24582157.135009766,-51567184.44824219,-70067436.21826172,-11023940.086364746,-25983875.274658203,-21039585.11352539,-34160091.400146484,-35439399.71923828,-30940803.52783203,-24872203.826904297,-45144683.837890625,-79079574.58496094,-21448839.18762207,-29737714.767456055,-30519176.483154297,-31772733.688354492,-38745395.66040039,-21851654.052734375,-22815851.21154785,-34548484.802246094,-43377822.87597656,-21595523.834228516,-22068986.892700195,-28957206.72607422,-25331619.262695312,-28373121.26159668,-21595251.083374023,-26821340.560913086,-27800331.115722656,-36256381.98852539,-21749208.450317383,-21778581.619262695,-23036703.10974121,-6545699.596405029,-20155162.811279297,-20682117.462158203,-28934047.69897461,-22349163.055419922,-22316331.86340332,-15591095.924377441,-22040628.43322754,-23891834.259033203
0.175,-38544879.91333008,-47562892.91381836,-52120651.24511719,-26466918.9453125,-48653739.92919922,9542520.523071289,-18454261.779785156,-17631183.624267578,-20735231.399536133,-27232906.341552734,-33502365.112304688,-37795238.49487305,-95229690.55175781,-61883552.55126953,-4167684.555053711,-11176413.536071777,-16287551.879882812,-20903745.651245117,-26178794.860839844,-25112014.770507812,-20873416.900634766,-61212364.196777344,-68971290.5883789,5165332.317352295,-12122963.905334473,-7102264.404296875,-20828865.05126953,-21472661.9720459,-23134443.283081055,-20328098.29711914,-52436138.15307617,-87132240.29541016,-10399573.32611084,-17120594.024658203,-17849056.243896484,-20030075.073242188,-28651857.376098633,-14079422.950744629,-17679546.356201172,-32116432.189941406,-48165657.04345703,-10581284.523010254,-10948422.4319458,-16337230.682373047,-15887981.414794922,-20197675.704956055,-14766581.535339355,-22209377.28881836,-24905447.006225586,-35651172.63793945,-14786505.699157715,-14878931.999206543,-16098237.991333008,-55967.75934100151,-15460539.817810059,-17745052.337646484,-26198169.708251953,-15584723.472595215,-15531226.15814209,-8385837.554931641,-16217100.143432617,-18407272.338867188
0.18,-25361312.866210938,-41166515.3503418,-49304958.34350586,-14906623.840332031,-46856563.568115234,30241418.838500977,-5603166.103363037,-4749902.725219727,-8577359.199523926,-19118801.11694336,-29260202.407836914,-38675876.61743164,-103860565.18554688,-53438892.36450195,15142222.40447998,4292267.322540283,-3442997.932434082,-8694323.539733887,-16231708.526611328,-16639823.913574219,-19258560.180664062,-67696723.93798828,-62812725.06713867,23846118.927001953,3529978.9905548096,9082883.834838867,-6276841.640472412,-6263318.5386657715,-15221027.374267578,-17718240.73791504,-55822559.35668945,-79874259.94873047,3965209.484100342,-2539051.7711639404,-3252795.934677124,-6252402.305603027,-16907817.840576172,-5261853.218078613,-12491537.094116211,-30745561.599731445,-44607860.56518555,3850981.4739227295,3277132.034301758,-1890287.8761291504,-5097552.77633667,-10640807.151794434,-4983251.571655273,-14932522.773742676,-18687091.827392578,-31007257.46154785,-4390441.417694092,-4437828.540802002,-5504696.846008301,7707137.584686279,-7267345.428466797,-10938595.77178955,-19766550.064086914,-5143165.588378906,-5125261.306762695,408684.4027042389,-8131884.574890137,-10924098.014831543
0.185,-10638796.80633545,-27708381.65283203,-37807468.41430664,-7107459.06829834,-39512195.5871582,42979942.321777344,2130465.030670166,2969908.9527130127,-1048297.2860336304,-13755056.381225586,-24213453.29284668,-34780879.974365234,-97773826.5991211,-45825569.15283203,26361034.393310547,14044767.379760742,4168445.110321045,-1066404.3426513672,-11428795.81451416,-11928747.177124023,-17052692.413330078,-62703392.028808594,-60308109.283447266,34975391.38793945,12898501.3961792,17305124.282836914,-447004.91428375244,-100651.94219350815,-11433533.668518066,-16596885.681152344,-48909919.73876953,-66914398.193359375,13745862.007141113,5374956.130981445,4625469.207763672,-650253.415107727,-12634897.232055664,-1944463.7298583984,-10560892.105102539,-31139444.35119629,-34469181.060791016,13793074.607849121,12895625.114440918,5908766.269683838,-976562.1423721313,-7859239.101409912,-1821134.328842163,-11839223.861694336,-15924144.744873047,-26661643.981933594,2787132.501602173,2858255.8631896973,1682985.9018325806,10414796.829223633,-3520674.705505371,-7924640.17868042,-16272670.74584961,2052406.3110351562,2074200.8686065674,4519828.319549561,-4422911.167144775,-6799622.535705566
0.19,-265219.86722946167,-9672677.040100098,-18814393.997192383,-2144628.0479431152,-24845586.7767334,42152980.80444336,4805284.50012207,5759626.388549805,2359917.8791046143,-7851407.051086426,-15530653.953552246,-24854202.270507812,-78913429.2602539,-41404712.67700195,24618228.912353516,14905021.667480469,6342564.105987549,2320444.5838928223,-9433012.962341309,-8824389.457702637,-11413986.206054688,-46961997.985839844,-60983772.27783203,33217060.089111328,12165683.74633789,14924286.842346191,-3482916.3551330566,-1955352.1871566772,-9502012.252807617,-12619967.460632324,-32774360.65673828,-58088966.369628906,12665736.198425293,3133203.7448883057,2452143.669128418,-4004275.321960449,-14490955.352783203,-1884129.8818588257,-8540099.143981934,-28479164.123535156,-21025466.918945312,12868753.433227539,11867439.270019531,3707901.2393951416,-4440907.001495361,-10455565.452575684,-4315299.987792969,-11625220.29876709,-16190525.05493164,-22701488.494873047,457476.1092662811,605230.0930023193,-862007.4391365051,7369047.164916992,-5593670.36819458,-10284366.607666016,-16574743.270874023,-429918.7958240509,-253864.91417884827,1578922.8677749634,-6069650.173187256,-7613625.049591064
0.195,-344017.1778202057,-891080.0218582153,-6187632.083892822,-1363051.0568618774,-13307222.366333008,33055652.618408203,3326936.0065460205,4589219.093322754,1944544.5537567139,-2663360.357284546,-7874809.265136719,-16251590.728759766,-61255035.400390625,-41019466.400146484,15310700.416564941,9383964.538574219,4551499.843597412,1808887.243270874,-6984571.933746338,-5002679.347991943,-4008556.365966797,-30184877.395629883,-63533233.642578125,23528957.36694336,5193862.438201904,8313948.631286621,-7763250.350952148,-3931495.428085327,-5947608.947753906,-4768688.201904297,-16670370.101928711,-57003658.294677734,4051409.7213745117,-4043114.66217041,-4523535.251617432,-8277607.9177856445,-14460290.908813477,419489.5625114441,-2598809.4806671143,-19923444.747924805,-9470520.01953125,4348887.4435424805,3435100.0785827637,-3359915.018081665,-8398220.06225586,-10235738.754272461,-3776039.1235351562,-8194407.4630737305,-13516671.180725098,-16939283.37097168,-7630384.922027588,-7511450.76751709,-9019543.647766113,4684250.831604004,-6942781.925201416,-11950032.234191895,-15700331.687927246,-8593886.375427246,-8207865.7150268555,-3524960.517883301,-8288279.5333862305,-10412613.868713379
0.2,-8412221.908569336,-9027598.38104248,-10359510.42175293,-5782755.374908447,-15132717.13256836,26725391.387939453,-691375.5536079407,885490.1194572449,-1752208.8289260864,-2741923.0937957764,-7628288.745880127,-14670050.621032715,-55194309.23461914,-48885402.67944336,8814373.016357422,3993369.5793151855,955868.661403656,-1913901.0906219482,-4659004.211425781,-1597109.5561981201,1582753.06224823,-20906217.575073242,-71602142.33398438,16501020.431518555,-138471.43948078156,4969765.186309814,-7954483.509063721,-2227058.172225952,-1568040.7285690308,2517700.1953125,-9002391.815185547,-62432785.03417969,-1757817.9836273193,-7802304.267883301,-8168924.331665039,-7549102.783203125,-9556056.97631836,4962657.451629639,4861783.027648926,-9943287.84942627,-5644842.624664307,-1358155.369758606,-2336643.695831299,-7127782.821655273,-6606876.373291016,-4195681.095123291,2823214.530944824,-874094.8438644409,-6735738.277435303,-10938372.611999512,-10951159.477233887,-10884957.313537598,-12078918.45703125,7541571.617126465,-3020367.14553833,-8708846.092224121,-11424010.276794434,-11679676.055908203,-11239166.259765625,-4037580.4901123047,-7340597.152709961,-11739561.080932617
0.205,-15104348.182678223,-22946842.193603516,-23215711.59362793,-12196440.696716309,-25432147.979736328,25998584.747314453,-4871723.651885986,-3217437.505722046,-6433547.496795654,-7992047.7867126465,-13201299.667358398,-16792495.727539062,-57324604.03442383,-62578006.744384766,7686966.896057129,2029695.987701416,-2437528.8486480713,-6543622.016906738,-5023042.678833008,-1141770.2436447144,4112685.6803894043,-19032325.744628906,-83736625.67138672,15331285.47668457,-1006556.510925293,5117496.013641357,-6506322.860717773,-637238.621711731,122357.5547337532,5010793.685913086,-9162727.355957031,-69746788.02490234,-566295.3853607178,-6471254.348754883,-6990833.282470703,-4998931.884765625,-5557372.093200684,6769716.262817383,8242137.908935547,-5241146.087646484,-9903416.633605957,-20380.286499857903,-1264908.6713790894,-5914297.580718994,-1553486.943244934,944377.601146698,8318880.081176758,4108130.931854248,-1868206.8586349487,-9015917.778015137,-6743164.0625,-6639090.538024902,-7563734.05456543,12974348.068237305,1962718.7252044678,-4135673.0461120605,-7898757.457733154,-7158797.740936279,-6840083.599090576,-285629.6896934509,-5057371.616363525,-11525052.070617676
0.21,-15278755.187988281,-25810508.728027344,-27241683.959960938,-16067710.876464844,-29788623.809814453,22731298.446655273,-8097683.906555176,-6656506.061553955,-9926537.51373291,-12618278.503417969,-16792358.3984375,-16235355.377197266,-57033893.58520508,-67325187.68310547,4504885.196685791,-134959.32519435883,-5355214.595794678,-9999832.153320312,-8422393.798828125,-3802148.5805511475,4662851.333618164,-18894901.275634766,-86882873.53515625,12793154.7164917,-2228881.359100342,3501233.8161468506,-8346695.899963379,-3648479.93850708,-1918574.6908187866,3745231.3899993896,-10217496.871948242,-71718452.45361328,837654.1137695312,-6040188.789367676,-6836270.332336426,-7025336.265563965,-8288108.825683594,3630578.04107666,6551011.085510254,-6391613.483428955,-14401052.474975586,1434355.4973602295,113727.67388820648,-5509761.333465576,-722282.8269004822,-2095154.7622680664,5662423.610687256,2564974.546432495,-2954093.4562683105,-11610127.449035645,-3938614.6068573,-3746493.8163757324,-4745229.244232178,13211210.250854492,1018600.2254486084,-3723364.83001709,-8971975.326538086,-4427639.961242676,-4188147.0680236816,562971.5919494629,-5636611.461639404,-12519950.866699219
0.215,-12167318.344116211,-15809912.68157959,-17251209.259033203,-16413387.298583984,-22593057.63244629,12554463.386535645,-10819429.397583008,-9726456.642150879,-12001897.811889648,-12399961.471557617,-14395596.504211426,-11899226.188659668,-49723857.87963867,-52574180.603027344,-4699116.230010986,-6279160.499572754,-8493155.479431152,-12058961.868286133,-12094058.990478516,-6714316.368103027,4882214.546203613,-16647121.42944336,-71596931.45751953,4196654.319763184,-7772564.888000488,-1512781.023979187,-12949047.088623047,-9467720.031738281,-4771358.013153076,3059978.723526001,-8206240.653991699,-64351058.95996094,-4108180.522918701,-10639852.523803711,-11508246.421813965,-13371718.406677246,-14961485.862731934,-554909.7061157227,4352996.349334717,-7852454.662322998,-11697819.709777832,-3695421.9341278076,-4724473.95324707,-9956874.84741211,-6288718.700408936,-11201994.895935059,-2225169.6586608887,-1987026.333808899,-6249006.271362305,-14563669.204711914,-10289178.848266602,-10106197.357177734,-11312181.47277832,5456316.4710998535,-6189923.7632751465,-7427632.3318481445,-12681653.022766113,-11305405.616760254,-10948332.786560059,-6111957.550048828,-10493730.545043945,-17381313.32397461
0.22,-9700695.037841797,-4837243.08013916,-4051047.3251342773,-14827472.686767578,-11737993.240356445,4061871.05178833,-12376568.794250488,-11553312.301635742,-12628539.085388184,-8826062.202453613,-8982839.584350586,-6593589.782714844,-40077247.619628906,-29492883.682250977,-12632195.472717285,-12711391.44897461,-10719481.468200684,-12645353.317260742,-12891298.294067383,-6693617.343902588,6721505.165100098,-12309717.178344727,-48990474.700927734,-4076629.638671875,-13772561.073303223,-5083889.007568359,-15078600.883483887,-12375148.77319336,-4980780.124664307,5291935.920715332,-5155747.413635254,-52977386.474609375,-12164967.53692627,-16580499.649047852,-17201637.268066406,-17405759.811401367,-17737062.454223633,-749555.2897453308,5323220.252990723,-5553218.364715576,-4531283.855438232,-12053055.763244629,-12840487.480163574,-15731787.68157959,-12476535.79711914,-17636293.411254883,-6686669.34967041,-3597113.847732544,-6467957.973480225,-15402822.494506836,-22318023.681640625,-22245019.912719727,-23449834.8236084,-4684491.157531738,-13562152.862548828,-11341855.0491333,-15420620.918273926,-23850994.110107422,-23301836.013793945,-17078918.45703125,-17886262.893676758,-26860553.741455078
0.225,-6588514.804840088,350100.6066799164,2879994.8692321777,-11572299.95727539,-5192623.138427734,6396165.370941162,-10444035.530090332,-9679167.747497559,-10395849.227905273,-5009766.101837158,-4138214.588165283,-1244523.525238037,-34002475.73852539,-19279659.271240234,-12032816.886901855,-12550355.911254883,-9310369.491577148,-10415928.840637207,-10022653.579711914,-3103470.0870513916,11515013.694763184,-7004126.54876709,-39652538.29956055,-4685055.732727051,-14049938.201904297,-3204589.605331421,-12379445.07598877,-10331568.717956543,-1963393.4497833252,9002633.094787598,-3395495.653152466,-47050720.21484375,-16542463.302612305,-18302536.010742188,-18596828.46069336,-15416623.11553955,-14107491.493225098,3589686.155319214,8384308.815002441,-1023653.2688140869,-1335733.0560684204,-16579433.44116211,-17569143.295288086,-17459566.116333008,-13549783.706665039,-16800588.607788086,-4465666.2940979,-1225967.288017273,-4005095.4818725586,-15389981.269836426,-31609167.098999023,-31558668.13659668,-32571979.522705078,-10066478.729248047,-16279993.057250977,-13397724.151611328,-17269153.594970703,-33185916.900634766,-32593681.33544922,-26073677.06298828,-25244789.123535156,-38969673.15673828
0.23,-726833.7607383728,4669908.046722412,6441102.027893066,-6152201.175689697,-1431785.3450775146,14866008.758544922,-4812316.417694092,-3898909.568786621,-4961693.76373291,-1244254.9467086792,379206.95543289185,4859518.527984619,-31757646.560668945,-25108976.364135742,-7508484.363555908,-6236401.557922363,-4084833.1451416016,-5133053.779602051,-5270494.9378967285,1976922.5120544434,17775514.602661133,-1465960.2642059326,-46457756.04248047,-1137840.3902053833,-9552158.35571289,1513393.0444717407,-8173385.6201171875,-6812897.682189941,2284493.4463500977,11839886.665344238,-1111774.8022079468,-47717140.197753906,-17074745.178222656,-16155151.3671875,-16361938.4765625,-10960576.057434082,-9203487.396240234,9147936.820983887,10952151.29852295,2483273.983001709,-2925840.139389038,-17030513.763427734,-18393236.16027832,-15443858.14666748,-10578352.928161621,-12248428.344726562,-102768.39137077332,1942001.3427734375,-2053756.2370300293,-14512752.532958984,-35313804.626464844,-35084011.07788086,-35967632.29370117,-9786496.16241455,-14800774.574279785,-13765519.142150879,-19291566.848754883,-36478034.97314453,-36031391.14379883,-30209201.81274414,-29938446.044921875,-48969291.68701172
0.235,5151755.332946777,11619173.049926758,12002593.040466309,-848352.313041687,3450774.1928100586,18237966.537475586,384924.5011806488,1514753.6993026733,310047.56689071655,2964445.3525543213,5039438.724517822,9757657.051086426,-30516735.076904297,-28679620.74279785,-7899346.351623535,-1841315.0310516357,780620.5153465271,-75789.6825671196,-1478275.4182815552,5711906.433105469,21380001.068115234,2453075.170516968,-50997863.76953125,-1474373.2213974,-7078177.452087402,3895315.170288086,-6211302.280426025,-5429059.982299805,5355229.85458374,13045411.109924316,3679830.0743103027,-46348323.822021484,-17949550.62866211,-14595186.233520508,-14993095.397949219,-9140499.114990234,-7835646.629333496,12769472.122192383,12487604.141235352,4410032.749176025,-1387166.5000915527,-17771141.052246094,-19157068.252563477,-13951576.232910156,-8601739.883422852,-9603998.184204102,1423628.6878585815,3692393.0644989014,-613417.0889854431,-10292385.10131836,-35918121.337890625,-35438575.744628906,-36346523.28491211,-8888795.852661133,-12317260.7421875,-12302797.317504883,-19407320.022583008,-36599075.31738281,-36325820.92285156,-30434837.341308594,-30173648.834228516,-52619689.94140625
0.24,6083425.998687744,14912750.244140625,15906396.865844727,27577.200904488564,6466732.025146484,14700918.197631836,479556.23269081116,1704876.5420913696,824414.4320487976,5220496.654510498,6783788.681030273,9498978.614807129,-30030393.600463867,-17937969.207763672,-12846698.760986328,-4489780.902862549,773580.7299613953,383862.2570037842,-1028122.5442886353,6170670.509338379,19595849.990844727,2373912.811279297,-40835601.806640625,-5695741.653442383,-9957279.205322266,2486826.6582489014,-6623896.598815918,-6417988.300323486,5626091.957092285,12794506.072998047,8236907.005310059,-38155311.584472656,-19751653.67126465,-15737723.350524902,-16331871.032714844,-10873950.004577637,-9143040.657043457,13036760.330200195,13135921.478271484,5596480.369567871,6371505.260467529,-19550428.39050293,-20631399.154663086,-15027533.531188965,-10274561.882019043,-10712588.3102417,-381197.0353126526,3735760.6887817383,1595677.2565841675,-4039656.162261963,-35548206.3293457,-34932521.82006836,-35928756.71386719,-11991151.809692383,-11834679.60357666,-9815350.532531738,-16317823.41003418,-36001556.396484375,-35773609.16137695,-29445838.928222656,-28019866.943359375,-51543647.76611328
0.245,1104755.4016113281,8918838.500976562,11666199.684143066,-4590481.758117676,2218722.5818634033,10762351.036071777,-4304961.204528809,-3182823.896408081,-3910503.625869751,2405277.0137786865,2549664.9742126465,3592660.665512085,-32020092.010498047,-4648540.97366333,-15973835.945129395,-10538782.119750977,-3886693.9544677734,-4193875.789642334,-4502702.236175537,3022078.275680542,14126123.428344727,-933510.422706604,-27682462.692260742,-8238029.479980469,-14820187.56866455,-853234.6487045288,-8255196.571350098,-8828355.78918457,2805823.0876922607,11016119.956970215,8451475.143432617,-30466976.165771484,-20311887.741088867,-18426265.716552734,-18954463.958740234,-14437854.766845703,-10614950.180053711,9806188.583374023,11917415.618896484,5583816.5283203125,12484185.218811035,-20185195.922851562,-21062877.655029297,-17631818.771362305,-14420888.900756836,-14430095.672607422,-3963957.3097229004,1435211.420059204,2340799.8085021973,-2260638.2369995117,-35261718.75,-34630870.8190918,-35727306.3659668,-18578207.01599121,-15180374.145507812,-9741419.792175293,-14405016.899108887,-35793338.775634766,-35470302.58178711,-30479814.529418945,-29042989.73083496,-52542648.31542969
0.25,-5771414.756774902,-151661.7387533188,2632513.2846832275,-10225335.121154785,-6768173.694610596,8378783.226013184,-8828784.942626953,-7883718.490600586,-9062386.512756348,-3797250.270843506,-4974573.612213135,-3176848.888397217,-35071784.97314453,-5544895.648956299,-16864782.333374023,-13691105.842590332,-8304867.744445801,-9180881.50024414,-9428568.840026855,-1707511.5442276,9461286.544799805,-2357996.940612793,-29350135.803222656,-8852182.388305664,-17275186.53869629,-4215300.0831604,-10866658.210754395,-12003301.620483398,-950890.6602859497,8567688.941955566,6236129.7607421875,-31632402.420043945,-20340873.71826172,-21263923.64501953,-21506357.192993164,-18421247.482299805,-12422084.80834961,5029771.327972412,9208921.432495117,4321937.561035156,10777422.904968262,-20321182.250976562,-21183210.372924805,-20477373.123168945,-18270633.697509766,-18981313.705444336,-8147873.878479004,-3071472.8832244873,-792468.1305885315,-7039412.498474121,-36447830.20019531,-35847476.959228516,-37036441.802978516,-23677764.892578125,-21179372.787475586,-13746237.754821777,-18007236.48071289,-37234714.50805664,-36771884.91821289,-34633979.79736328,-35011390.686035156,-58207599.63989258
0.255,-9929011.344909668,-1516939.401626587,-892461.4787101746,-11475397.109985352,-11522702.21710205,3795598.7453460693,-8573025.703430176,-7669277.667999268,-9486421.585083008,-7266896.724700928,-8999618.530273438,-5583392.62008667,-34771671.295166016,-17045886.993408203,-19928899.76501465,-12802271.842956543,-7960330.009460449,-9607814.78881836,-11386927.604675293,-4102904.796600342,8819499.015808105,2134123.8021850586,-43190353.39355469,-11538354.873657227,-16695980.072021484,-5607974.052429199,-13066973.686218262,-13541958.808898926,-1656533.3604812622,8067111.968994141,8086336.135864258,-37367633.81958008,-21843484.87854004,-23031196.59423828,-23066415.786743164,-20734434.127807617,-14661871.910095215,2907011.7473602295,8593508.72039795,4367374.897003174,7611104.965209961,-21953273.77319336,-22700538.635253906,-22296409.606933594,-18993398.666381836,-21626077.65197754,-10719147.682189941,-6278149.127960205,-4172825.336456299,-10578614.234924316,-38460700.98876953,-37967048.64501953,-39132507.32421875,-22344722.747802734,-24911453.247070312,-17226991.653442383,-22874980.926513672,-39511379.24194336,-38971202.8503418,-38019332.88574219,-39342578.88793945,-61569988.25073242
0.26,-10320599.555969238,5002223.968505859,3623955.9650421143,-8509673.118591309,-8678436.279296875,-3331086.3971710205,-4836806.774139404,-3775493.621826172,-5786800.384521484,-5181231.0218811035,-6940408.229827881,-3495665.5502319336,-30147708.892822266,-22229606.62841797,-24727272.033691406,-11763197.898864746,-3796742.2008514404,-6003777.503967285,-8850218.772888184,-2256642.1031951904,11497972.48840332,9538382.530212402,-51253410.33935547,-15653639.793395996,-15319428.443908691,-3350739.002227783,-12400226.593017578,-10593942.642211914,2074195.8618164062,10712844.848632812,14997566.223144531,-37114345.55053711,-23384212.493896484,-22376024.24621582,-22480373.38256836,-18858367.919921875,-14756396.293640137,5661798.000335693,12260665.893554688,7272063.255310059,11775144.577026367,-23616794.58618164,-24139419.555664062,-21611557.006835938,-15459266.662597656,-19564889.907836914,-8959532.737731934,-4502540.588378906,-2096400.9761810303,-6002216.815948486,-37890991.2109375,-37628112.79296875,-38584644.31762695,-14211394.309997559,-22337205.88684082,-14578932.762145996,-21054548.263549805,-39053997.03979492,-38543777.46582031,-35353965.759277344,-35086669.921875,-55477348.32763672
0.265,-10635560.989379883,8429098.129272461,7061301.231384277,-7824155.807495117,-5252807.140350342,-10877555.847167969,-4347744.464874268,-3083771.228790283,-4743886.947631836,-2912266.254425049,-4346672.058105469,-1649667.9782867432,-26246315.002441406,-18251497.268676758,-28312093.73474121,-14789053.916931152,-2483855.0090789795,-4963887.2146606445,-6697520.732879639,-29485.786333680153,13399993.896484375,12328105.926513672,-48651611.328125,-18320232.391357422,-16156042.098999023,-279316.7531490326,-10591527.938842773,-6000500.679016113,5595902.442932129,12980329.513549805,19185852.05078125,-31612243.65234375,-23365720.748901367,-20776573.181152344,-21094120.025634766,-14635810.852050781,-12220135.688781738,9166435.241699219,16094581.604003906,9162658.69140625,18902772.903442383,-23629217.14782715,-24151432.037353516,-19887022.018432617,-10873483.657836914,-14060589.790344238,-4178194.046020508,-85267.90142059326,3268420.934677124,624245.8820343018,-34355854.03442383,-34316017.150878906,-35048648.834228516,-4255550.384521484,-16037858.963012695,-8319748.878479004,-14055979.72869873,-35391937.255859375,-34976028.44238281,-28010112.762451172,-25866426.467895508,-44992252.349853516
0.27,-16301464.080810547,911986.4702224731,1218084.8121643066,-15144802.09350586,-9207859.03930664,-21639070.510864258,-12254581.451416016,-10927778.244018555,-12068307.876586914,-7748602.390289307,-8284564.971923828,-4531180.381774902,-28216493.606567383,-19352439.880371094,-33790611.267089844,-22590051.651000977,-9743133.544921875,-12161790.84777832,-11414925.575256348,-3674151.4205932617,10435916.900634766,7166811.943054199,-49555286.4074707,-22561031.341552734,-21049894.332885742,-3133329.8683166504,-13816544.532775879,-7834115.505218506,2533977.98538208,9785643.577575684,14341220.85571289,-32638679.50439453,-24912279.12902832,-22768558.502197266,-23169277.19116211,-14708638.191223145,-12180073.738098145,6622017.383575439,13932147.026062012,4793992.99621582,17311407.0892334,-25087820.053100586,-25863046.646118164,-21795553.20739746,-10900724.411010742,-10948056.2210083,-2016917.4671173096,335613.9659881592,3379493.236541748,-2085150.2418518066,-32998840.33203125,-32973209.381103516,-33717182.15942383,1713919.0435409546,-12639064.78881836,-6752161.026000977,-12185278.89251709,-33758762.35961914,-33408103.942871094,-23619882.583618164,-22116092.681884766,-42195354.46166992
0.275,-28054079.055786133,-13348232.26928711,-11147804.260253906,-27497291.564941406,-19285848.61755371,-37541332.24487305,-24624889.373779297,-23379674.911499023,-24303287.506103516,-18426908.493041992,-17937284.469604492,-11608171.463012695,-35190380.09643555,-31738729.47692871,-44232032.775878906,-30439229.96520996,-22136032.104492188,-24269355.77392578,-21654161.45324707,-12996475.219726562,3134271.6217041016,-1621549.367904663,-61809303.283691406,-31490407.943725586,-27300168.991088867,-12586776.733398438,-23127849.578857422,-17923440.93322754,-6533697.128295898,1803720.9510803223,4665371.417999268,-43692741.39404297,-30179746.627807617,-28879297.256469727,-29174449.920654297,-21594890.594482422,-18359327.31628418,-2245604.5150756836,6610211.372375488,-3967108.964920044,7141871.929168701,-30214485.16845703,-31094018.936157227,-27983419.41833496,-16406337.73803711,-14020703.315734863,-5237717.151641846,-4865668.773651123,-3739714.1456604004,-13225265.502929688,-36421516.41845703,-36237251.28173828,-37210227.966308594,2357464.7903442383,-14098744.39239502,-11857773.780822754,-18565095.901489258,-37007164.001464844,-36632255.55419922,-25202684.40246582,-26115842.819213867,-48347042.083740234
0.28,-38175376.892089844,-23786169.052124023,-21148038.864135742,-34142665.86303711,-27057497.024536133,-48214309.69238281,-30008474.349975586,-28845384.59777832,-30186761.8560791,-24759702.682495117,-24607662.200927734,-17711765.28930664,-42600337.982177734,-41442588.806152344,-50509174.34692383,-30166751.861572266,-27963090.896606445,-30137941.360473633,-27340536.11755371,-19384912.490844727,-2772925.1384735107,-8365906.715393066,-71189254.76074219,-36769493.103027344,-27554206.84814453,-18193885.803222656,-29183721.5423584,-25584226.608276367,-13218390.464782715,-4046528.8162231445,-1238274.335861206,-51919616.69921875,-32921546.936035156,-31731342.315673828,-31931070.32775879,-27901132.583618164,-25317615.509033203,-9497045.516967773,1751195.0731277466,-9173624.038696289,1598533.272743225,-32806407.928466797,-33502601.623535156,-31014881.134033203,-20926956.176757812,-19944162.368774414,-9494048.118591309,-9608349.800109863,-9692066.192626953,-19870119.094848633,-38649925.231933594,-38401298.52294922,-39537467.95654297,602042.555809021,-15983103.75213623,-16336137.771606445,-23241453.170776367,-39349948.88305664,-38878898.62060547,-26318439.483642578,-28729646.682739258,-50971565.24658203
0.285,-37459724.42626953,-24230449.676513672,-24025339.126586914,-28048353.19519043,-26959314.346313477,-40868816.37573242,-21908847.80883789,-20752906.799316406,-23028150.55847168,-19559814.453125,-21812345.504760742,-18194801.330566406,-47678413.39111328,-36744850.158691406,-40804367.06542969,-18654659.271240234,-20190494.537353516,-23056673.049926758,-21437183.380126953,-15930020.332336426,-2078787.5652313232,-12250688.552856445,-62797088.623046875,-27504144.6685791,-18217836.380004883,-10926092.147827148,-23538188.934326172,-20050415.0390625,-11266686.43951416,-3041200.876235962,-2157242.0597076416,-46564838.40942383,-26290510.177612305,-25484600.067138672,-25736366.271972656,-25451013.565063477,-24612668.991088867,-8751811.027526855,3546411.0374450684,-7577119.827270508,6641262.054443359,-26019521.713256836,-26637556.076049805,-24879102.70690918,-19054460.525512695,-22838581.085205078,-9742098.808288574,-9223483.085632324,-8408195.495605469,-16310945.510864258,-33909759.521484375,-33826602.935791016,-34875995.63598633,-1296862.6022338867,-15710844.993591309,-15310745.239257812,-18722751.61743164,-34900527.95410156,-34327854.15649414,-21618724.822998047,-24207592.010498047,-43018684.38720703
0.29,-27335306.16760254,-17098596.572875977,-21263038.635253906,-15522163.391113281,-21284284.591674805,-23373075.485229492,-8410167.694091797,-7276197.43347168,-10225190.162658691,-7957014.083862305,-12997345.924377441,-13685601.234436035,-49929965.97290039,-29495107.650756836,-23239486.694335938,-4758153.438568115,-6819311.618804932,-10310054.779052734,-9706916.809082031,-6859174.728393555,3803901.9107818604,-15034432.411193848,-46714466.0949707,-11422854.42352295,-7175214.767456055,2091831.4456939697,-12185787.200927734,-6251948.833465576,-4332827.091217041,1573571.3243484497,-3392794.370651245,-36113929.748535156,-16606733.322143555,-16613212.585449219,-16924350.73852539,-17668273.92578125,-17557670.59326172,-3179401.8745422363,7667715.072631836,-4993299.0074157715,11541254.997253418,-16269231.796264648,-17143157.958984375,-15977778.434753418,-14500589.370727539,-21956226.348876953,-7719213.485717773,-7387704.849243164,-5402453.899383545,-12379517.555236816,-27729053.497314453,-27856834.411621094,-28673028.94592285,-3827715.3968811035,-17033121.10900879,-13930179.595947266,-12722676.277160645,-28851373.67248535,-28251104.3548584,-16678623.19946289,-19915542.602539062,-35268165.588378906
0.295,-20302944.18334961,-10452530.860900879,-17044191.360473633,-10504487.037658691,-16837364.196777344,-20061906.814575195,-4344280.242919922,-3348362.684249878,-5976417.541503906,-1909529.5667648315,-7755891.799926758,-9926740.646362305,-49934329.986572266,-39760795.59326172,-21207649.23095703,-1809404.2539596558,-2828368.902206421,-6004847.526550293,-4422178.268432617,-2754162.549972534,8000075.340270996,-16897806.16760254,-45718261.71875,-10309781.074523926,-6461520.195007324,5048924.446105957,-9162118.911743164,386121.86908721924,-920175.5523681641,3380145.0729370117,-6626595.497131348,-36493186.950683594,-17902807.235717773,-17060609.817504883,-17232610.70251465,-15500811.576843262,-14184181.213378906,-496339.49995040894,8327142.715454102,-7489119.052886963,5681101.322174072,-17734077.45361328,-18823089.599609375,-16350152.969360352,-14798193.93157959,-21205854.415893555,-8577517.50946045,-9858819.007873535,-8634875.297546387,-17807596.20666504,-30523187.6373291,-30672178.268432617,-31304742.81311035,-7181154.251098633,-23076137.54272461,-18413717.26989746,-16713050.842285156,-31441352.84423828,-30953695.29724121,-20349969.8638916,-24976419.44885254,-41121494.29321289
0.3,-24931339.263916016,-11289026.260375977,-15803051.948547363,-18207113.26599121,-18678789.138793945,-38166061.40136719,-13339898.109436035,-12536615.371704102,-14237251.281738281,-6685297.012329102,-11380142.211914062,-12338639.259338379,-50466453.552246094,-65556098.93798828,-40230342.864990234,-11284386.63482666,-11665005.683898926,-14132660.865783691,-9715686.798095703,-7587169.170379639,5680500.507354736,-17789888.381958008,-61978397.369384766,-28890535.354614258,-16380393.981933594,-4722177.982330322,-17366975.784301758,-5682875.633239746,-3808325.0522613525,759723.7825393677,-7918307.304382324,-47482643.127441406,-31236524.58190918,-27140911.102294922,-27040943.145751953,-21770072.93701172,-18788743.97277832,-2787385.2252960205,6023586.273193359,-12907787.322998047,-5088426.113128662,-31405590.057373047,-32311244.96459961,-26419492.721557617,-20009668.350219727,-22443925.857543945,-12347120.28503418,-15124794.960021973,-15693839.073181152,-27290775.299072266,-41612987.51831055,-41628990.173339844,-42196556.091308594,-9384482.383728027,-29663944.244384766,-25219131.469726562,-27587099.075317383,-42226463.317871094,-41966850.28076172,-30806640.625,-35459732.05566406,-55923381.80541992
0.305,-34872100.830078125,-19174539.56604004,-20047941.207885742,-28759323.120117188,-26211187.3626709,-55022243.49975586,-23409292.221069336,-22687309.26513672,-24097904.205322266,-16078460.693359375,-19967500.686645508,-20409963.607788086,-55240394.592285156,-84277664.18457031,-56824977.87475586,-20207599.639892578,-21167491.912841797,-23951860.427856445,-18013587.951660156,-15086952.209472656,-1131347.5370407104,-19638732.91015625,-74222267.1508789,-44813896.17919922,-24121154.78515625,-12910174.369812012,-25021146.774291992,-14047391.891479492,-8329847.33581543,-2892600.5363464355,-5929314.613342285,-53797824.85961914,-41088722.229003906,-34182609.55810547,-33975399.017333984,-27548105.239868164,-24191728.591918945,-5647537.2314453125,4832700.252532959,-15281155.586242676,-8225904.46472168,-41438663.482666016,-42036148.07128906,-33492912.29248047,-22891300.201416016,-23387237.548828125,-14136241.912841797,-17003690.719604492,-17902935.028076172,-29303476.333618164,-48800479.888916016,-48750427.24609375,-49336791.9921875,-9084845.542907715,-30759099.96032715,-26349494.93408203,-31764568.328857422,-49389690.39916992,-49301448.822021484,-37231697.08251953,-39663593.29223633,-62903606.41479492
0.31,-38187950.134277344,-26139713.287353516,-26701719.284057617,-30142755.50842285,-33246486.66381836,-50027858.73413086,-23183198.928833008,-22363975.524902344,-24499618.530273438,-20838682.174682617,-25324651.71813965,-27342578.887939453,-61928203.58276367,-83890472.41210938,-51485263.82446289,-18620933.532714844,-20468423.84338379,-24536233.90197754,-20902544.021606445,-17785343.170166016,-6141767.978668213,-22075855.255126953,-70142906.18896484,-40006240.84472656,-21307916.64123535,-9329154.014587402,-23386695.861816406,-14582245.826721191,-9803150.177001953,-4628453.254699707,-4117818.832397461,-49023975.37231445,-37416770.935058594,-30707445.14465332,-30694335.9375,-25972541.80908203,-23272100.4486084,-5880586.624145508,5642091.751098633,-13687545.776367188,-3944717.8840637207,-37597023.010253906,-38188953.3996582,-30007183.074951172,-20345720.291137695,-22219820.022583008,-12173626.899719238,-14503767.967224121,-14128965.377807617,-23698862.075805664,-45857360.83984375,-45877567.291259766,-46523494.720458984,-7933330.535888672,-27690851.21154785,-22275365.829467773,-25642658.233642578,-46737548.828125,-46563949.58496094,-34952823.638916016,-35256095.88623047,-57150348.66333008
0.315,-33983402.252197266,-25773057.93762207,-28877006.53076172,-23487470.626831055,-33494338.989257812,-33572303.771972656,-16502286.911010742,-15520130.157470703,-18239831.924438477,-18691528.3203125,-23360477.447509766,-26561576.84326172,-61526752.47192383,-77128623.96240234,-36406459.80834961,-12699357.032775879,-14080246.925354004,-18581069.946289062,-18447231.29272461,-15123109.817504883,-5014342.308044434,-20035638.8092041,-63469699.85961914,-26405986.785888672,-15253004.07409668,-1975479.245185852,-18438859.939575195,-10322213.172912598,-8400763.511657715,-4149048.328399658,-3960438.9667510986,-44826259.61303711,-29848615.646362305,-24732412.338256836,-24998933.792114258,-21721055.98449707,-18958539.962768555,-5030279.159545898,6273224.830627441,-12061211.585998535,-3734943.8667297363,-29743230.81970215,-30493701.934814453,-23981180.19104004,-17875383.377075195,-20355339.05029297,-10185695.64819336,-12936467.170715332,-12124629.020690918,-20936800.003051758,-40870147.705078125,-40922790.52734375,-41618164.0625,-8022836.685180664,-27049123.764038086,-21441175.46081543,-20445688.247680664,-41966266.63208008,-41468494.4152832,-30442972.18322754,-31428981.78100586,-50900211.334228516
0.32,-32431755.06591797,-21792106.62841797,-25137220.38269043,-20344520.568847656,-28261814.11743164,-28796726.22680664,-15466176.03302002,-14416780.471801758,-16566907.88269043,-15116699.21875,-17893550.872802734,-19703180.31311035,-51502052.307128906,-80364265.44189453,-35002788.54370117,-14383580.207824707,-13806769.371032715,-17051349.639892578,-16365802.764892578,-11827339.172363281,518933.5346221924,-11966209.411621094,-70590591.43066406,-26098815.91796875,-17363170.623779297,-3575465.9175872803,-20008279.80041504,-9641698.837280273,-6897388.935089111,-2391857.624053955,-3194630.3844451904,-51967128.75366211,-32185230.255126953,-27040725.708007812,-27392883.30078125,-22741506.576538086,-18235305.786132812,-5368317.127227783,5751893.520355225,-12919295.310974121,-12024192.810058594,-32051589.965820312,-32705287.93334961,-26284761.428833008,-20764596.939086914,-19946710.58654785,-11335064.888000488,-15638764.381408691,-16570089.340209961,-26246086.12060547,-43398014.068603516,-43296810.150146484,-43966083.52661133,-9047369.003295898,-30948881.149291992,-27547267.91381836,-25079631.805419922,-44311008.45336914,-43526103.97338867,-30404148.10180664,-34336204.528808594,-54004577.63671875
0.325,-38899620.056152344,-23352214.813232422,-23389848.709106445,-26473049.16381836,-26456157.684326172,-36120597.83935547,-22934162.139892578,-21948642.73071289,-23138753.89099121,-16044761.657714844,-16521139.144897461,-16297367.095947266,-44605941.77246094,-91632843.01757812,-45930072.78442383,-23275928.497314453,-21430711.74621582,-23447458.267211914,-17841232.299804688,-11726621.627807617,4025986.1946105957,-7242483.615875244,-84673736.57226562,-37454967.4987793,-26223325.729370117,-12360947.608947754,-26743320.46508789,-12952451.705932617,-7044158.458709717,-1052202.4631500244,-2694474.935531616,-63606807.708740234,-41543025.970458984,-35284053.802490234,-35550380.70678711,-28335491.180419922,-21350793.838500977,-6459183.692932129,4634601.11618042,-15660848.617553711,-20248891.830444336,-41647670.74584961,-42019058.22753906,-34622234.34448242,-26240396.49963379,-21124450.68359375,-14116778.373718262,-19849634.170532227,-22996278.762817383,-33552291.870117188,-50539661.4074707,-50213287.353515625,-50762828.8269043,-9755327.224731445,-34823844.90966797,-34450473.78540039,-33936695.09887695,-51028739.92919922,-50233081.81762695,-32959148.406982422,-39054599.76196289,-60570354.46166992
0.33,-46346019.74487305,-31825714.111328125,-30251262.664794922,-34852306.3659668,-33529411.31591797,-36587055.20629883,-29734720.23010254,-28831762.313842773,-30139183.044433594,-21412864.685058594,-22276483.5357666,-22907888.412475586,-54135803.22265625,-98548469.54345703,-48237491.607666016,-28116619.110107422,-27439846.03881836,-30113878.25012207,-21010917.66357422,-14904645.919799805,763712.5253677368,-15746192.932128906,-87202186.58447266,-40478275.299072266,-30579759.59777832,-16176042.556762695,-29688718.795776367,-14470949.172973633,-8897499.084472656,-2307762.622833252,-6972333.908081055,-66096420.28808594,-44204109.19189453,-38614894.86694336,-38880977.630615234,-31472414.016723633,-23008152.00805664,-6893138.885498047,2727753.4008026123,-19342226.028442383,-20345874.786376953,-44477943.420410156,-44833263.3972168,-38118797.302246094,-28204263.68713379,-22625030.517578125,-15767463.684082031,-21936355.590820312,-25502410.888671875,-35856765.74707031,-52682132.720947266,-52314445.49560547,-52711975.09765625,-10444828.987121582,-35265987.396240234,-35742015.83862305,-37064811.70654297,-52946422.5769043,-52339904.78515625,-33379173.278808594,-39173110.96191406,-60666202.545166016
0.335,-46939155.57861328,-38743301.39160156,-40416751.861572266,-36942707.06176758,-43290954.58984375,-25309854.50744629,-29356113.43383789,-28435968.39904785,-30852563.858032227,-26235540.39001465,-30087553.024291992,-34385173.79760742,-73094078.06396484,-97886016.84570312,-36759937.28637695,-24775423.049926758,-26254713.05847168,-30626909.255981445,-22989105.224609375,-19002864.837646484,-6972975.254058838,-31538639.068603516,-76343696.59423828,-30364875.79345703,-26811952.590942383,-11782590.866088867,-26940000.534057617,-13154169.082641602,-11547878.26538086,-6324525.356292725,-15036488.53302002,-59026695.251464844,-37504703.521728516,-34420192.71850586,-34873397.82714844,-30048730.850219727,-21618753.43322754,-6756161.212921143,-213997.20013141632,-23059413.90991211,-15486094.47479248,-37694435.119628906,-38355113.9831543,-34090873.71826172,-26315361.02294922,-23677028.65600586,-16343387.603759766,-22340751.64794922,-24729904.174804688,-34368816.37573242,-48716899.87182617,-48564342.4987793,-48846126.556396484,-12224401.473999023,-34854598.99902344,-33490028.381347656,-34980785.36987305,-49136066.43676758,-48651332.85522461,-32890567.779541016,-37107021.33178711,-56160205.84106445
0.34,-43415439.60571289,-38317314.14794922,-43352031.70776367,-34225921.630859375,-45438198.08959961,-18262573.2421875,-26655368.80493164,-25627603.53088379,-28589630.126953125,-26655563.354492188,-32512432.098388672,-39541397.09472656,-80361503.60107422,-95489822.38769531,-28956401.824951172,-21845972.061157227,-23590946.197509766,-28397556.30493164,-23015048.98071289,-21145112.991333008,-11916518.211364746,-37257278.44238281,-67465934.75341797,-23633960.723876953,-23344003.677368164,-8428577.423095703,-25362596.51184082,-13313095.092773438,-13205767.631530762,-9589166.641235352,-18210384.368896484,-53277256.01196289,-32529922.485351562,-30815490.72265625,-31439510.345458984,-28778036.11755371,-20587997.436523438,-6433165.550231934,-2206573.963165283,-24458341.598510742,-12973392.486572266,-32587326.049804688,-33426639.556884766,-30546194.076538086,-25048604.96520996,-23944797.51586914,-16814668.655395508,-22741554.260253906,-24324123.38256836,-33850513.45825195,-46332946.77734375,-46439727.783203125,-46652217.864990234,-14341267.585754395,-36490962.982177734,-33085578.91845703,-35083152.770996094,-47010097.50366211,-46492294.31152344,-35329906.46362305,-38526798.248291016,-55586139.67895508
0.345,-43160106.65893555,-35439025.87890625,-38524566.650390625,-34157093.0480957,-39781597.13745117,-23918838.500976562,-28919122.69592285,-27820501.32751465,-30055303.5736084,-24277755.737304688,-28819530.487060547,-35241348.26660156,-68979003.90625,-93611213.68408203,-34895706.17675781,-26353624.34387207,-26356456.756591797,-29988775.2532959,-22289161.682128906,-20153575.897216797,-10263931.274414062,-27162134.170532227,-69259727.47802734,-29639995.574951172,-26711267.471313477,-12454532.623291016,-28888544.0826416,-16160285.949707031,-12648524.284362793,-8802732.467651367,-12134801.864624023,-53542049.407958984,-35536952.97241211,-33148639.678955078,-33710784.912109375,-30852807.998657227,-21634132.385253906,-5395870.208740234,-1040246.4866638184,-21925407.40966797,-13628093.719482422,-35666530.60913086,-36336071.0144043,-32716789.24560547,-25888729.095458984,-23212011.337280273,-16335927.963256836,-22241254.806518555,-24040597.915649414,-34404468.53637695,-48495441.43676758,-48650211.334228516,-48819278.717041016,-14568543.434143066,-37569999.69482422,-33896453.857421875,-37852836.60888672,-49146888.732910156,-48629737.854003906,-38508907.318115234,-41490219.11621094,-58829006.19506836
0.35,-45794815.06347656,-36808494.567871094,-35661506.65283203,-38484481.81152344,-36333602.90527344,-28811542.510986328,-34631511.68823242,-33590606.689453125,-34939159.39331055,-23861175.537109375,-25750650.40588379,-29983528.13720703,-55661621.09375,-89990852.35595703,-41405078.88793945,-32969066.619873047,-32179897.30834961,-34943954.46777344,-22483398.4375,-18109977.72216797,-6214236.259460449,-15389794.34967041,-74490394.59228516,-35895099.63989258,-31949209.213256836,-18514942.169189453,-33293426.513671875,-18042068.481445312,-11334397.315979004,-5772632.122039795,-4400990.009307861,-53729019.16503906,-39005401.611328125,-36718917.84667969,-37061267.8527832,-33820415.49682617,-22739498.138427734,-3945452.928543091,1808221.459388733,-18004619.598388672,-13412905.6930542,-39337150.57373047,-39816711.42578125,-35923004.150390625,-25832410.81237793,-22196182.250976562,-14420578.956604004,-19712377.548217773,-21164915.084838867,-32415397.64404297,-48805999.755859375,-48777015.686035156,-48937416.076660156,-12405431.747436523,-34045295.71533203,-30819156.646728516,-36000331.87866211,-49102424.62158203,-48768508.91113281,-36208385.4675293,-38919452.66723633,-57307518.005371094
0.355,-43954288.482666016,-39763942.71850586,-39416358.947753906,-41056194.30541992,-40420455.93261719,-19056880.950927734,-36151824.951171875,-35231975.55541992,-36737831.115722656,-26669580.459594727,-28060304.641723633,-31719154.357910156,-56625015.25878906,-86173736.57226562,-33846618.65234375,-32284893.035888672,-33472274.780273438,-36772808.07495117,-23895801.544189453,-18140665.05432129,-6085556.0302734375,-15922491.073608398,-75194160.46142578,-28862958.908081055,-30759519.577026367,-18943342.208862305,-33751289.36767578,-16935537.338256836,-11945819.854736328,-5277498.245239258,-3936595.2014923096,-49103290.55786133,-34713287.353515625,-35212020.87402344,-35433448.791503906,-34447906.494140625,-22665504.455566406,-3972006.7977905273,2513448.2383728027,-17102163.314819336,-11245133.399963379,-35086410.52246094,-35671726.22680664,-34101997.37548828,-23310604.095458984,-22178033.82873535,-13357001.304626465,-17347881.317138672,-16666425.704956055,-27180631.637573242,-42668231.96411133,-42415756.22558594,-42637851.71508789,-10104965.209960938,-27839393.615722656,-23639030.45654297,-27251752.853393555,-42610012.05444336,-42488830.56640625,-28367362.97607422,-30537269.592285156,-48183162.689208984
0.36,-35167060.85205078,-37068328.857421875,-42852859.49707031,-36974555.96923828,-45172515.869140625,-933756.3514709473,-30705118.17932129,-29824888.229370117,-32161716.46118164,-28274768.829345703,-31820188.522338867,-37278209.6862793,-65869239.807128906,-86192680.35888672,-18068212.509155273,-24176181.79321289,-28253377.91442871,-32256309.509277344,-24591388.702392578,-20160400.390625,-10003799.438476562,-24118747.71118164,-74109199.52392578,-14488595.008850098,-23689876.556396484,-14645753.860473633,-31463783.264160156,-15116749.76348877,-14454866.409301758,-8520464.897155762,-8715909.957885742,-43621173.85864258,-26720811.84387207,-30296133.041381836,-30587768.5546875,-33352462.768554688,-22871204.376220703,-6426161.766052246,-58379.579335451126,-20116401.67236328,-10273393.630981445,-26874769.21081543,-27696500.778198242,-29190675.735473633,-21279747.009277344,-23344331.741333008,-15525919.914245605,-18585666.65649414,-15640769.004821777,-23246606.826782227,-36196941.37573242,-35833690.64331055,-36194664.001464844,-10483343.124389648,-25940393.447875977,-19654493.33190918,-20412519.454956055,-36092044.830322266,-35952125.549316406,-23411659.240722656,-25441987.991333008,-39958553.314208984
0.365,-25974075.317382812,-29657941.818237305,-39664386.74926758,-29050268.173217773,-42755920.41015625,10744894.981384277,-23306171.417236328,-22354177.474975586,-25058153.15246582,-24611551.28479004,-30449651.71813965,-38408226.013183594,-67354309.08203125,-87179481.50634766,-9133888.244628906,-16674388.885498047,-21751201.629638672,-25222021.102905273,-22430124.282836914,-20840915.67993164,-12844967.84210205,-26549694.061279297,-76288406.37207031,-7145391.941070557,-18375358.58154297,-11739163.398742676,-29985559.463500977,-14453754.425048828,-15930657.386779785,-12032357.215881348,-11055163.383483887,-42490283.96606445,-24542278.289794922,-28177207.946777344,-28562046.05102539,-32727489.471435547,-23907251.358032227,-9445225.715637207,-3362028.5987854004,-24180192.947387695,-12758935.928344727,-24445590.97290039,-25310503.005981445,-27340175.62866211,-22553880.69152832,-24384469.985961914,-19259763.717651367,-23150438.30871582,-20869667.053222656,-25687536.239624023,-37906566.61987305,-37518039.70336914,-38026195.52612305,-14017910.00366211,-31424896.240234375,-24759984.970092773,-24450157.165527344,-37977478.02734375,-37608455.657958984,-27337348.93798828,-30051172.256469727,-41115451.81274414
0.37,-22921115.87524414,-26252084.732055664,-34590641.021728516,-23873888.01574707,-36483215.33203125,13489624.0234375,-19708353.04260254,-18693702.697753906,-21098546.981811523,-18447244.64416504,-24744003.295898438,-34084121.70410156,-59359916.68701172,-81674537.6586914,-9255895.614624023,-14758331.298828125,-18931165.69519043,-21267713.54675293,-18492815.017700195,-18567424.774169922,-11888542.175292969,-21179145.81298828,-79153099.0600586,-8548761.367797852,-18558996.200561523,-12173053.741455078,-29646512.985229492,-13921738.624572754,-14859348.29711914,-12878922.462463379,-9984703.063964844,-44310787.200927734,-28845584.869384766,-30137901.306152344,-30472679.138183594,-32547737.12158203,-23863939.28527832,-10431612.968444824,-4861491.2033081055,-26763372.42126465,-17199394.22607422,-28740703.582763672,-29458253.860473633,-29487548.828125,-25130956.649780273,-24072483.06274414,-20154138.565063477,-26629026.412963867,-28210781.09741211,-33721641.540527344,-45442535.400390625,-45022422.790527344,-45570106.506347656,-17832372.665405273,-38379535.67504883,-34567771.911621094,-35533260.345458984,-45552845.0012207,-45061347.96142578,-34629837.03613281,-38316070.556640625,-48733848.571777344
0.375,-24585409.16442871,-30074234.008789062,-35296844.482421875,-24313671.112060547,-34917343.13964844,14951656.341552734,-20645488.739013672,-19658452.9876709,-21836530.685424805,-16538406.372070312,-21754573.822021484,-30499834.060668945,-53546852.111816406,-69558349.609375,-9232799.530029297,-16092081.069946289,-19795927.047729492,-21943826.67541504,-16786039.352416992,-16004821.77734375,-9454691.886901855,-16770721.435546875,-76862327.5756836,-9268781.661987305,-20532686.233520508,-12982617.378234863,-29000808.715820312,-12966841.697692871,-13265812.873840332,-11603299.140930176,-9895200.729370117,-43945236.20605469,-31261875.15258789,-31475795.74584961,-31687679.290771484,-31524316.787719727,-21966054.916381836,-9012711.524963379,-4119482.99407959,-26923601.150512695,-19871326.446533203,-31383277.893066406,-31999355.31616211,-30735824.584960938,-24906881.33239746,-22556646.3470459,-16563566.207885742,-25229934.692382812,-29965867.99621582,-39594753.26538086,-47758125.30517578,-47292247.7722168,-47733184.814453125,-17911148.071289062,-38074111.93847656,-37874668.12133789,-40157371.520996094,-47628639.221191406,-47308441.162109375,-34605079.650878906,-38697978.97338867,-52206020.35522461
0.38,-25331203.46069336,-33974025.72631836,-39709396.36230469,-27779758.45336914,-38148406.982421875,17667530.059814453,-23380971.908569336,-22422451.01928711,-24824001.31225586,-20646715.16418457,-24204902.64892578,-30451578.14025879,-54050758.361816406,-58746742.248535156,-5477749.824523926,-16893739.700317383,-21870424.270629883,-24861843.10913086,-19267135.620117188,-16037668.228149414,-7836479.663848877,-16364330.291748047,-68939727.78320312,-5457500.457763672,-20181268.6920166,-12568893.432617188,-28705005.645751953,-12944095.611572266,-13159177.780151367,-9340362.548828125,-10177358.627319336,-38991287.23144531,-26964673.99597168,-29141134.26208496,-29353628.158569336,-30177749.633789062,-20509809.494018555,-6584465.980529785,-1268083.2147598267,-23403486.251831055,-17506788.25378418,-27279642.10510254,-27932119.369506836,-28237993.240356445,-21802549.362182617,-21013164.520263672,-11612167.358398438,-19466791.1529541,-22638614.654541016,-35337768.5546875,-40469760.89477539,-39998458.86230469,-40307582.85522461,-13564587.593078613,-29249488.830566406,-29220380.783081055,-30817487.716674805,-40106857.29980469,-40035781.86035156,-25434329.986572266,-29018955.23071289,-45819927.21557617
0.385,-23072586.059570312,-31350503.92150879,-39412483.21533203,-30049600.60119629,-38287399.29199219,18110080.71899414,-25339948.654174805,-24305238.723754883,-26977214.813232422,-24980484.008789062,-26648910.522460938,-29830303.192138672,-51969997.40600586,-53400653.83911133,-3184347.39112854,-16583824.157714844,-23401571.27380371,-26952236.17553711,-22767126.083374023,-17399061.20300293,-5993219.85244751,-13744667.053222656,-60225212.09716797,-2481334.924697876,-18415103.912353516,-12524031.639099121,-30129955.291748047,-13635556.2210083,-13292452.812194824,-5705988.883972168,-6016095.6382751465,-31378030.77697754,-20879529.95300293,-25942911.14807129,-26315595.626831055,-30324350.357055664,-21278348.922729492,-4078288.5551452637,3511912.3458862305,-15837718.963623047,-10332362.174987793,-21148721.69494629,-21889213.56201172,-25086961.74621582,-20202962.87536621,-20690179.8248291,-9328478.813171387,-13204637.52746582,-11085796.356201172,-22258733.74938965,-32214412.689208984,-31796260.833740234,-32115543.365478516,-9435711.860656738,-20030172.34802246,-15743231.773376465,-14943228.721618652,-31948251.724243164,-31871202.46887207,-16955638.885498047,-19319057.46459961,-34780746.45996094
0.39,-20343360.900878906,-25701690.673828125,-33167572.021484375,-29337360.382080078,-32948566.436767578,16642244.338989258,-25375989.91394043,-24234756.469726562,-26858720.779418945,-24090967.178344727,-24268293.380737305,-26037111.282348633,-42585163.11645508,-50861763.00048828,-4928674.221038818,-16103551.864624023,-23523059.844970703,-26737234.115600586,-22915348.052978516,-17045772.552490234,-3111693.859100342,-7045212.745666504,-55755771.63696289,-3836775.302886963,-18112789.154052734,-13609303.47442627,-31854818.34411621,-12428528.785705566,-11737569.808959961,-1480158.6866378784,858924.925327301,-25694528.579711914,-20059804.916381836,-25906314.849853516,-26419239.044189453,-31897321.701049805,-22506418.228149414,-1782491.8031692505,8182413.101196289,-8303497.314453125,-3992188.2152557373,-20131446.838378906,-20966447.830200195,-25259710.31188965,-22892295.837402344,-21980382.919311523,-10396543.502807617,-10195955.276489258,-4478841.781616211,-11804590.225219727,-32861209.869384766,-32519718.170166016,-32999542.236328125,-10893108.367919922,-18808513.641357422,-9577340.126037598,-6504017.8298950195,-32926513.671875,-32596202.850341797,-18375257.49206543,-19061447.143554688,-29396112.4420166
0.395,-20082361.221313477,-24981767.654418945,-29065511.70349121,-27426889.419555664,-29757814.407348633,17198287.963867188,-24046993.255615234,-22925167.083740234,-25351078.033447266,-20091400.146484375,-20503293.991088867,-23446043.014526367,-35529781.341552734,-51180179.595947266,-6787401.6761779785,-15738196.37298584,-22244363.78479004,-25120615.005493164,-19987962.72277832,-15319756.507873535,-1768609.642982483,-4601283.073425293,-57326107.025146484,-6209876.06048584,-19300947.189331055,-14025399.208068848,-31098224.639892578,-9021049.499511719,-9797391.891479492,-90575.03938674927,1750771.7609405518,-26386329.650878906,-24196640.014648438,-28369876.861572266,-28843877.7923584,-32423984.52758789,-21573196.411132812,-558852.0765304565,9446143.15032959,-7018123.149871826,-5320634.841918945,-24164012.908935547,-25129003.524780273,-27813613.891601562,-26914943.69506836,-23696840.286254883,-12422638.893127441,-11300643.920898438,-7274548.530578613,-13478971.481323242,-40310031.89086914,-40026760.10131836,-40663185.119628906,-17108964.920043945,-24826286.31591797,-14180746.078491211,-10429863.929748535,-40582687.37792969,-40076976.77612305,-27020463.943481445,-25705173.49243164,-34323665.618896484
0.4,-23407461.166381836,-30548770.904541016,-32538295.74584961,-27858819.96154785,-34596443.17626953,18247934.341430664,-23885225.296020508,-22879882.8125,-25181447.982788086,-19125082.01599121,-21672166.82434082,-26541513.442993164,-40864627.838134766,-58626384.73510742,-6529678.821563721,-16233943.939208984,-21526720.04699707,-24932666.778564453,-18311124.801635742,-15396779.06036377,-4443212.509155273,-12462965.01159668,-61218093.87207031,-6583419.322967529,-20166982.650756836,-12785055.160522461,-28232358.932495117,-7285269.260406494,-10370604.515075684,-3511244.058609009,-6226238.250732422,-32381126.403808594,-26823095.321655273,-29296533.584594727,-29613803.86352539,-30309263.229370117,-18972892.76123047,-1329705.5959701538,6726259.708404541,-12578144.073486328,-13229717.254638672,-26854650.497436523,-27951147.079467773,-28626930.236816406,-27283411.026000977,-23820625.30517578,-13094660.758972168,-13948454.856872559,-14365030.288696289,-22879909.51538086,-43842796.325683594,-43562267.3034668,-44251811.98120117,-21367269.51599121,-29661903.381347656,-20835615.158081055,-17872894.287109375,-44089195.251464844,-43663879.39453125,-32210632.32421875,-28985279.083251953,-43149887.08496094
0.405,-30023229.598999023,-36223117.82836914,-38177043.91479492,-32614604.949951172,-41603202.81982422,12475884.437561035,-27802177.42919922,-26795677.185058594,-28837850.57067871,-22658216.47644043,-26788455.963134766,-31353357.315063477,-52235069.274902344,-71016189.57519531,-8627413.749694824,-19913427.352905273,-24495832.443237305,-28691291.80908203,-20245779.037475586,-17815389.63317871,-8364419.937133789,-22879835.12878418,-60016407.01293945,-8163913.726806641,-21569440.841674805,-12603581.428527832,-27328506.469726562,-10057272.911071777,-13068352.699279785,-8056384.086608887,-14009253.50189209,-35751140.59448242,-25179998.39782715,-28022033.69140625,-28247894.287109375,-27702562.33215332,-17755702.97241211,-3532755.8517456055,3830504.894256592,-17728694.915771484,-17695854.18701172,-25283235.549926758,-26402435.302734375,-27239057.540893555,-24021856.3079834,-22196239.471435547,-12336595.53527832,-14600279.808044434,-16890876.77001953,-26835277.557373047,-39218139.6484375,-38870746.61254883,-39557518.005371094,-19745470.04699707,-27999729.15649414,-20175657.272338867,-17949430.465698242,-39426891.3269043,-39138656.61621094,-29067884.44519043,-24881219.8638916,-45193943.02368164
0.41,-38187007.904052734,-37082706.451416016,-37260231.018066406,-40091777.80151367,-40928050.99487305,-2765203.7143707275,-35820098.876953125,-34607765.197753906,-35961456.298828125,-26402936.935424805,-28750274.658203125,-30048166.275024414,-54146682.73925781,-77858757.01904297,-17748418.8079834,-28245004.653930664,-31906490.325927734,-35900600.43334961,-23627386.09313965,-19293401.71813965,-8046339.03503418,-22957080.841064453,-51101032.25708008,-15760878.562927246,-26818756.103515625,-17082242.965698242,-31320962.90588379,-14781153.678894043,-14324216.842651367,-7937768.459320068,-12153277.397155762,-30415470.123291016,-24643724.44152832,-29142076.49230957,-29404443.740844727,-28556358.337402344,-19699897.76611328,-5566929.340362549,4599300.384521484,-16033605.575561523,-11862938.88092041,-24708457.946777344,-25678514.48059082,-28396839.141845703,-22597005.84411621,-21497678.756713867,-11728474.617004395,-12531952.857971191,-12721162.796020508,-20622480.392456055,-34130374.908447266,-33718471.52709961,-34369888.30566406,-16343696.594238281,-23782104.4921875,-14005961.418151855,-11156408.309936523,-34426181.79321289,-34072135.92529297,-23854143.142700195,-20362915.0390625,-38251789.09301758
0.415,-45046268.463134766,-35278892.517089844,-30109945.29724121,-46704742.431640625,-33177997.589111328,-20538280.487060547,-44279712.67700195,-42851020.81298828,-43300525.6652832,-27493253.707885742,-25313129.425048828,-22722757.33947754,-43482215.881347656,-75744544.98291016,-31228548.049926758,-38810371.39892578,-40379478.454589844,-43159954.07104492,-25683399.200439453,-17996274.948120117,-2969567.5373077393,-11956195.831298828,-42352638.244628906,-28189918.518066406,-36154010.77270508,-25481981.27746582,-38171611.78588867,-16976266.860961914,-12737408.638000488,-2821230.64994812,-3697782.278060913,-21753931.045532227,-31070667.266845703,-35917396.545410156,-36237930.29785156,-33597717.28515625,-23506017.684936523,-6670551.300048828,8050987.243652344,-10191175.46081543,-2249583.4827423096,-31103961.944580078,-31803974.151611328,-35255313.873291016,-26500907.89794922,-23734016.41845703,-12412940.979003906,-10618192.672729492,-8441374.778747559,-13817978.858947754,-37163635.25390625,-36815803.52783203,-37309459.6862793,-17185667.037963867,-23773651.123046875,-11747094.15435791,-7401412.487030029,-37534065.24658203,-36954647.064208984,-24634206.771850586,-22980270.385742188,-31745521.545410156
0.42,-49391838.07373047,-36698154.44946289,-26553747.177124023,-50573757.17163086,-29439792.63305664,-31687322.61657715,-49434257.50732422,-47978805.54199219,-47917633.056640625,-28515447.61657715,-23046813.96484375,-18712921.142578125,-34446887.9699707,-76209510.80322266,-41127464.294433594,-46612499.23706055,-45622009.27734375,-47584026.33666992,-26834371.56677246,-16798334.1217041,680285.7518196106,-3134594.202041626,-42872440.338134766,-38291419.982910156,-44426864.62402344,-32294212.341308594,-42897583.0078125,-15908100.128173828,-11314306.259155273,1370783.3290100098,-115363.86609077454,-20810453.414916992,-41319927.21557617,-44269432.067871094,-44579441.07055664,-38579402.923583984,-26451808.92944336,-7166097.164154053,9881728.172302246,-7938339.2333984375,-757773.1609344482,-41481670.37963867,-41921138.763427734,-43584381.103515625,-31963308.334350586,-26637365.341186523,-13593970.29876709,-11338677.406311035,-9755148.887634277,-15909955.024719238,-45921508.7890625,-45762657.165527344,-45967136.38305664,-21447639.46533203,-27522979.736328125,-16366842.269897461,-11348464.012145996,-46228038.7878418,-45504940.032958984,-30217592.239379883,-29717674.255371094,-34227592.46826172
0.425,-52811878.2043457,-43433784.48486328,-33299800.872802734,-52569660.18676758,-36089775.08544922,-33387565.61279297,-50928287.506103516,-49552204.13208008,-49644741.05834961,-32304088.592529297,-27505241.39404297,-23951560.974121094,-39120864.86816406,-89733016.96777344,-42532585.14404297,-48817916.87011719,-46687782.287597656,-49217350.006103516,-28668106.079101562,-18717647.552490234,-2003941.297531128,-6892477.989196777,-49000595.09277344,-40311187.744140625,-46590606.689453125,-33009098.052978516,-42804714.20288086,-13997317.31414795,-12743811.60736084,380258.7687969208,-6104279.518127441,-28242532.73010254,-46103527.0690918,-47019927.978515625,-47297164.91699219,-38920604.70581055,-26907663.345336914,-6993323.32611084,8436178.207397461,-10842023.849487305,-7729931.354522705,-46461364.74609375,-46793830.87158203,-46233646.392822266,-32765216.827392578,-26255773.544311523,-13254041.67175293,-12922984.12322998,-13166991.233825684,-22051731.10961914,-50675018.310546875,-50621620.178222656,-50608680.725097656,-23088724.13635254,-27922071.45690918,-19592426.300048828,-15107517.24243164,-50868160.247802734,-50162231.4453125,-32281143.188476562,-30504129.40979004,-41266880.03540039
0.43,-56144680.02319336,-50244178.771972656,-43929141.998291016,-53735935.21118164,-45282119.75097656,-30064455.032348633,-50929359.436035156,-49514247.89428711,-49933235.16845703,-35966922.760009766,-33936004.638671875,-31802167.892456055,-50595691.6809082,-109596702.5756836,-38699497.22290039,-47548076.62963867,-45964637.756347656,-49628803.25317383,-30057714.462280273,-21408781.051635742,-7386572.360992432,-17270153.045654297,-48751781.46362305,-36466339.111328125,-44119735.71777344,-29437871.9329834,-39886108.3984375,-12447803.497314453,-14916406.631469727,-2635169.02923584,-13704295.15838623,-32414035.79711914,-42685974.12109375,-43577484.130859375,-43872943.87817383,-35424747.467041016,-25542354.583740234,-5608626.365661621,6871934.89074707,-12026137.351989746,-10828138.35144043,-43061038.970947266,-43502353.66821289,-42716396.33178711,-28893115.997314453,-22901124.954223633,-10798761.367797852,-11656639.099121094,-11137814.52178955,-20056730.270385742,-47794105.529785156,-47597023.010253906,-47613075.256347656,-20196575.164794922,-21862436.294555664,-13753935.813903809,-9174971.580505371,-47921550.75073242,-47255264.28222656,-27462703.704833984,-22071210.861206055,-41997985.83984375
0.435,-56894008.63647461,-49524894.71435547,-45372581.481933594,-53496803.283691406,-44731956.481933594,-28454172.134399414,-50822147.369384766,-49234401.70288086,-49430023.193359375,-34042339.32495117,-33058658.599853516,-31476629.25720215,-52790920.25756836,-120944244.38476562,-37282791.13769531,-47095153.80859375,-45542972.564697266,-49349235.53466797,-28206401.824951172,-19970952.9876709,-7753665.447235107,-19917003.631591797,-40239795.68481445,-34534420.013427734,-42816413.87939453,-27310514.450073242,-37850486.755371094,-10584954.261779785,-13922350.883483887,-2059971.3325500488,-12810408.592224121,-26197183.60900879,-38928417.20581055,-40774940.490722656,-41087284.088134766,-33104537.963867188,-24396444.32067871,-3540978.193283081,8416047.096252441,-6653941.1544799805,-2329249.382019043,-39085079.193115234,-39753162.3840332,-39853893.2800293,-26343030.92956543,-21065216.064453125,-8481555.938720703,-7828800.678253174,-3838614.4638061523,-8708111.763000488,-43703933.71582031,-43263126.373291016,-43441753.38745117,-17587358.474731445,-15614349.365234375,-3597043.991088867,3268672.9431152344,-43762176.513671875,-43065357.20825195,-22193897.247314453,-13189425.468444824,-35529350.28076172
0.44,-53047920.22705078,-40682708.740234375,-34555233.001708984,-51111354.82788086,-33935356.14013672,-31245138.16833496,-49864131.927490234,-48179027.55737305,-47613327.02636719,-26625940.322875977,-24170297.622680664,-22781675.338745117,-42762042.99926758,-121110885.62011719,-41121006.01196289,-48406799.31640625,-44845043.18237305,-47646968.841552734,-23199464.797973633,-14363011.360168457,-1908567.3093795776,-11230662.34588623,-35300971.98486328,-38064125.061035156,-44373310.08911133,-28505165.100097656,-37486026.763916016,-8514800.071716309,-10052883.14819336,1756408.0953598022,-4347842.693328857,-17874448.776245117,-41633792.877197266,-42675579.07104492,-42884853.36303711,-34159152.98461914,-24440193.17626953,-2368772.506713867,11483532.905578613,-50959.24809575081,9342989.921569824,-41552749.63378906,-42374153.13720703,-41648811.34033203,-28274848.93798828,-22842281.341552734,-9150321.960449219,-6455697.536468506,-373678.5650253296,-912743.091583252,-44854377.74658203,-44384128.57055664,-44641868.591308594,-19456501.007080078,-16946586.60888672,-985828.3996582031,9055638.313293457,-44853828.43017578,-44125263.21411133,-23844692.23022461,-13992089.27154541,-32572147.369384766
0.445,-47810379.02832031,-32533931.732177734,-23663263.32092285,-47676898.95629883,-24994596.481323242,-34319782.25708008,-47184570.3125,-45584617.614746094,-44546226.501464844,-20536701.202392578,-16800094.604492188,-16507019.04296875,-34090915.67993164,-120221664.42871094,-44612770.080566406,-48283252.71606445,-42397579.193115234,-44504829.40673828,-19026796.340942383,-10202887.535095215,2901754.856109619,-3011039.972305298,-40910209.65576172,-41607387.54272461,-44291679.38232422,-28705532.07397461,-36382305.14526367,-7667399.883270264,-7640690.803527832,3090566.396713257,848232.8653335571,-18906536.102294922,-46303222.65625,-44532787.32299805,-44530010.22338867,-35067558.28857422,-24326135.635375977,-2509253.2634735107,11793379.783630371,-967955.1720619202,10887058.25805664,-46180767.05932617,-46975616.455078125,-43411300.65917969,-30597839.35546875,-24848608.016967773,-12446491.241455078,-10577862.739562988,-6635437.488555908,-6695963.8595581055,-48767345.4284668,-48541294.09790039,-48806789.39819336,-23521705.627441406,-24652452.46887207,-9273022.651672363,1921695.590019226,-48889816.28417969,-48198177.337646484,-30589065.551757812,-23196519.85168457,-39075431.82373047
0.45,-46003715.51513672,-33147884.368896484,-24995656.967163086,-45235221.86279297,-26958658.21838379,-31386119.842529297,-43856025.69580078,-42394290.924072266,-41728687.28637695,-21213050.842285156,-18307600.021362305,-19766948.699951172,-37043704.986572266,-123641075.13427734,-41321758.27026367,-44706981.65893555,-38841720.58105469,-41538158.41674805,-19075172.424316406,-11249188.423156738,884005.069732666,-6072193.622589111,-47490272.521972656,-38517597.19848633,-39640296.936035156,-24476531.982421875,-33403415.67993164,-8547338.485717773,-8887086.868286133,-295768.49937438965,-3727262.020111084,-26977649.688720703,-44508083.34350586,-40657638.54980469,-40513889.31274414,-32295436.85913086,-22376546.85974121,-2371409.6546173096,8741728.782653809,-8783469.200134277,2207379.5795440674,-44535385.13183594,-45166824.34082031,-39564456.939697266,-28563983.917236328,-23584392.547607422,-14526216.506958008,-16135967.254638672,-16485048.294067383,-19715787.887573242,-48829536.43798828,-48844116.2109375,-49189788.818359375,-24950466.15600586,-29972408.294677734,-18808214.18762207,-9339954.376220703,-49258544.921875,-48649120.33081055,-34078632.35473633,-30000923.15673828,-46971511.84082031
0.455,-46858951.568603516,-39193222.04589844,-34721260.07080078,-44637199.40185547,-34917407.98950195,-22703685.760498047,-42282543.18237305,-40875728.607177734,-40895847.32055664,-26251529.693603516,-24835866.928100586,-27086658.477783203,-44778263.092041016,-125303672.79052734,-33734848.02246094,-40904426.57470703,-36982471.46606445,-40663059.23461914,-22203823.08959961,-14551460.266113281,-4558928.489685059,-15268930.435180664,-43394203.186035156,-31376720.428466797,-34867378.23486328,-19728214.263916016,-31467437.744140625,-10005311.965942383,-11041682.243347168,-3619029.5219421387,-11243839.263916016,-29764986.038208008,-37837650.299072266,-34394672.39379883,-34334102.630615234,-28223682.403564453,-19530572.89123535,-823640.7041549683,6622873.306274414,-13473483.085632324,-3874842.882156372,-38051982.87963867,-38476020.81298828,-33436492.919921875,-24200881.958007812,-20815702.438354492,-12503458.976745605,-16500179.290771484,-19154529.571533203,-25468152.99987793,-44618682.861328125,-44645908.35571289,-45069900.51269531,-23115425.10986328,-27743822.09777832,-19393037.796020508,-12260505.676269531,-45192546.84448242,-44696498.87084961,-30638814.92614746,-27649339.67590332,-46155059.814453125
0.46,-45642215.728759766,-40705226.89819336,-38901462.55493164,-45081211.09008789,-37929878.23486328,-15658182.144165039,-43313301.08642578,-41899860.38208008,-42041156.76879883,-28847591.400146484,-27425329.208374023,-29182353.973388672,-45109382.62939453,-119214645.38574219,-29951007.843017578,-41087097.16796875,-38253417.96875,-41937965.393066406,-24255538.940429688,-14995340.347290039,-6210465.908050537,-17448003.7689209,-31927595.138549805,-28383256.912231445,-35608615.87524414,-20610404.96826172,-33445461.27319336,-10430113.792419434,-10733755.111694336,-2253999.948501587,-10298708.91571045,-22181831.35986328,-35546222.68676758,-33652629.85229492,-33837104.79736328,-27646595.001220703,-18274570.46508789,970509.5887184143,8647766.11328125,-9002196.311950684,1499392.5094604492,-35847366.33300781,-36102603.912353516,-32812358.856201172,-22963880.53894043,-20391195.29724121,-7896967.887878418,-10849483.489990234,-12496609.687805176,-18773351.669311523,-41611679.07714844,-41535842.89550781,-41802635.192871094,-21122186.6607666,-21615283.966064453,-11783528.327941895,-5005080.699920654,-41922100.06713867,-41592487.33520508,-24727514.266967773,-20000936.50817871,-38066432.95288086
0.465,-42343734.74121094,-35632743.83544922,-33399986.267089844,-45277397.15576172,-33421466.827392578,-14289415.35949707,-44680660.247802734,-43237388.610839844,-43019996.643066406,-25959775.924682617,-23427303.314208984,-25270065.307617188,-38324409.48486328,-108186920.16601562,-31018108.367919922,-43479515.075683594,-40185871.12426758,-43096481.32324219,-22644977.569580078,-12025856.971740723,-2946963.07182312,-10255532.264709473,-24542388.916015625,-30101030.349731445,-39441417.6940918,-25547164.916992188,-36700550.0793457,-8493212.699890137,-8467199.325561523,1690460.443496704,-396226.82332992554,-11393020.629882812,-39170852.66113281,-38262851.71508789,-38627449.03564453,-30027103.424072266,-18675979.614257812,1535020.351409912,12426680.564880371,-1165653.944015503,13167407.989501953,-39391849.517822266,-39632656.09741211,-37475288.39111328,-25203863.1439209,-22045766.830444336,-4557580.471038818,-4922727.108001709,-4225780.010223389,-7784475.803375244,-41736946.10595703,-41665092.46826172,-41581432.3425293,-20509984.970092773,-17493349.075317383,-3966240.882873535,4487166.881561279,-41669544.2199707,-41476459.50317383,-21103828.43017578,-13998252.868652344,-30861743.927001953
0.47,-41333641.052246094,-31114484.786987305,-26937789.916992188,-43809486.389160156,-27437433.24279785,-13066703.796386719,-42927806.85424805,-41387737.27416992,-41174343.10913086,-20439966.201782227,-17426763.5345459,-21088138.580322266,-33667835.2355957,-97205154.41894531,-28947301.864624023,-41774471.282958984,-38607913.970947266,-41308387.756347656,-18430469.512939453,-8982769.966125488,490483.43300819397,-3516991.138458252,-22837699.89013672,-28004362.106323242,-38561893.463134766,-26145612.716674805,-35383460.998535156,-3813625.3356933594,-6857601.165771484,3465389.2517089844,7643524.646759033,-4912978.172302246,-39557315.826416016,-39461578.369140625,-39792095.18432617,-29998273.849487305,-18098871.2310791,1577725.5296707153,13622309.684753418,1262087.4643325806,20200952.529907227,-39553363.80004883,-40028732.29980469,-38715755.462646484,-26122711.181640625,-22433368.682861328,-4260217.189788818,-3623175.621032715,-1266008.3770751953,-2378007.173538208,-40755241.39404297,-40782657.623291016,-40536567.68798828,-20184011.459350586,-16427253.723144531,-658716.4998054504,9449544.906616211,-40684219.36035156,-40426944.732666016,-19104284.286499023,-11263354.301452637,-27265825.271606445
0.475,-39750385.28442383,-27860237.12158203,-22393819.80895996,-38772911.071777344,-22322744.369506836,-5116948.127746582,-36715072.63183594,-35087932.58666992,-35361209.869384766,-15759373.664855957,-12726089.477539062,-17829376.220703125,-31870326.99584961,-85565147.39990234,-19613798.141479492,-33861450.1953125,-32186405.181884766,-35429870.60546875,-14333924.293518066,-7313722.610473633,2193546.0567474365,-2203673.3627319336,-18401025.772094727,-18354063.034057617,-31141252.517700195,-18999912.26196289,-28517004.013061523,1700151.6819000244,-6232344.150543213,3415410.280227661,7262684.8220825195,-1879034.0423583984,-31963830.947875977,-33134391.78466797,-33298576.35498047,-25799148.559570312,-15617653.846740723,2800198.0781555176,12235650.062561035,-1455093.264579773,18870010.375976562,-31730443.954467773,-32584209.442138672,-32435329.43725586,-23828340.530395508,-21111383.43811035,-5696380.138397217,-5932806.491851807,-2940734.86328125,-4129577.63671875,-36630046.84448242,-36660301.208496094,-36661731.7199707,-20147384.643554688,-16482030.868530273,-1037183.1655502319,9076786.994934082,-36908226.013183594,-36408702.8503418,-17062910.079956055,-10368732.452392578,-25393957.138061523
0.48,-24740476.608276367,-13632323.265075684,-7778413.772583008,-28917984.008789062,-12376626.968383789,8023455.619812012,-27737255.096435547,-26310073.852539062,-26624368.66760254,-11764027.59552002,-7426608.562469482,-10833441.734313965,-23728647.232055664,-70448043.82324219,-9880276.679992676,-24764059.06677246,-23648727.416992188,-26697067.260742188,-11870446.20513916,-5064136.505126953,5497132.301330566,782948.7919807434,-7995957.374572754,-8992707.252502441,-24008399.963378906,-10963932.037353516,-22098888.397216797,4447943.687438965,-4669214.248657227,5647464.752197266,4817131.519317627,1804766.4165496826,-24688718.795776367,-26315082.550048828,-26373130.798339844,-22351566.314697266,-13942019.46258545,4980508.804321289,11976915.35949707,-2252098.560333252,14182226.181030273,-24389839.17236328,-25476293.563842773,-25620235.443115234,-22217184.06677246,-21108060.836791992,-7059710.502624512,-8073369.026184082,-5332982.540130615,-8373157.501220703,-34492332.458496094,-34371654.51049805,-34772411.34643555,-22442657.470703125,-17907320.022583008,-3881653.308868408,4806218.147277832,-34961696.62475586,-34346076.96533203,-17448373.794555664,-12553122.520446777,-26847139.358520508
0.485,9759324.073791504,19074768.06640625,24886873.245239258,-15723745.346069336,5582142.8298950195,20640308.380126953,-18412458.419799805,-17550329.208374023,-17038980.48400879,-6472378.253936768,505887.4487876892,764672.8754043579,-7040741.920471191,-53614906.311035156,-6333281.517028809,-18963167.190551758,-16101425.170898438,-17301437.377929688,-10313786.506652832,-770424.7236251831,11994856.834411621,10799712.181091309,1952408.9097976685,-6809892.654418945,-22170642.852783203,-9197820.663452148,-21041786.193847656,3379030.704498291,-1535573.124885559,10475596.42791748,8545577.049255371,6228926.658630371,-26160991.668701172,-26325786.590576172,-26405513.763427734,-23592679.977416992,-14995014.190673828,6393268.10836792,14222455.978393555,1197623.0144500732,11763438.22479248,-25958278.65600586,-26970521.926879883,-25616994.857788086,-24098260.8795166,-23222152.709960938,-7594307.422637939,-8604898.452758789,-7164387.7029418945,-11287769.317626953,-38601654.052734375,-38332752.2277832,-38893291.47338867,-27047113.4185791,-21733022.689819336,-8741373.062133789,-1588036.6563796997,-38834857.94067383,-38438175.201416016,-22282325.744628906,-18872354.50744629,-33817695.61767578
0.49,47980842.59033203,55261638.64135742,60374336.24267578,-3663916.1109924316,23754016.876220703,32045463.56201172,-10121767.044067383,-9721231.460571289,-8565599.44152832,48546.50795459747,8783015.251159668,10401658.058166504,6711867.809295654,-40747249.603271484,-4236495.494842529,-14427507.400512695,-9966987.609863281,-9036786.079406738,-7902545.45211792,4300370.693206787,17758852.005004883,20443923.950195312,6187010.288238525,-6333410.739898682,-21588344.57397461,-10862723.350524902,-22436647.415161133,2286165.714263916,1560159.0871810913,13702681.541442871,15469697.952270508,8886914.253234863,-31090747.833251953,-29590744.018554688,-29716318.130493164,-26016159.057617188,-16239393.23425293,6767158.508300781,16279176.712036133,3931817.5315856934,12366475.105285645,-30970085.14404297,-31762783.05053711,-28950111.389160156,-26152843.475341797,-24117319.107055664,-6974110.126495361,-8465970.039367676,-8787442.207336426,-12232842.445373535,-43994312.28637695,-43727523.80371094,-44156398.77319336,-30041707.99255371,-25245449.06616211,-12681293.487548828,-6189268.589019775,-43874847.412109375,-43813983.91723633,-26760053.634643555,-24304147.720336914,-40498981.47583008
