time,Fp1,Fpz,Fp2,AF3,AF4,F7,F5,F3,F1,Fz,F2,F4,F6,F8,FT7,FC5,FC3,FC1,FCz,FC2,FC4,FC6,FT8,T7,C5,C3,C1,Cz,C2,C4,C6,T8,TP7,CP5,CP3,CP1,CPz,CP2,CP4,CP6,TP8,P7,P5,P3,P1,Pz,P2,P4,P6,P8,PO7,PO5,PO3,POz,PO4,PO6,PO8,CB1,O1,Oz,O2,CB2
0.0,-1863312.6020431519,-1428052.7830123901,-1055333.971977234,-747454.047203064,265467.1370983124,-2630236.1488342285,-493501.0075569153,-544144.9284553528,588525.4144668579,564420.4616546631,438189.1191005707,30261.000618338585,1012595.0574874878,1002815.842628479,-2227349.7581481934,10288.437828421593,-876368.8206672668,-170482.99312591553,403878.1523704529,407429.7547340393,128325.67095756531,724477.1122932434,976342.499256134,-4528003.215789795,-1392247.3192214966,-871208.7273597717,182555.690407753,-163813.90392780304,232675.03082752228,887156.1288833618,1232452.8694152832,954787.55235672,-1125241.2796020508,-236540.45164585114,366431.8323135376,215138.778090477,11188.024654984474,529998.0640411377,1023876.7862319946,961729.2881011963,931247.6515769958,-91195.2406167984,640191.7338371277,612510.6811523438,872792.1843528748,898675.5609512329,499159.18707847595,962292.1347618103,953860.342502594,952963.7098312378,628752.589225769,675606.4891815186,644306.0040473938,900262.8326416016,930851.9959449768,952859.9977493286,966866.7912483215,94976.44007205963,748234.5700263977,851658.8807106018,952782.4521064758,911560.4758262634
0.005,6831619.2626953125,3307714.2238616943,-3128483.0570220947,10525234.22241211,593032.8965187073,-10758565.902709961,12013666.152954102,10493524.551391602,8832918.167114258,8218852.996826172,1338535.189628601,343943.5660839081,-2669010.877609253,-3074057.102203369,-16428504.943847656,11316205.978393555,7161849.498748779,9554448.127746582,4068307.399749756,4416069.030761719,3957160.472869873,-7569842.81539917,-3637454.2713165283,-93433998.10791016,4065628.5285949707,6361938.4765625,5592198.371887207,-1118104.338645935,371401.8762111664,4038038.730621338,1743465.4235839844,-4037307.7392578125,-29069719.314575195,-2928157.329559326,3744028.091430664,2514676.094055176,-329756.08110427856,-3015563.2495880127,1809058.0701828003,-3154428.9588928223,-4305386.543273926,-18539751.052856445,-3786591.7682647705,-1526427.7458190918,41951.29871368408,-2770787.000656128,-3730113.2678985596,-3861467.8382873535,-3372370.2430725098,-3790070.5337524414,-4663278.579711914,-3694747.4479675293,-3876094.5796966553,-3302197.217941284,-3705350.875854492,-3494560.2416992188,-3680249.9294281006,-4908481.597900391,-5300136.089324951,-4208728.790283203,-2969663.619995117,-3892895.460128784
0.01,8947451.5914917,2306560.99319458,-6621215.8203125,12630778.312683105,-1733804.702758789,-16347572.326660156,16210622.787475586,14168269.157409668,8893112.182617188,8486237.525939941,-598213.6130332947,-1543096.423149109,-6651180.267333984,-7246770.858764648,-24760946.27380371,15081170.082092285,9892795.56274414,11961814.880371094,3585522.6516723633,3954209.804534912,3600479.1259765625,-13421562.194824219,-7803559.303283691,-132193084.71679688,5328511.714935303,8889248.847961426,7347444.534301758,-2006466.3887023926,-429931.1935901642,3458055.7346343994,-482753.6940574646,-8526638.03100586,-43242553.7109375,-6445561.88583374,4602982.044219971,3533792.734146118,-148785.5166196823,-3853851.795196533,1157160.5205535889,-7305336.952209473,-8805138.58795166,-28537721.633911133,-7160110.4736328125,-3585039.1387939453,-167116.6867017746,-4185757.637023926,-4936490.058898926,-8248881.3400268555,-7393472.194671631,-8113963.1271362305,-8583469.39086914,-7210933.208465576,-7452091.693878174,-5052154.064178467,-8041496.276855469,-7647625.923156738,-7969817.638397217,-9798935.890197754,-9876870.155334473,-6304187.774658203,-7030781.7459106445,-8399087.905883789
0.015,4859212.875366211,-3115338.5639190674,-10877808.570861816,6190235.614776611,-6334060.6689453125,-19086927.41394043,11391902.923583984,9665266.036987305,2081225.3952026367,2660074.234008789,-4960109.710693359,-5123086.452484131,-9773570.06072998,-10240900.993347168,-27112592.697143555,10979946.13647461,6568965.911865234,7175757.884979248,-450422.7638244629,-277631.4914226532,205940.32108783722,-16404191.970825195,-10434781.074523926,-125348602.29492188,2258068.799972534,5850130.558013916,4633679.389953613,-3425519.2279815674,-1745101.809501648,333505.2728652954,-4534426.689147949,-11276374.816894531,-44163780.212402344,-10399647.71270752,2244485.855102539,2555881.977081299,207167.68503189087,-1789657.711982727,-328814.95356559753,-9984577.178955078,-11259695.053100586,-29865587.23449707,-9290459.632873535,-5670178.8902282715,17593.72092783451,-2645106.077194214,-2834778.5472869873,-10832380.294799805,-9828686.714172363,-10598264.694213867,-10890741.348266602,-9557489.395141602,-9811598.777770996,-3598634.0045928955,-10644480.70526123,-10131381.98852539,-10485373.497009277,-12984826.08795166,-12959979.057312012,-4732596.397399902,-9759402.27508545,-11115133.285522461
0.02,1329049.5872497559,-6198108.196258545,-13042769.432067871,-12193.59040260315,-10075249.671936035,-18967523.5748291,4438660.144805908,3020353.317260742,-3185904.5028686523,-1756776.5712738037,-8570987.701416016,-7736480.712890625,-10597107.887268066,-10745825.76751709,-26752172.470092773,5797835.350036621,1521389.2459869385,1655042.052268982,-3856161.594390869,-3836914.539337158,-1600124.8359680176,-17612157.821655273,-10777320.861816406,-113951545.71533203,-864992.5589561462,1100518.5842514038,270484.3580722809,-5609086.036682129,-2354198.455810547,-1255907.7739715576,-7170290.470123291,-11473799.705505371,-42429927.825927734,-12977480.8883667,-1208926.6777038574,450237.12515830994,75408.53321552277,789175.8680343628,-1019639.253616333,-9780462.265014648,-10996539.115905762,-28516628.26538086,-10393946.647644043,-7423151.49307251,223749.3246793747,276635.4978084564,-7128.763943910599,-10629199.028015137,-9658802.98614502,-10270077.7053833,-11985021.591186523,-10670850.75378418,-11015564.918518066,-609728.8131713867,-10349033.35571289,-9898456.573486328,-10167757.034301758,-12689123.153686523,-15216185.569763184,-1651041.2693023682,-9659404.754638672,-10867824.55444336
0.025,2544209.9571228027,-4212091.92276001,-11992278.099060059,-245559.6625804901,-10780282.974243164,-15911442.756652832,1761653.9001464844,195602.80442237854,-2125066.2803649902,-771743.5956001282,-9303948.402404785,-8020160.675048828,-9511047.36328125,-9453379.63104248,-25455547.332763672,5514010.429382324,-508648.3359336853,470985.472202301,-3997099.6379852295,-4106961.250305176,-167067.5128698349,-17970642.08984375,-9594950.675964355,-118591079.71191406,-334357.97691345215,-587271.1539268494,-1811251.5211105347,-7224776.268005371,-1904477.2386550903,30415.75849056244,-6777550.220489502,-10059142.112731934,-43948661.80419922,-12577742.576599121,-2480330.7056427,-640985.6677055359,-452295.4523563385,1472398.4003067017,-480400.413274765,-7606804.847717285,-9124752.99835205,-28243434.90600586,-10141203.880310059,-7705681.800842285,764895.6775665283,2115498.7812042236,851137.5188827515,-8595513.343811035,-7692208.766937256,-8234676.361083984,-11693103.790283203,-10169660.568237305,-10714156.150817871,1324187.0403289795,-8068795.204162598,-7918235.778808594,-8024971.008300781,-9377754.211425781,-16224451.065063477,58376.41656398773,-7475133.895874023,-8671224.594116211
0.03,3749391.0789489746,-3310786.247253418,-11800971.031188965,1602730.393409729,-10080047.607421875,-13060202.598571777,2459217.309951782,609935.1644515991,1378339.2906188965,2117627.1438598633,-8628012.657165527,-7906055.450439453,-8453910.827636719,-8413591.384887695,-23769653.3203125,8652560.234069824,580611.3481521606,2494180.44090271,-2316217.6609039307,-2638046.0262298584,1113498.9261627197,-17944612.503051758,-8505191.802978516,-125188095.09277344,2055738.925933838,1407620.6684112549,-440574.97382164,-6517909.526824951,-1401207.2086334229,1596443.0570602417,-4690383.9111328125,-8830524.444580078,-45190017.70019531,-9760599.136352539,-633467.0782089233,375825.07729530334,-674723.0887413025,292174.0710735321,373240.4410839081,-5713428.974151611,-7449220.657348633,-27223665.237426758,-7840185.165405273,-5689405.918121338,1959770.5602645874,2179710.3881835938,-341208.1003189087,-6688173.294067383,-5790630.81741333,-6517922.401428223,-9295358.657836914,-7562497.138977051,-8285072.326660156,1435165.286064148,-5932294.3687438965,-6163651.466369629,-6124970.436096191,-5616175.651550293,-14661415.100097656,-122530.75838088989,-5362820.625305176,-6685956.4781188965
0.035,-1993948.4596252441,-10049794.19708252,-17180871.963500977,-1248435.8549118042,-11265484.809875488,-15354602.813720703,1293699.7413635254,-574472.188949585,1148294.448852539,1822260.4990005493,-9480651.85546875,-9992506.980895996,-8388386.7263793945,-8335568.428039551,-22964670.181274414,9497708.320617676,1112770.676612854,3429604.5303344727,-1788334.9657058716,-2230887.4130249023,-887229.7406196594,-18053712.844848633,-8057005.882263184,-120073959.35058594,1613566.6370391846,3477159.261703491,1902983.4270477295,-3836970.090866089,-1841644.7639465332,1277502.417564392,-2847982.168197632,-8270378.112792969,-41781791.68701172,-6723474.025726318,1967022.6573944092,2159353.494644165,-364023.6258506775,-680675.6258010864,960531.1751365662,-4791934.013366699,-6440515.041351318,-22785516.7388916,-3602329.2541503906,-2036762.2375488281,3268459.3200683594,2210082.530975342,-1427425.1461029053,-5561222.553253174,-4677264.213562012,-5580386.161804199,-4831376.552581787,-3124604.4635772705,-3848546.028137207,1465750.4558563232,-4777480.125427246,-5182288.16986084,-5113829.612731934,-3193886.5184783936,-10476991.653442383,-35765.44672250748,-4152476.7875671387,-5595359.325408936
0.04,-12118306.159973145,-20374919.891357422,-25271656.036376953,-8161895.751953125,-14672458.64868164,-21797914.505004883,-2939970.4933166504,-4656905.174255371,-3151035.3088378906,-1724940.6576156616,-12276632.308959961,-13662447.929382324,-8214208.602905273,-7857717.514038086,-23267257.690429688,6695994.853973389,-755047.3809242249,1627377.1524429321,-3306616.0678863525,-3557085.5140686035,-4229870.319366455,-18533048.629760742,-7294128.894805908,-111281822.20458984,-1793511.3906860352,3033701.6582489014,2420004.12940979,-1875937.7002716064,-2874104.4998168945,311641.6335105896,-1713005.781173706,-7269284.725189209,-35444496.154785156,-4648867.130279541,2966486.2155914307,2831559.419631958,-47205.76107501984,29269.063845276833,1699779.1528701782,-3574682.2357177734,-5174583.911895752,-16114828.109741211,1271036.7441177368,1706728.1007766724,4165724.754333496,3936134.5767974854,-839923.1433868408,-4254126.54876709,-3486145.01953125,-4226871.490478516,296624.92871284485,1828217.625617981,1286490.3211593628,3215993.1659698486,-3618120.1934814453,-3870133.399963379,-3903397.0832824707,-1393043.6372756958,-5828396.320343018,2102358.57963562,-2846601.2477874756,-4295995.712280273
0.045,-16349140.167236328,-23535985.946655273,-27510488.510131836,-12227583.885192871,-17130273.818969727,-24614850.997924805,-5959243.7744140625,-7650647.6402282715,-6813245.77331543,-4684676.647186279,-14508769.035339355,-15691906.929016113,-6708758.354187012,-5904087.066650391,-22616584.77783203,4643304.824829102,-2770682.3348999023,-695183.0387115479,-5236600.399017334,-5170439.24331665,-4777346.134185791,-18885377.883911133,-5462412.8341674805,-110114837.64648438,-2998696.3272094727,1621891.8561935425,1253241.0621643066,-2702875.3757476807,-3225558.5193634033,924644.5298194885,-830695.9867477417,-5137570.381164551,-31012008.666992188,-2870939.4931793213,2915012.1212005615,2495854.8545837402,-130928.94852161407,1804336.1902236938,2999042.272567749,-1263308.6442947388,-3105587.7208709717,-10904610.633850098,5212511.5394592285,4600924.491882324,5265021.324157715,6816359.043121338,816494.882106781,-2095757.9612731934,-1462669.1341400146,-1842715.7402038574,4296464.920043945,5727568.14956665,5406646.251678467,6211657.524108887,-1571567.5354003906,-1545184.850692749,-1731611.2518310547,1319740.7722473145,-3087737.798690796,5349073.886871338,-716278.1953811646,-2062553.6441802979
0.05,-11017306.327819824,-16945474.62463379,-21491418.838500977,-10574602.127075195,-16364002.227783203,-20072500.228881836,-4998284.816741943,-6778319.358825684,-6921916.961669922,-4864615.917205811,-14244714.736938477,-14624240.87524414,-4700313.091278076,-3707628.7269592285,-20601200.103759766,6080327.987670898,-2587054.72946167,-1038206.4580917358,-5708299.63684082,-5578603.267669678,-2308333.396911621,-18655447.006225586,-3536211.4906311035,-113093597.41210938,421886.77191734314,1717530.608177185,637757.4801445007,-5308817.386627197,-2363837.242126465,2776193.618774414,-250573.72450828552,-3069143.533706665,-30814443.588256836,-1095499.6347427368,3595541.7156219482,2646659.1358184814,-328468.382358551,3004317.9988861084,4345462.799072266,887432.6944351196,-1177780.3897857666,-9364748.001098633,7236730.575561523,6468172.550201416,7292239.665985107,8802183.151245117,1947573.6618041992,-75717.35978126526,586978.7335395813,317445.45698165894,6124143.123626709,7571629.524230957,7353479.862213135,8350797.653198242,533030.6887626648,694150.0306129456,397925.88353157043,4495274.543762207,-2844260.2157592773,7292377.471923828,1252922.8925704956,33657.71844983101
0.055,-4337601.661682129,-9933282.852172852,-15141587.257385254,-7742676.258087158,-13857250.213623047,-14733174.324035645,-2754735.231399536,-4505445.48034668,-4863378.524780273,-3442530.393600464,-12321838.37890625,-12426098.823547363,-4169862.2703552246,-3402363.061904907,-20826202.392578125,8073489.189147949,-1239944.1003799438,562763.8697624207,-4385313.987731934,-4395817.756652832,-496796.30994796753,-18251314.163208008,-3246740.1027679443,-112358848.57177734,3957493.0667877197,2848916.2921905518,1732631.2065124512,-6983273.506164551,-1224706.4113616943,3639576.6735076904,-474977.1058559418,-2867589.9505615234,-33853466.03393555,-593252.4800300598,4916098.594665527,3690081.3579559326,-206121.38509750366,2739233.7322235107,4732078.075408936,1044054.1505813599,-847110.5098724365,-10974205.017089844,7064422.607421875,7071438.312530518,9339585.304260254,8706102.37121582,1770247.1017837524,192124.24755096436,1040351.7484664917,539018.0349349976,5736006.736755371,7190597.5341796875,6909517.765045166,8276868.82019043,1011321.4254379272,1134430.170059204,803308.1293106079,5781445.026397705,-4384683.609008789,6854427.814483643,1499297.4996566772,352346.5394973755
0.06,-4055218.21975708,-10225969.314575195,-15480547.904968262,-7488729.000091553,-12113269.805908203,-15597523.68927002,-2249720.335006714,-3819796.562194824,-2517836.093902588,-1820247.6501464844,-10412282.943725586,-11172146.797180176,-5510726.9287109375,-5139296.054840088,-25492105.48400879,7627761.363983154,-717415.9288406372,2543981.3137054443,-2152567.6250457764,-2087505.1021575928,-1001387.2385025024,-18240371.704101562,-4820542.335510254,-110095520.01953125,3068960.189819336,3107513.189315796,3623734.23576355,-6659874.91607666,-1034747.4813461304,2835518.3601379395,-1370257.1392059326,-4639710.426330566,-37611942.291259766,-1938778.7580490112,5457712.650299072,4573092.460632324,129371.07682228088,1313072.3237991333,3743971.347808838,-916419.9233055115,-2420539.8559570312,-13989803.314208984,5161197.185516357,6234030.246734619,9601250.648498535,7005708.21762085,578683.3167076111,-1573907.732963562,-630982.3393821716,-1307628.870010376,3858999.490737915,5248841.762542725,4811481.952667236,6383355.617523193,-641827.8217315674,-576908.1711769104,-897496.5214729309,3789375.066757202,-7098196.029663086,4942470.073699951,-223978.98137569427,-1332042.5748825073
0.065,-7049534.797668457,-14085766.792297363,-19125556.94580078,-7155932.903289795,-11109443.664550781,-19242069.244384766,-1882502.0790100098,-3330606.698989868,324557.5428009033,411917.62685775757,-8638356.20880127,-10366951.942443848,-6797955.03616333,-6682926.177978516,-30197387.6953125,6959573.745727539,-392995.9833621979,4132768.154144287,125709.60819721222,585955.6794166565,-1237550.8546829224,-18360580.444335938,-6388282.775878906,-111815391.54052734,190063.87889385223,2711216.926574707,5080467.700958252,-5769360.542297363,-1733949.7804641724,2113157.9875946045,-1886713.6240005493,-6409197.3304748535,-38931068.420410156,-3218490.8390045166,5265777.111053467,4716416.358947754,260004.37140464783,-292233.943939209,2205068.588256836,-3093190.4315948486,-4484255.790710449,-16537864.685058594,2970471.143722534,4796664.237976074,7959854.1259765625,5003452.301025391,-839025.3782272339,-3719578.742980957,-2925231.695175171,-3439352.7507781982,1879045.3672409058,3207903.6235809326,2647723.1979370117,4132038.116455078,-2890727.2815704346,-2850750.9231567383,-3160191.535949707,13114.69916254282,-10136314.392089844,3077730.178833008,-2379087.448120117,-3393990.5166625977
0.07,-6024820.327758789,-13849892.616271973,-18634696.96044922,-3313868.0458068848,-9194485.664367676,-17437839.50805664,1198804.7361373901,-312034.0704917908,3825554.132461548,3742380.6190490723,-6229394.912719727,-8649536.1328125,-6206042.766571045,-6117269.039154053,-29081062.31689453,9430812.83569336,1490725.9941101074,5731001.377105713,2204042.911529541,2986582.5176239014,978639.4238471985,-18071313.858032227,-6085153.579711914,-114572952.27050781,453148.9908695221,3289389.8487091064,5899614.8109436035,-5875241.756439209,-2087071.418762207,2944286.584854126,-1293795.3472137451,-6297218.322753906,-35863906.86035156,-2505689.6209716797,5715466.499328613,4748924.255371094,120165.09473323822,-1023480.5345535278,1565252.0656585693,-3545410.633087158,-5172950.744628906,-17275049.209594727,2085239.4104003906,4160229.6829223633,6366193.2945251465,3832235.097885132,-1594934.7019195557,-4265124.320983887,-3670112.133026123,-3925866.8422698975,1087335.228919983,2433493.6141967773,1865678.1911849976,2911703.8249969482,-3628046.5126037598,-3660640.7165527344,-3991132.0209503174,-2819637.5370025635,-11919415.473937988,2167229.652404785,-3082207.441329956,-3968977.451324463
0.075,-571020.245552063,-8886499.404907227,-13324122.428894043,1810761.6901397705,-6133755.207061768,-9754256.248474121,5854616.165161133,4194395.542144775,6451436.996459961,7035205.364227295,-3352780.58052063,-6219470.500946045,-4305401.802062988,-4110908.9851379395,-23530954.360961914,13451884.269714355,4287644.863128662,7607210.159301758,4100416.1834716797,4863477.2300720215,3811948.299407959,-17582582.473754883,-4302551.746368408,-112455680.84716797,3516366.958618164,4631306.171417236,6373754.978179932,-6717343.330383301,-1373791.9330596924,4468686.580657959,-337660.84909439087,-4671994.209289551,-30584619.522094727,-971044.7192192078,6788558.006286621,5086749.076843262,42163.800448179245,-558362.3647689819,2316993.7133789062,-2372675.1804351807,-4177350.9979248047,-16380825.04272461,2612611.770629883,4519792.556762695,6260328.29284668,3758736.6104125977,-1319567.084312439,-3128839.2543792725,-2479012.0124816895,-2749726.5338897705,1471542.7160263062,2874860.0482940674,2374599.2183685303,3035355.806350708,-2555807.113647461,-2698893.3086395264,-3075686.454772949,-3677111.6256713867,-11689710.61706543,2149517.774581909,-2077765.941619873,-2974674.2248535156
0.08,3993157.386779785,-4143329.620361328,-8522334.098815918,3583528.518676758,-3516162.157058716,-3630913.019180298,8498602.867126465,6731913.5665893555,7116643.42880249,8789923.667907715,-1135913.4912490845,-4280189.514160156,-3132147.5505828857,-2846971.035003662,-20568059.92126465,14636920.928955078,5571041.107177734,9087635.99395752,5564217.567443848,6184818.267822266,4383718.967437744,-17437994.0032959,-3087907.314300537,-108051452.63671875,4642585.277557373,4869786.262512207,6516993.999481201,-7048351.287841797,-331051.70726776123,4991699.21875,-389187.4551773071,-3512019.395828247,-28228237.15209961,-1146025.0616073608,6815725.803375244,5160917.282104492,221742.80881881714,192270.08521556854,3357398.03314209,-1399139.8811340332,-3035924.4346618652,-15271574.020385742,3251564.0258789062,4764032.363891602,6999905.586242676,4043817.9969787598,-747741.69921875,-2147666.6927337646,-1196712.7323150635,-1707664.6089553833,1976154.2081832886,3380678.89213562,2901035.785675049,3556746.9596862793,-1476354.0029525757,-1603567.7194595337,-1991038.9184951782,-3469342.9470062256,-10740355.491638184,2305432.3196411133,-953589.6182060242,-2092109.9185943604
0.085,3935916.6622161865,-3271681.547164917,-8159215.927124023,1112272.2625732422,-3025710.344314575,-4282953.73916626,7660580.158233643,5848017.692565918,6749495.506286621,8865716.934204102,-685066.5211677551,-3766433.7158203125,-3387206.792831421,-3114773.2734680176,-23351728.439331055,12008567.810058594,4466311.931610107,9085049.629211426,6085003.852844238,6686512.9470825195,2849272.4895477295,-17431381.225585938,-3315330.2669525146,-108928726.19628906,2136533.02192688,3515453.577041626,6210211.277008057,-6467632.293701172,-59529.91545200348,4552806.854248047,-1105956.792831421,-3631278.0380249023,-30812232.971191406,-2725358.486175537,5369013.30947876,4595955.371856689,450555.2649497986,143812.71600723267,3659943.5806274414,-1478555.44090271,-2800743.579864502,-14342641.830444336,3651384.8304748535,4674384.593963623,7525530.815124512,4157145.9770202637,-817699.3727684021,-2324632.6446533203,-1161553.3828735352,-1787468.9102172852,2521034.7175598145,3836027.6222229004,3292706.9664001465,3768967.866897583,-1558809.0419769287,-1469886.6605758667,-1784649.7297286987,-2597902.297973633,-10136404.991149902,2421255.350112915,-792375.5049705505,-2219739.9139404297
0.09,-1427425.2653121948,-7704144.477844238,-12863740.921020508,-3414051.5327453613,-5355530.261993408,-10382420.539855957,4293461.322784424,2481678.009033203,6346845.626831055,8057839.393615723,-2587921.380996704,-5453575.134277344,-3682866.8117523193,-3466898.202896118,-28000585.556030273,8262310.981750488,2229754.92477417,7398654.937744141,5532274.7230529785,6074701.78604126,1296064.3768310547,-16931068.420410156,-3521051.1684417725,-115224136.35253906,-1257832.646369934,1922680.0203323364,5557292.938232422,-5577702.99911499,-521909.6541404724,4698160.171508789,-209791.4218902588,-3554636.4784240723,-34244968.41430664,-2868130.922317505,4277264.11819458,4027685.1654052734,422363.5196685791,-320545.91178894043,3998834.8484039307,-1042415.8573150635,-2262450.933456421,-12311306.953430176,5263529.7775268555,5675279.140472412,8072694.778442383,4943068.027496338,-1083566.1888122559,-2071399.6887207031,-1015597.3434448242,-1495824.4562149048,4469771.385192871,5664777.755737305,5095354.080200195,4559641.8380737305,-1330122.1132278442,-998925.2686500549,-1224888.6823654175,-193393.5433626175,-8437789.916992188,3486524.3434906006,-344436.6753101349,-1825210.2136611938
0.095,-10201054.573059082,-16616064.071655273,-20861486.434936523,-8027338.981628418,-9395686.149597168,-17448150.634765625,27462.4265730381,-1720317.3637390137,5653882.98034668,7029655.456542969,-5987567.901611328,-9117864.608764648,-2797097.682952881,-2523904.0851593018,-29891517.639160156,5608927.7267456055,291478.30605506897,5585366.249084473,4658549.3087768555,4870406.150817871,618083.655834198,-15961045.265197754,-2247865.676879883,-119017715.45410156,-3399261.236190796,890806.9729804993,4849195.0035095215,-4928110.122680664,-782954.1563987732,5958107.948303223,3149946.928024292,-1944641.9477462769,-33698188.78173828,-959096.1337089539,4754003.047943115,4013798.236846924,109610.31168699265,110717.3040509224,5542586.326599121,1335905.7903289795,-56681.08910322189,-9267647.743225098,8288016.319274902,8028825.759887695,8925093.650817871,7119238.85345459,-322068.8998699188,227750.2864599228,1014123.5589981079,734633.74376297,7691465.377807617,8817255.020141602,8375483.512878418,6756621.360778809,905223.6080169678,1289959.7883224487,1036039.5908355713,3242077.8274536133,-4601992.607116699,5961720.4666137695,1880784.511566162,614657.9384803772
0.1,-15513439.178466797,-23204942.70324707,-25928382.873535156,-10218691.8258667,-11537465.09552002,-20410751.342773438,-2332535.982131958,-3981568.0980682373,5112587.451934814,6544518.47076416,-7671242.237091064,-11619621.276855469,-1540363.5501861572,-1105023.2648849487,-28772750.854492188,4886951.446533203,-401901.0365009308,5954537.868499756,4594041.347503662,4392660.140991211,736595.2134132385,-15042815.208435059,-553235.9480857849,-115642959.59472656,-4547743.320465088,9186.135604977608,4487402.91595459,-4703564.643859863,-498774.29008483887,6844872.47467041,5857602.596282959,-172086.62629127502,-30196723.93798828,-164691.92504882812,5360347.270965576,4043417.453765869,-245112.68734931946,1237740.159034729,7041673.183441162,3673761.1293792725,2088101.863861084,-8647361.755371094,9356627.464294434,8840963.363647461,8780164.71862793,8746068.954467773,979868.7100410461,2655809.8793029785,3325005.531311035,3102301.1207580566,8678994.178771973,9800796.508789062,9555466.651916504,8388787.269592285,3339683.0558776855,3601442.0986175537,3210986.852645874,4336519.241333008,-2001171.1120605469,7575215.3396606445,4164679.527282715,3143132.209777832
0.105,-9401979.446411133,-18213380.813598633,-20243419.647216797,-6907443.046569824,-8285207.748413086,-15567581.176757812,331680.95350265503,-1268754.7206878662,6500230.78918457,7442030.906677246,-4540373.802185059,-9055911.06414795,-1655679.5835494995,-1229900.83694458,-26887258.529663086,7055857.6583862305,826410.7704162598,8862866.401672363,5522200.107574463,5214572.429656982,2038126.2302398682,-14389392.852783203,-866426.8255233765,-109381698.60839844,-4491384.029388428,-645446.4197158813,4814860.820770264,-5168584.34677124,-352657.40752220154,5876688.9572143555,3984868.049621582,-905666.708946228,-28779905.319213867,-2802081.1080932617,4311370.372772217,3474406.7192077637,-401693.07589530945,1080016.9706344604,5708385.944366455,2268834.114074707,712730.9441566467,-13185068.130493164,5231047.1534729,5383975.505828857,6407955.169677734,6728118.896484375,600758.3737373352,1368149.3997573853,2146800.0411987305,1880673.6469268799,4376495.361328125,5510391.712188721,5331846.237182617,6268261.909484863,2077706.8138122559,2219815.0157928467,1787799.2391586304,437736.1238002777,-5237675.189971924,5249869.346618652,2807901.14402771,1859435.796737671
0.11,5427269.93560791,-3213958.740234375,-5508681.297302246,632380.5451393127,-1395656.3472747803,-4969575.881958008,6991162.300109863,5370649.814605713,9733958.24432373,9142257.690429688,1642442.8224563599,-2761322.498321533,-3467958.688735962,-3395135.8795166016,-25409412.384033203,11919344.902038574,3337975.7404327393,11501240.730285645,6102092.266082764,6020102.500915527,4069520.4734802246,-14188991.54663086,-3608919.858932495,-106707244.87304688,-2076092.9584503174,-230267.9717540741,5680654.525756836,-6537525.177001953,-946748.1970787048,3645067.4533843994,-1704442.858695984,-4280097.961425781,-30997722.625732422,-6355003.833770752,2578933.9542388916,2848256.5879821777,-316684.5142841339,-1089272.0222473145,1497898.9362716675,-2908439.6362304688,-4236365.795135498,-19723520.278930664,-1589778.9001464844,-97513.0945444107,3441504.2400360107,1736554.0266036987,-2000092.0295715332,-3773513.3171081543,-2871298.313140869,-3140030.3840637207,-2511685.1329803467,-1382809.9966049194,-1660450.4585266113,1112290.7400131226,-3133740.186691284,-3024299.6215820312,-3265149.3549346924,-5879955.291748047,-12598780.632019043,-21900.728344917297,-2401494.5030212402,-3447017.6696777344
0.115,14583539.962768555,6661037.921905518,4206403.732299805,5534817.695617676,2160523.1761932373,3766738.4147644043,11818920.135498047,10193325.996398926,11710644.721984863,9404180.526733398,4561048.0308532715,171225.1752614975,-5550823.211669922,-5868312.835693359,-23561561.584472656,16483772.277832031,4922125.816345215,10846684.455871582,4925214.2906188965,5054624.080657959,4446847.438812256,-15074463.844299316,-6407312.393188477,-107818244.93408203,2001600.5039215088,1168981.7905426025,6453645.2293396,-8255843.162536621,-1919960.379600525,2097382.7838897705,-5882065.296173096,-7228563.7855529785,-32622947.692871094,-6257002.830505371,2855770.8263397217,3311768.2933807373,-127398.43130111694,-3070561.408996582,-1766799.2115020752,-7045054.4357299805,-8205592.155456543,-21558385.848999023,-4353340.148925781,-1849087.8343582153,3214870.2144622803,-1164818.8829421997,-4127303.6003112793,-7889430.522918701,-7048399.448394775,-7241490.840911865,-5239964.008331299,-4111815.4525756836,-4474731.922149658,-1880858.4213256836,-7385059.833526611,-7302835.941314697,-7278953.075408936,-8565621.376037598,-16275753.021240234,-2962172.9850769043,-6603135.585784912,-7830378.532409668
0.12,9931356.430053711,1303491.473197937,-1275045.5141067505,3897006.034851074,-1673997.6406097412,6741521.35848999,11560269.355773926,9984102.249145508,10832355.499267578,7180574.893951416,885422.1701622009,-4386732.10144043,-6542974.472045898,-6819934.844970703,-19401859.283447266,18206985.473632812,4548356.533050537,7723094.463348389,2592414.379119873,2698368.3109283447,1921544.7902679443,-17082199.096679688,-7041985.511779785,-107194282.53173828,5363682.270050049,2322465.181350708,6827696.323394775,-9161425.590515137,-2448433.6376190186,2231725.2159118652,-5147497.653961182,-7267134.666442871,-29553728.103637695,-1737721.8008041382,5756131.649017334,4906825.065612793,-2415.374154224992,-2631913.423538208,-1067521.572113037,-6296744.346618652,-7575394.153594971,-16625263.214111328,-288374.06635284424,2211101.770401001,6310209.274291992,1120759.2487335205,-3389630.5561065674,-7061412.811279297,-6418453.693389893,-6520854.473114014,-1129028.9163589478,12194.973416626453,-283112.91337013245,382709.7713947296,-6619287.490844727,-6612787.246704102,-6532756.805419922,-4987707.614898682,-12191385.269165039,-575437.0093345642,-5730463.027954102,-7145737.171173096
0.125,1178628.68309021,-10157185.554504395,-14182996.74987793,705491.2447929382,-8374368.667602539,8554075.241088867,10140203.475952148,8585495.948791504,10014296.531677246,4652306.079864502,-4946636.67678833,-11460830.688476562,-6504413.12789917,-6343130.111694336,-12147492.408752441,18586975.09765625,4034040.927886963,6017146.587371826,1432685.375213623,1391733.2887649536,-838934.0043067932,-18718852.996826172,-5999362.468719482,-101499359.13085938,7051370.143890381,2560594.081878662,7157474.994659424,-8734248.161315918,-2174568.4146881104,3340627.908706665,-1926123.3806610107,-5493201.25579834,-23460632.32421875,3117300.271987915,8686630.249023438,6241145.610809326,2086.7956336587667,-762520.6112861633,1889954.4477462769,-2729248.285293579,-4332256.317138672,-10345035.552978516,5542675.495147705,7315284.729003906,9247286.796569824,5191347.599029541,-1208728.1942367554,-3425771.2364196777,-2915921.449661255,-2971084.1178894043,4762365.818023682,5891159.0576171875,5738027.572631836,4371040.344238281,-2936511.993408203,-2967637.538909912,-3069413.423538208,1023764.2526626587,-5652490.139007568,3532968.044281006,-1901130.4378509521,-3387740.135192871
0.13,421828.0017375946,-13652346.61102295,-20304647.44567871,1466738.1048202515,-11132567.405700684,12582290.649414062,11549358.367919922,9929815.292358398,11801242.82836914,4349178.314208984,-6892929.0771484375,-13868170.738220215,-6395070.552825928,-5906659.6031188965,-5467216.968536377,19877735.137939453,4712007.522583008,7313444.6144104,2542952.060699463,2406102.418899536,-715674.5791435242,-18606592.178344727,-5341207.504272461,-94456275.9399414,7425867.080688477,2103752.851486206,7488172.53112793,-7777924.537658691,-1403262.1383666992,4242907.0472717285,-469994.03834342957,-4696434.497833252,-19640811.920166016,4094528.1982421875,8867762.565612793,6012295.246124268,-31795.736402273178,-11319.952085614204,3395429.3727874756,-1150057.1966171265,-2952123.4035491943,-8637732.50579834,6830138.206481934,7806008.338928223,8852688.789367676,6009276.390075684,-534875.8697509766,-1879483.2229614258,-1325366.9738769531,-1397988.5578155518,6150346.755981445,7236011.028289795,7152308.464050293,5051277.637481689,-1320746.898651123,-1268112.8978729248,-1548034.0719223022,4291885.3759765625,-3875827.7893066406,4299448.9669799805,-241067.5883293152,-1573034.7633361816
0.135,2957583.6658477783,-11618052.48260498,-19520278.930664062,2176912.307739258,-10495309.829711914,12556746.482849121,12098362.922668457,10423649.787902832,13038718.223571777,5092365.741729736,-5928610.801696777,-12409000.396728516,-6820381.164550781,-6350545.883178711,-6116641.998291016,19964857.10144043,4189798.355102539,8443386.07788086,3948363.0657196045,3793925.7621765137,839875.5192756653,-17661262.51220703,-5914224.147796631,-92870666.50390625,5558897.018432617,679567.5754547119,6918218.13583374,-7593095.302581787,-695862.5912666321,4474495.410919189,-1258180.3798675537,-5598785.400390625,-20681875.228881836,1106278.5387039185,6414492.607116699,4393850.803375244,19776.545464992523,-414123.44574928284,2890370.1305389404,-2524125.814437866,-4200509.071350098,-10929696.083068848,3979895.1148986816,4313468.456268311,6454607.963562012,4310934.066772461,-1186085.58177948,-3328021.52633667,-2635683.298110962,-2779695.510864258,3361223.2208251953,4459370.136260986,4359802.24609375,3360946.8936920166,-2711323.2612609863,-2527152.2998809814,-2830686.092376709,4393565.654754639,-6330701.82800293,2594436.1686706543,-1777702.6891708374,-2824233.5319519043
0.14,-3556916.4752960205,-16604194.641113281,-22740940.09399414,-4282590.866088867,-12414227.485656738,2605588.19770813,6309046.745300293,4713737.487792969,9184861.183166504,3496973.991394043,-7718652.725219727,-13448328.971862793,-7542280.197143555,-7088078.022003174,-15567265.510559082,15405964.851379395,-168827.53372192383,6025988.578796387,2901287.55569458,2775482.8929901123,-106253.36319208145,-17971996.307373047,-6713710.308074951,-98158691.40625,534497.7378845215,-2227681.1599731445,4921081.54296875,-8690148.35357666,-492283.6422920227,4237973.690032959,-1839897.632598877,-6491576.194763184,-24140140.533447266,-2542885.0650787354,3848715.5437469482,2755459.785461426,198912.6354455948,438319.4148540497,2857010.3645324707,-3499184.1316223145,-4919390.2015686035,-12452014.923095703,2402016.6397094727,2244034.5287323,5996716.9761657715,5126677.0362854,-294723.9577770233,-4305983.066558838,-3541902.0652770996,-3759735.107421875,1718182.5637817383,2936391.3536071777,2822284.698486328,4424562.931060791,-3577545.642852783,-3362642.526626587,-3652798.891067505,4596268.653869629,-7001953.601837158,3515151.023864746,-2831133.3656311035,-3724463.701248169
0.145,-16527482.986450195,-28132547.37854004,-31444221.49658203,-14708064.079284668,-17950056.076049805,-9524627.685546875,-2399424.3144989014,-3821931.3621520996,2433529.3769836426,-711321.4135169983,-13013949.394226074,-18106525.421142578,-8100847.244262695,-7353736.400604248,-25417806.62536621,8507547.378540039,-5870009.899139404,1634789.8244857788,-496519.5655822754,-547422.1110343933,-3695022.5830078125,-19834047.317504883,-6841313.83895874,-104222572.32666016,-4902980.327606201,-5534422.874450684,2780700.445175171,-10474447.250366211,-952794.3134307861,3790530.4431915283,-1639832.0198059082,-6273836.612701416,-26248844.146728516,-4050175.666809082,3158932.2090148926,2251361.608505249,408252.8054714203,3192959.5470428467,4225691.318511963,-2140640.2587890625,-3522505.99861145,-11350275.039672852,4335481.643676758,4079295.1583862305,8703456.87866211,9593023.300170898,2741549.253463745,-2911009.5500946045,-2193855.2856445312,-2433346.748352051,3541171.5507507324,4863949.298858643,4778293.132781982,9157306.671142578,-2012976.6464233398,-1907969.7132110596,-2266976.3565063477,6083686.351776123,-4112045.7649230957,8092329.978942871,-1285948.395729065,-2267966.7472839355
0.15,-21051385.8795166,-32411403.65600586,-34918109.89379883,-18460546.493530273,-21456836.700439453,-10977902.41241455,-5141684.532165527,-6448704.242706299,-167657.7478647232,-3879549.264907837,-16326992.03491211,-20773372.650146484,-8605720.520019531,-7536172.389984131,-26392311.096191406,5652148.723602295,-7703113.079071045,-143180.40013313293,-3462949.03755188,-3400176.525115967,-6169861.316680908,-21563907.623291016,-6943691.730499268,-104872604.37011719,-6366589.546203613,-7063306.80847168,2348787.0693206787,-11929670.333862305,-1902202.844619751,3193064.6896362305,-2602447.032928467,-6105951.309204102,-26105560.302734375,-3622547.6264953613,3936651.4682769775,2727983.236312866,452644.7057723999,5104815.0062561035,4819525.718688965,-837324.9769210815,-2455912.5900268555,-10302950.859069824,6163261.413574219,6377380.847930908,11512311.935424805,12732981.68182373,4730931.758880615,-1662854.4330596924,-1019353.1513214111,-1234513.4019851685,5375256.061553955,6619054.317474365,6582820.892333984,12305509.567260742,-657657.6828956604,-709835.8273506165,-1096053.123474121,6179567.337036133,-2317918.539047241,11210453.987121582,193575.47163963318,-934366.8222427368
0.155,-14098679.542541504,-25616521.83532715,-29435697.555541992,-13623153.686523438,-20023401.260375977,-3167165.2793884277,-1045136.0940933228,-2329565.7634735107,3108955.3833007812,-3681682.825088501,-14930451.393127441,-18894367.218017578,-9625534.057617188,-8621211.051940918,-20433639.526367188,8134693.145751953,-5330715.179443359,1963329.792022705,-4283564.09072876,-4072478.2943725586,-6122689.723968506,-22208559.036254883,-8137939.453125,-101079154.96826172,-4107497.6921081543,-6542424.201965332,3453255.1765441895,-12433120.727539062,-2941794.6338653564,2404955.6255340576,-5275680.065155029,-7440550.804138184,-25494464.874267578,-3432554.9602508545,4332610.130310059,2977957.9639434814,203040.212392807,3748571.6342926025,2962542.5338745117,-2311281.681060791,-4168502.8076171875,-11632188.79699707,4362462.520599365,5182930.946350098,11162833.213806152,10621599.197387695,3156940.221786499,-3268659.3532562256,-2644844.5320129395,-2844168.186187744,3686884.4032287598,4733857.63168335,4740653.991699219,9988370.895385742,-2308132.4100494385,-2473585.1287841797,-2678090.810775757,2783535.2420806885,-4967972.278594971,8958238.60168457,-1390658.2593917847,-2528268.575668335
0.16,-9540233.612060547,-20884157.180786133,-25570920.944213867,-10093001.365661621,-18166112.899780273,-74899.27858114243,1244400.8588790894,-661.4832673221827,6096340.179443359,-2279221.534729004,-13123129.844665527,-17170850.75378418,-11073659.896850586,-10371208.190917969,-17658685.6842041,10208619.117736816,-3981081.008911133,4327716.827392578,-4171928.4057617188,-3729074.239730835,-6418329.238891602,-22435396.194458008,-9980234.146118164,-98357406.61621094,-3152336.1206054688,-6198200.702667236,3977869.987487793,-12110708.236694336,-3711127.996444702,1467672.8248596191,-7299720.287322998,-9504765.510559082,-25664491.653442383,-4625384.330749512,3416303.3962249756,2169197.3209381104,-219160.24386882782,564138.4124755859,283989.87650871277,-5188021.659851074,-7063775.062561035,-13945606.231689453,856599.2712974548,1716312.6468658447,8403152.465820312,6088336.46774292,-124882.273375988,-6161519.0505981445,-5549516.677856445,-5767893.314361572,204718.06824207306,1202396.035194397,1202796.8168258667,5331069.9462890625,-5332980.155944824,-5552640.438079834,-5475391.387939453,-1762342.929840088,-8782958.030700684,4329048.156738281,-4481495.380401611,-5545384.883880615
0.165,-15379934.310913086,-26754096.98486328,-30613906.860351562,-13850098.609924316,-19963403.701782227,-6521399.021148682,-2766136.884689331,-3916040.6589508057,4234499.454498291,-2494451.0459899902,-14747519.493103027,-19343391.41845703,-11749418.258666992,-11079591.751098633,-21807353.973388672,8055423.736572266,-6505632.8773498535,3653199.1958618164,-4768760.204315186,-4016842.3652648926,-8695921.897888184,-22687088.012695312,-10581622.123718262,-99005966.18652344,-5889925.956726074,-7400418.281555176,2876125.5741119385,-11612409.591674805,-4085419.178009033,615720.5700874329,-6920386.31439209,-10044760.704040527,-25905307.76977539,-5919654.846191406,2241536.3788604736,978521.1682319641,-473904.5202732086,-958021.2235450745,-546337.1276855469,-5845358.848571777,-7574779.510498047,-14403056.144714355,395507.24625587463,619762.2418403625,7076352.596282959,4798165.798187256,-1386648.5357284546,-6609018.325805664,-6078334.808349609,-6331011.2953186035,-412190.7651424408,768098.4139442444,662653.1481742859,4135391.2353515625,-5877231.121063232,-6105036.25869751,-5933125.019073486,-3059564.8288726807,-8408288.955688477,3105597.972869873,-5096415.042877197,-6153383.731842041
0.17,-21676435.470581055,-33732757.568359375,-36597785.94970703,-18005899.42932129,-22310880.661010742,-11358394.622802734,-6711132.526397705,-7834604.263305664,1206425.0707626343,-3440603.494644165,-16897054.67224121,-22114488.60168457,-10842781.066894531,-9856206.893920898,-25668979.64477539,5333863.258361816,-9215447.425842285,1266875.6246566772,-5576535.224914551,-4622586.727142334,-10373752.59399414,-22587308.883666992,-9163414.95513916,-100036895.75195312,-8607283.592224121,-8492050.170898438,1745337.963104248,-11470513.343811035,-4284757.614135742,-35406.1983525753,-5754975.79574585,-8446430.206298828,-25061647.415161133,-5273174.76272583,2579693.7942504883,987217.6647186279,-334634.4828605652,227192.59560108185,467835.1581096649,-3599401.2355804443,-5164023.876190186,-12066475.868225098,4464116.57333374,3951420.783996582,9613068.580627441,7965569.496154785,102762.05092668533,-4063208.1031799316,-3641739.6068573,-3934272.050857544,3495746.374130249,4826096.534729004,4568809.509277344,7454270.362854004,-3342099.189758301,-3540902.853012085,-3551554.2030334473,20576.834678649902,-3312680.244445801,6435878.276824951,-2543393.850326538,-3650411.605834961
0.175,-18244155.883789062,-30858345.03173828,-34160984.03930664,-14717571.258544922,-20587818.145751953,-6076509.475708008,-4065923.6907958984,-5313982.963562012,2592152.3571014404,-2497153.2821655273,-15278358.459472656,-21270381.927490234,-9521767.616271973,-8311260.223388672,-22624691.009521484,6928104.877471924,-7823243.141174316,789121.4489936829,-5160811.424255371,-4299182.415008545,-9224558.83026123,-22434757.232666016,-7566911.697387695,-98467124.93896484,-7328140.735626221,-7317669.39163208,2567911.148071289,-11577982.902526855,-4678160.190582275,-705119.1926002502,-6256024.360656738,-6840584.754943848,-23273048.400878906,-2524751.1863708496,4794576.168060303,2755698.4424591064,22712.640464305878,1739354.0143966675,966167.0327186584,-1625070.6911087036,-3043205.976486206,-8190527.91595459,9808024.406433105,8961261.749267578,14287403.106689453,11574188.232421875,1604759.693145752,-1906922.8172302246,-1529064.7745132446,-1867180.1090240479,8884861.946105957,10094948.768615723,9800071.716308594,11107704.162597656,-1125822.901725769,-1299474.1201400757,-1571299.5529174805,4052007.6751708984,2107832.193374634,10141960.144042969,-313993.33477020264,-1417598.009109497
0.18,-11022274.017333984,-23225276.947021484,-27703807.830810547,-7799449.920654297,-16515134.811401367,2187309.980392456,1706035.9716415405,317516.9229507446,7178729.057312012,95979.88426685333,-11588891.02935791,-18601528.16772461,-9379997.253417969,-8309929.847717285,-15519011.497497559,11615528.106689453,-3791095.733642578,3171969.6521759033,-3622153.0437469482,-3042436.122894287,-7078245.162963867,-22843910.217285156,-7746857.166290283,-94864334.10644531,-3349222.6600646973,-4460572.719573975,4944837.0933532715,-11384530.067443848,-5154386.9972229,-1267009.4966888428,-7632612.705230713,-7068867.206573486,-21326532.3638916,520570.0993537903,7442805.767059326,4987113.475799561,190822.42250442505,1234464.2877578735,-55789.23970460892,-2230541.706085205,-3528472.423553467,-4457839.9658203125,12687891.006469727,11838878.631591797,17204015.731811523,11929254.531860352,890557.1699142456,-2493612.52784729,-2140331.506729126,-2472706.7947387695,11969574.928283691,12965156.555175781,12789895.057678223,11468021.392822266,-1620791.7928695679,-1830420.3748703003,-2239341.2590026855,5472516.5367126465,4109745.979309082,10478122.71118164,-937953.4721374512,-1982216.238975525
0.185,-10818171.501159668,-21993530.2734375,-26550298.6907959,-6219761.371612549,-14895597.457885742,3222349.8821258545,3228996.515274048,1859992.7425384521,9283167.839050293,1586387.5150680542,-10412910.461425781,-17803180.694580078,-9336688.041687012,-8511404.991149902,-10409932.136535645,14703560.829162598,-1694190.3829574585,5873357.29598999,-2291736.602783203,-1880366.8022155762,-6234127.521514893,-22469402.313232422,-8262715.3396606445,-90820419.31152344,-432480.5438518524,-2372589.111328125,6686637.401580811,-10631356.239318848,-4853348.255157471,-603467.3452377319,-6460057.258605957,-7467891.216278076,-18980289.459228516,2633015.6326293945,9078807.830810547,6050501.823425293,10210.111737251282,-596346.3187217712,-567875.9813308716,-3243525.266647339,-4534607.887268066,-1600358.3669662476,13081263.542175293,12149734.497070312,16706535.339355469,9742992.401123047,-1017467.8564071655,-3563861.37008667,-3370672.9412078857,-3552079.677581787,12504940.032958984,13539006.233215332,13444093.704223633,9379035.949707031,-2648053.6460876465,-2932416.4390563965,-3349248.4092712402,5025427.341461182,3448500.633239746,8277174.949645996,-2217111.110687256,-3209388.256072998
0.19,-15392973.899841309,-25834539.41345215,-28987874.98474121,-10449804.306030273,-15731524.467468262,-294297.456741333,402916.818857193,-862957.3583602905,7255100.250244141,863624.632358551,-11710914.611816406,-17703489.303588867,-6694407.4630737305,-5885334.9685668945,-7606553.077697754,15093063.354492188,-2740351.438522339,6354863.166809082,-1783095.4790115356,-1349258.303642273,-5527610.778808594,-19267776.489257812,-5860738.754272461,-86908485.41259766,609165.2512550354,-2164925.0984191895,6562325.477600098,-9773424.14855957,-3226341.0091400146,2079385.0421905518,-1819087.8629684448,-4946488.380432129,-15506343.841552734,4418711.6622924805,9753648.75793457,5846561.908721924,-281544.86417770386,-1227677.583694458,1560642.8384780884,-1081451.177597046,-2529511.6901397705,740432.6796531677,13900017.738342285,12549392.700195312,15088377.952575684,8463253.97491455,-1571209.43069458,-1485535.5024337769,-1584966.540336609,-1478564.0239715576,13323316.57409668,14620279.312133789,14387425.422668457,8231861.114501953,-665203.1540870667,-956494.6889877319,-1330419.1827774048,6318907.737731934,3514370.4414367676,7096678.256988525,-437505.7816505432,-1356203.0792236328
0.195,-15347968.101501465,-25746397.018432617,-27449197.76916504,-13809832.572937012,-15803853.034973145,734894.9313163757,-1378154.3970108032,-2708975.315093994,4543040.2755737305,-634490.6687736511,-12222672.462463379,-15590857.50579834,-2173429.489135742,-1175181.269645691,-4131350.040435791,15133187.294006348,-4555761.337280273,4659235.954284668,-1911306.381225586,-1500961.0652923584,-3553577.423095703,-15078095.436096191,-1060755.3720474243,-84023200.98876953,1200075.8647918701,-2949910.6407165527,5255509.853363037,-9598334.312438965,-1395760.416984558,5074032.306671143,2253488.302230835,-279546.8866825104,-11564282.417297363,6590535.1638793945,10241933.822631836,5471118.450164795,-427902.57930755615,354770.86901664734,5070489.883422852,3620721.8170166016,1951759.4575881958,3418068.1705474854,16901187.896728516,14869928.359985352,15612753.868103027,10151765.823364258,14574.188739061356,3112452.745437622,2820040.225982666,3187697.8874206543,16319238.662719727,17706665.0390625,17250934.600830078,9925863.265991211,3731527.56690979,3547171.8311309814,3245487.689971924,10499876.976013184,6000822.067260742,8926012.992858887,3966447.8302001953,3190526.7238616943
0.2,-11234295.845031738,-22240083.694458008,-23812612.533569336,-14000233.65020752,-15689717.292785645,6019142.150878906,-813525.9747505188,-2409814.8345947266,3516466.1407470703,-1708460.5693817139,-12205760.955810547,-13923676.490783691,-720960.3786468506,486587.43500709534,-948687.6726150513,15418484.687805176,-5690433.502197266,2594989.776611328,-2746491.9090270996,-2542320.728302002,-2713603.4965515137,-15274188.995361328,997094.0351486206,-83836952.20947266,1290413.498878479,-3731932.4016571045,3907096.3859558105,-10410883.903503418,-1335450.291633606,5177737.236022949,1159833.1928253174,1592594.027519226,-9288571.35772705,8211618.423461914,10437555.313110352,5379593.372344971,-475051.1944293976,2583120.107650757,6441682.815551758,6158205.509185791,4330587.863922119,6487222.671508789,20379312.51525879,17697736.740112305,18392240.524291992,13613912.582397461,2130008.6975097656,5593713.760375977,5372182.369232178,5805820.941925049,19887271.881103516,21023290.634155273,20545333.862304688,13273888.58795166,6085713.3865356445,6017752.170562744,5795050.621032715,14252307.891845703,9182258.605957031,12398212.432861328,6541903.018951416,5866296.291351318
0.205,-11771645.545959473,-23622682.571411133,-26103965.759277344,-14733417.510986328,-18238477.70690918,7037620.544433594,-1434303.2836914062,-3193628.5495758057,3225063.5623931885,-2195393.0854797363,-14313835.144042969,-16687170.028686523,-4735822.677612305,-3359591.7224884033,-1785917.6397323608,14212185.859680176,-6694772.243499756,1743068.3374404907,-3971544.027328491,-3933089.017868042,-5483826.637268066,-21116430.282592773,-2491017.1031951904,-86341194.15283203,-277376.9795894623,-4346019.268035889,2941025.495529175,-11549080.848693848,-3167107.582092285,2020008.8024139404,-4015348.9112854004,-1756570.6968307495,-10157418.251037598,7723695.755004883,9505908.966064453,4909133.9111328125,-561978.7573814392,3494042.8733825684,4558488.368988037,4088912.9638671875,2184797.0485687256,8166692.733764648,21080917.358398438,18110740.661621094,20236330.032348633,15923293.113708496,3019270.896911621,3587439.53704834,3577553.9875030518,3877817.153930664,20671112.060546875,21542821.884155273,21262178.421020508,15548717.498779297,4160602.569580078,4096488.9526367188,3876265.76423645,13715858.459472656,10176678.657531738,14553094.863891602,4876891.613006592,4102063.6558532715
0.21,-17314077.377319336,-29052469.25354004,-32080772.399902344,-16547992.706298828,-20947896.95739746,1708245.873451233,-3604167.4613952637,-5191920.280456543,3536633.253097534,-1055946.1116790771,-16502737.045288086,-20790723.80065918,-9323259.353637695,-7889194.488525391,-6392731.189727783,11881114.00604248,-7229476.451873779,2659084.7969055176,-3871173.620223999,-3714051.0082244873,-8628207.206726074,-26054227.828979492,-7063282.012939453,-89330299.3774414,-2653210.163116455,-4603149.4140625,2516620.397567749,-11820711.135864258,-4455851.078033447,-420569.509267807,-7172628.879547119,-6021255.4931640625,-13846370.697021484,4952083.587646484,7496716.9761657715,3724627.0179748535,-568583.8460922241,2954448.699951172,2377915.143966675,690690.5770301819,-1209243.5359954834,5836985.5880737305,17663408.279418945,15036041.259765625,18654878.616333008,15177357.67364502,2644154.3102264404,282632.0230960846,420358.95586013794,525640.1300430298,17190612.79296875,18128639.221191406,17991863.250732422,14962289.810180664,1063811.0637664795,921776.8907546997,599379.4202804565,8802239.418029785,7925148.487091064,13654914.855957031,1855545.997619629,857397.7947235107
0.215,-17619562.14904785,-27422546.38671875,-30023286.819458008,-14274435.997009277,-17559329.986572266,-1556442.2607421875,-2490974.187850952,-3774044.0368652344,6655350.208282471,3049231.0523986816,-13185521.125793457,-18730295.181274414,-8344247.817993164,-7162707.328796387,-9852764.129638672,12070372.581481934,-5540679.931640625,4986629.486083984,-1229695.9161758423,-796008.825302124,-6383172.988891602,-23586872.100830078,-6717850.208282471,-91154281.61621094,-3061594.9630737305,-3834950.9239196777,3066849.2317199707,-10725368.49975586,-3263362.8845214844,1363411.3073349,-4912227.153778076,-5769273.75793457,-18870656.967163086,1295293.0927276611,5801171.779632568,2711860.179901123,-254498.15392494202,2136078.5961151123,2809149.2652893066,149680.7336807251,-1596016.28780365,-1005675.6734848022,11735359.191894531,10202905.654907227,14805255.889892578,11810057.640075684,1999134.5405578613,-320307.97004699707,-99872.38049507141,-122833.37116241455,11093259.811401367,12289756.774902344,12083513.259887695,11793273.92578125,595130.1455497742,425316.1549568176,17504.729330539703,2562131.16645813,3423355.1025390625,10295795.440673828,1207397.5801467896,125394.24002170563
0.22,-8031735.420227051,-15701057.434082031,-17922250.747680664,-5990225.791931152,-8740053.176879883,4282217.502593994,4236462.116241455,3022328.3767700195,12575390.815734863,8263919.830322266,-4942752.838134766,-10474306.106567383,-3493703.1269073486,-2865244.8654174805,-8605955.123901367,16925657.272338867,-1597865.5815124512,7485846.996307373,1846797.4662780762,2409327.745437622,717372.4174499512,-16518363.952636719,-2718515.396118164,-91919853.21044922,-125043.49648952484,-1837755.799293518,4640598.297119141,-9310368.537902832,-910021.722316742,5437641.143798828,-1108116.9843673706,-2359641.0751342773,-23218948.364257812,-1524108.2906723022,5626920.223236084,2845158.338546753,272834.9566459656,1577864.646911621,4589149.951934814,1519179.8210144043,64420.59576511383,-8992675.78125,6106825.351715088,6208224.296569824,11820001.602172852,7751631.259918213,1423926.1150360107,828087.9855155945,1165445.4469680786,1114760.160446167,5352362.632751465,6611931.324005127,6278854.846954346,7715669.631958008,1701962.3517990112,1591699.6002197266,1259774.2080688477,-2215441.7037963867,-1774822.473526001,6348336.696624756,2034981.9660186768,1098821.6400146484
0.225,2853539.9436950684,-5446094.036102295,-8491613.388061523,2111024.1413116455,-3484074.115753174,15575799.942016602,11723464.012145996,10333168.983459473,16920755.38635254,9970803.260803223,-15430.845320224762,-4988002.300262451,-2036907.434463501,-1826939.344406128,-4037713.050842285,23424293.518066406,1783751.8453598022,8595790.86303711,1651405.5728912354,2172862.5297546387,5539803.981781006,-13232150.077819824,-1667629.9571990967,-91424011.23046875,4524525.165557861,412032.75322914124,6237279.891967773,-9264502.52532959,-98030.4628610611,7053503.99017334,-1393143.1770324707,-1793980.360031128,-24724771.49963379,-2342532.157897949,6610521.31652832,3786413.6695861816,551109.7311973572,876477.0030975342,4443591.594696045,755851.9840240479,-491557.9855442047,-13146788.597106934,2825330.0189971924,4404437.54196167,11136754.035949707,4771682.7392578125,527888.3576393127,-85644.75178718567,340761.1846923828,326150.0597000122,2089807.7487945557,3152956.008911133,2825231.3137054443,4455441.474914551,634960.7706069946,568007.2903633118,460101.30643844604,-4342147.350311279,-6005613.803863525,3392436.2659454346,800934.7915649414,30762.847512960434
0.23,6578880.786895752,-4550651.550292969,-8819741.249084473,3937544.107437134,-5797661.304473877,22818809.509277344,13897008.895874023,12422291.75567627,16394908.905029297,6963764.667510986,-2238466.262817383,-6835819.244384766,-5414654.731750488,-5158287.525177002,-547674.6559143066,26189319.610595703,2157227.039337158,7998993.873596191,-1755409.2407226562,-1200410.8428955078,4405404.567718506,-15453534.126281738,-4948011.39831543,-89324287.41455078,7658668.994903564,1415231.2278747559,6585801.124572754,-10805574.417114258,-918594.9563980103,5612432.479858398,-4739343.643188477,-5045009.136199951,-23178504.943847656,-1313185.691833496,7269767.761230469,4259700.775146484,332774.5497226715,70982.01662302017,2433879.3754577637,-2309670.4483032227,-3600242.1379089355,-11961263.656616211,2189831.018447876,4328604.221343994,11473970.413208008,3489083.0516815186,-507299.12519454956,-3078498.8403320312,-2723178.1482696533,-2700778.007507324,1518368.2441711426,2436616.1823272705,2191626.0719299316,2869867.8016662598,-2511971.2352752686,-2632656.0974121094,-2512710.8097076416,-3930985.450744629,-7634461.402893066,1979249.2389678955,-2347898.9601135254,-3139887.571334839
0.235,7735299.587249756,-2889740.9439086914,-6506301.403045654,2277076.7211914062,-6656385.42175293,20830663.681030273,11054647.445678711,9734301.567077637,13952065.467834473,4552555.561065674,-3501445.531845093,-8173234.939575195,-5957437.038421631,-5572874.069213867,-2152262.4492645264,23083272.93395996,189230.59105873108,7430645.942687988,-3463370.5615997314,-2726532.9360961914,2663798.3322143555,-15456670.761108398,-5699124.336242676,-88058464.05029297,6539298.534393311,381844.99740600586,5542033.672332764,-12087299.346923828,-736152.4105072021,5619345.664978027,-4322517.395019531,-5672897.815704346,-22176994.32373047,-581116.795539856,6465052.604675293,3529973.5069274902,-74549.51852560043,45285.14668345451,2237468.957901001,-3075103.998184204,-4468194.961547852,-9616857.528686523,2506090.6410217285,4304940.700531006,10966629.028320312,3312282.8006744385,-705804.2883872986,-3704355.9551239014,-3474731.4453125,-3472721.0998535156,1813911.1995697021,2851721.0483551025,2615468.5020446777,2628450.870513916,-3251247.6444244385,-3461297.7504730225,-3225026.845932007,-3007200.241088867,-6801692.962646484,1647395.2531814575,-3034998.4169006348,-3977156.8775177
0.24,15992333.41217041,13358431.816101074,13069875.717163086,4367045.4025268555,4066946.506500244,11915102.005004883,8323422.431945801,7136793.613433838,15050984.382629395,8245207.786560059,5576903.820037842,222652.46510505676,2297268.6290740967,2196858.8829040527,-10071588.516235352,16812728.881835938,-1896815.4191970825,8832012.176513672,198810.23466587067,1043718.3380126953,6970088.005065918,-7232554.4357299805,1302026.1526107788,-91863067.62695312,573792.3383712769,-2226316.213607788,4199006.5574646,-11377045.631408691,1814302.3252487183,9956892.967224121,2966336.727142334,912175.2977371216,-26084331.512451172,-2902763.3666992188,4238579.750061035,2010992.5270080566,-225819.05126571655,1098404.6459197998,5677474.9755859375,974648.0584144592,-237591.1921262741,-11697457.313537598,1164950.7284164429,2709323.4062194824,9247950.553894043,2998874.4258880615,257189.51225280762,310506.99949264526,636421.9784736633,544832.170009613,323870.62907218933,1599864.12525177,1322385.311126709,2477729.082107544,654150.9628295898,437384.30738449097,662559.0920448303,-5226230.144500732,-6526731.967926025,1286228.7759780884,882934.2722892761,-150136.64960861206
0.245,29294572.830200195,38504615.783691406,42216053.0090332,10529645.919799805,21522874.83215332,1425637.0067596436,8002394.676208496,6697474.479675293,19629802.703857422,15621260.643005371,20876598.358154297,14323883.056640625,14124887.466430664,12966693.878173828,-21303747.177124023,11363418.579101562,-3496740.3411865234,11306549.072265625,6193721.771240234,6933146.953582764,15170014.381408691,4415918.350219727,11284449.577331543,-100714546.20361328,-7563850.402832031,-5200978.2791137695,3493784.9044799805,-9391302.108764648,4596563.816070557,15280210.494995117,11609785.079956055,10050436.973571777,-33919361.11450195,-8165474.891662598,1721244.3351745605,673127.8300285339,-120754.46546077728,2094490.2896881104,9663990.020751953,6076790.332794189,5309072.494506836,-18482414.24560547,-2545342.9222106934,-296280.8609008789,7519922.256469727,1814186.0961914062,1278258.6812973022,5227358.341217041,5892605.781555176,5671525.955200195,-3584294.557571411,-2204216.241836548,-2441469.90776062,1418011.5461349487,5423323.631286621,5314591.407775879,5448957.920074463,-12006564.140319824,-9480588.912963867,121495.48530578613,5655073.642730713,4636427.879333496
0.25,33218185.424804688,49978862.76245117,56092002.868652344,12322002.410888672,29678588.8671875,-7775840.282440186,6549322.128295898,5056170.94039917,21411602.020263672,18367092.13256836,27972438.81225586,20393758.77380371,18907722.47314453,17046236.038208008,-30317232.131958008,7734265.327453613,-6060204.029083252,11216674.8046875,7997740.268707275,8589774.131774902,18423315.048217773,9538296.699523926,15017062.187194824,-108253150.9399414,-13517904.281616211,-7715974.807739258,3162351.8466949463,-8293360.710144043,4673445.701599121,16231157.302856445,14190809.24987793,13246428.489685059,-39026092.529296875,-12419245.719909668,368150.59185028076,254776.14998817444,-112652.47315168381,1774518.0130004883,10131571.769714355,6901635.16998291,6420619.964599609,-24073833.465576172,-5818185.329437256,-2312690.7348632812,7252516.746520996,466916.44191741943,1121238.9469146729,5947499.2752075195,6868169.30770874,6528079.509735107,-6960402.488708496,-5666664.123535156,-5802563.667297363,-35469.73317861557,5995132.923126221,6031926.155090332,6086012.840270996,-19338441.848754883,-13660649.299621582,-1248693.1085586548,6287097.454071045,5298848.1521606445
0.255,18824893.951416016,35513954.162597656,42707847.595214844,3459686.9945526123,21032693.86291504,-16253890.991210938,9234.125725924969,-1443184.3757629395,16074579.238891602,12736942.291259766,20023447.036743164,12379945.755004883,13544889.450073242,12005063.0569458,-34123497.009277344,4010695.457458496,-10639417.64831543,6528993.129730225,3610253.095626831,4186039.447784424,12723268.508911133,5172235.488891602,10158331.871032715,-109224037.17041016,-15276521.682739258,-9872304.916381836,2348101.1390686035,-8639889.71710205,1939049.482345581,12234951.972961426,10227913.856506348,8528316.497802734,-37352790.83251953,-12402948.379516602,658065.4382705688,769001.1858940125,-331652.58169174194,299675.94146728516,7049123.287200928,2998122.6921081543,2377780.9143066406,-23642520.904541016,-5544908.52355957,-1430071.234703064,8651973.724365234,231741.42837524414,-111757.86703824997,2088598.7281799316,2967189.311981201,2535275.2208709717,-6619846.343994141,-5478413.105010986,-5623390.674591064,-497485.7270717621,2104213.7145996094,2226759.672164917,2301329.3743133545,-21651878.356933594,-14541356.086730957,-1538389.6827697754,2500155.448913574,1517681.7178726196
0.26,-4469275.47454834,8690495.491027832,17350484.84802246,-10954364.776611328,5518480.30090332,-24256771.087646484,-9714513.778686523,-10967099.1897583,7245661.735534668,4394577.980041504,6030334.949493408,-679121.1366653442,5073536.396026611,4388966.083526611,-34908657.07397461,-737912.118434906,-16075656.89086914,166601.13632678986,-2308862.2093200684,-1756951.2128829956,4109027.38571167,-2153926.372528076,2945321.3214874268,-106370719.90966797,-14943071.365356445,-12007527.351379395,845935.7023239136,-8845170.021057129,-1021553.7548065186,7715422.1534729,5487392.902374268,1718072.533607483,-33370349.884033203,-10065114.974975586,1289738.0590438843,1349837.064743042,-508170.84312438965,-1111446.1421966553,3732700.5863189697,-1680597.5437164307,-2629711.866378784,-19805639.266967773,-3064979.314804077,631669.5809364319,10098427.772521973,1000716.8054580688,-1333379.2686462402,-2583934.545516968,-1837964.5347595215,-2311780.9295654297,-4000832.0808410645,-2948856.830596924,-3269128.7994384766,183988.95859718323,-2429286.003112793,-2317782.8788757324,-2140107.6316833496,-18889245.986938477,-11901614.18914795,-747254.6100616455,-1955899.0001678467,-2919591.188430786
0.265,-18292198.181152344,-7308023.452758789,3145042.4194335938,-19298511.505126953,-2557849.168777466,-28702850.341796875,-16037519.454956055,-17252960.205078125,2286226.987838745,1069077.730178833,-977582.2162628174,-6313283.920288086,1245384.8123550415,929740.4885292053,-36106414.794921875,-4168456.0775756836,-19945417.404174805,-2837286.949157715,-4677684.783935547,-4374579.906463623,1112190.1273727417,-5152572.6318359375,-254897.02820777893,-106301765.44189453,-15433540.344238281,-13749708.17565918,-703696.4297294617,-8010600.0900268555,-1950555.443763733,6500720.500946045,4238070.011138916,-1339328.0506134033,-34272647.857666016,-10102681.159973145,391741.63341522217,911657.8698158264,-414607.31625556946,-1509580.373764038,2599650.8598327637,-3839916.944503784,-4927576.541900635,-19157480.239868164,-3040953.3977508545,86431.76406621933,9644664.764404297,1352707.9820632935,-1696041.7032241821,-4897957.801818848,-4090316.7724609375,-4512883.66317749,-3941865.6826019287,-2868741.273880005,-3365231.513977051,658187.3297691345,-4566483.020782471,-4516033.172607422,-4302094.459533691,-16279964.447021484,-10547160.148620605,-292481.06479644775,-4064474.582672119,-4985518.455505371
0.27,-15508058.547973633,-5594228.267669678,5048028.945922852,-16512960.433959961,-905778.7656784058,-26079998.016357422,-14976637.840270996,-16375005.722045898,3669379.234313965,3141497.850418091,1003704.0710449219,-2884097.5761413574,2664250.8506774902,2007789.3733978271,-37344150.54321289,-3411209.82170105,-20924499.51171875,-1400951.9815444946,-3921013.116836548,-3973658.0848693848,4795139.312744141,-3422165.870666504,875795.1259613037,-110193222.04589844,-16543931.96105957,-14316625.595092773,-1662137.508392334,-7585986.614227295,-895797.3122596741,8191962.242126465,5432556.629180908,-237863.88337612152,-39926246.643066406,-13386903.762817383,-2031939.0296936035,-536634.624004364,-195220.27671337128,-615691.6618347168,3484077.6920318604,-3095057.725906372,-4122671.127319336,-23146886.825561523,-6759629.726409912,-3572236.7763519287,7562161.445617676,1038372.9934692383,-912723.0644226074,-4308803.081512451,-3329320.9075927734,-3635958.9099884033,-7752302.646636963,-6589644.432067871,-7094285.011291504,494564.4438266754,-3959970.9510803223,-3934096.8132019043,-3847955.7037353516,-16508228.302001953,-12687129.974365234,-565711.9750976562,-3425356.864929199,-4307703.018188477
0.275,-6424069.881439209,1073983.1924438477,9720777.51159668,-9104041.09954834,1726326.4656066895,-18376369.47631836,-9501913.070678711,-11017600.059509277,7158441.066741943,4641640.663146973,3768851.5186309814,1262873.0535507202,4895829.200744629,3952531.337738037,-35939426.42211914,699602.7231216431,-19870645.52307129,611759.36460495,-3978503.465652466,-4135262.966156006,8826930.046081543,-1733198.7619400024,2900211.811065674,-112924530.02929688,-16021980.285644531,-13661391.258239746,-1890699.6250152588,-9014863.967895508,471818.5365200043,9962278.366088867,6103441.7152404785,2029413.9385223389,-43193481.4453125,-15881257.057189941,-3726528.1677246094,-1611148.476600647,-94451.12943649292,1406594.99168396,5208738.327026367,-550570.3687667847,-1608959.9132537842,-26131298.065185547,-9653412.818908691,-6154066.08581543,6441048.145294189,1767851.47190094,952373.8026618958,-1715337.634086609,-751762.2113227844,-1026229.5007705688,-10686824.798583984,-9475340.843200684,-9871644.020080566,1250443.5777664185,-1513113.1410598755,-1434248.8050460815,-1515573.1439590454,-16257394.790649414,-13947319.984436035,67290.98409414291,-900051.2957572937,-1728027.582168579
0.28,-4675893.783569336,-328755.1701068878,6359899.044036865,-6476679.32510376,-757318.6755180359,-12978708.267211914,-5800995.349884033,-7198284.62600708,8162530.899047852,2191411.256790161,1598779.6783447266,-70323.08727502823,4899811.267852783,4347103.595733643,-32155319.213867188,3949579.7157287598,-18682157.516479492,38643.863052129745,-6070238.5902404785,-5984281.539916992,8199253.082275391,-3200427.770614624,3573241.2338256836,-111080505.37109375,-13615071.296691895,-12573620.796203613,-1437292.3374176025,-11051541.328430176,704587.8171920776,10026350.021362305,5389588.832855225,3242528.9154052734,-40068069.45800781,-14626149.17755127,-2942606.6875457764,-1160474.8964309692,-71340.53856134415,3709661.4837646484,6745700.359344482,2292038.917541504,999130.8450698853,-23439723.96850586,-7521431.922912598,-4262867.9275512695,7917258.262634277,4359051.22756958,3168126.106262207,1312277.6746749878,2053599.5960235596,1619856.834411621,-8409226.417541504,-7259355.545043945,-7621088.981628418,3811201.810836792,1413603.0673980713,1570402.1453857422,1486330.6283950806,-12288854.598999023,-10067150.115966797,2552420.3777313232,2098402.738571167,1388982.892036438
0.285,-12008193.969726562,-8579172.134399414,-1464663.028717041,-10468064.308166504,-5081927.299499512,-15092371.940612793,-6681389.808654785,-7913015.365600586,6896663.188934326,-998914.897441864,-2348561.7637634277,-4319348.8121032715,3510186.4337921143,3694660.6636047363,-29865955.352783203,3321784.496307373,-18617807.388305664,-1543498.158454895,-7167659.282684326,-6815026.28326416,4865997.314453125,-5984551.429748535,3256063.69972229,-107559394.83642578,-11953709.602355957,-11704062.461853027,-439804.64339256287,-11215590.476989746,-150334.00058746338,8921330.451965332,4513065.338134766,3245858.907699585,-34830429.07714844,-11803920.74584961,-842204.6899795532,164242.684841156,79478.88970375061,4924692.153930664,7269319.0574646,3824663.8774871826,2307382.583618164,-17798395.15686035,-2566523.313522339,-105560.94348430634,10338291.16821289,6745878.69644165,4431289.196014404,2916489.839553833,3518324.613571167,2864280.4622650146,-3216835.2603912354,-2168802.499771118,-2626412.868499756,6248625.2784729,3104458.808898926,3283178.5678863525,3359002.5901794434,-6978153.228759766,-3863347.291946411,4997442.722320557,3755148.410797119,3192240.9534454346
0.29,-20105609.893798828,-14586952.209472656,-5158436.7752075195,-15813437.461853027,-5623331.546783447,-22352499.00817871,-10101138.1149292,-11342365.264892578,6117691.993713379,-783054.1729927063,-2597438.8122558594,-5757668.972015381,3228151.321411133,3770083.6658477783,-31496620.178222656,-72728.32095623016,-19762392.044067383,-1224666.3570404053,-4882311.3441467285,-4539016.246795654,3875812.292098999,-6238548.755645752,3468610.5251312256,-106819358.8256836,-13115785.598754883,-11211862.564086914,490642.87543296814,-9364364.624023438,-769680.8576583862,8422174.453735352,4837382.793426514,3224374.771118164,-33261493.682861328,-10949557.304382324,69685.99557876587,790856.8978309631,331896.96073532104,4586576.93862915,6850923.06137085,3785216.808319092,2289421.0815429688,-14800648.68927002,78987.63567209244,1811782.5984954834,11162083.625793457,6844562.05368042,4253169.059753418,2778307.9147338867,3449683.904647827,2784716.3677215576,-416205.0485610962,613920.2117919922,87147.08685874939,6459776.401519775,3133362.5316619873,3271164.1788482666,3467979.1927337646,-4255468.845367432,-926966.9651985168,5304982.662200928,3645739.0785217285,3135898.5900878906
0.295,-23261236.1907959,-15033820.152282715,-3987822.7710723877,-18408235.549926758,-2842062.9501342773,-28414833.068847656,-12953641.891479492,-14310894.966125488,6357329.845428467,1826699.7337341309,479180.39560317993,-3634223.461151123,5207169.532775879,5592866.897583008,-34765674.59106445,-2858683.8245391846,-21397617.34008789,132102.65338420868,-1351250.410079956,-1182020.7834243774,6289060.115814209,-2975849.8668670654,5225206.37512207,-108545104.98046875,-16012716.293334961,-11379517.555236816,531456.2320709229,-7892371.17767334,-122724.30211305618,9675087.928771973,6837018.013000488,4565686.225891113,-34721218.10913086,-11612812.042236328,-584351.7184257507,428115.27848243713,426348.477602005,3963757.7533721924,6930731.296539307,4072940.3495788574,2829877.6149749756,-14792517.66204834,-97128.19010019302,1202449.3217468262,10723080.6350708,6048315.525054932,3789981.3652038574,3012111.186981201,3722344.160079956,3328439.712524414,-526844.322681427,558939.0993118286,134137.3473405838,5718523.979187012,3439125.2994537354,3531024.217605591,3707742.45262146,-3035741.8060302734,-982019.0668106079,4706963.062286377,3855677.1278381348,3253617.04826355
0.3,-23469125.747680664,-14226805.686950684,-3827659.3685150146,-19009790.420532227,-1706603.765487671,-29849433.89892578,-13930022.239685059,-15317236.90032959,6062083.2443237305,2762691.020965576,1976460.4568481445,-2153326.0345458984,8126817.70324707,8345562.934875488,-35466445.92285156,-2770820.6176757812,-22310386.657714844,-521889.8057937622,-496809.60178375244,-339603.60288619995,8329641.342163086,699709.2962265015,7956212.043762207,-108442420.95947266,-17762971.878051758,-12550983.428955078,-193022.75776863098,-8269041.061401367,1240571.0220336914,11968517.303466797,9686837.196350098,7337739.46762085,-34173259.73510742,-10555811.882019043,-670664.5488739014,313240.28968811035,271524.7571468353,4474925.518035889,8656991.004943848,6386838.912963867,5436253.547668457,-13195754.051208496,1078220.9634780884,1885848.045349121,11500040.054321289,7315104.4845581055,4341482.639312744,5479978.561401367,5972399.2347717285,5887770.652770996,744802.3557662964,1825289.8454666138,1579918.622970581,6973588.943481445,5882559.776306152,5942632.19833374,6084368.705749512,841472.2681045532,1130030.5128097534,6082652.0919799805,6368696.212768555,5624756.813049316
0.305,-23346887.588500977,-14936738.014221191,-6661612.987518311,-18907026.290893555,-3993389.844894409,-27329353.33251953,-12664093.971252441,-13992748.260498047,5365999.698638916,1191927.194595337,-61353.787779808044,-3774544.2390441895,9461193.084716797,9832932.472229004,-32181945.80078125,340822.33905792236,-21214843.75,-2734920.024871826,-2738283.87260437,-2352052.927017212,7141963.005065918,1305431.0083389282,9591760.635375977,-104130645.75195312,-16672410.96496582,-14103522.300720215,-331986.0100746155,-9315616.607666016,1900653.1238555908,13302941.32232666,11274013.51928711,9524440.76538086,-29920667.64831543,-7092013.835906982,1208724.3795394897,1160740.9715652466,82900.270819664,5580352.783203125,10830282.211303711,9297225.952148438,8513225.555419922,-8291680.335998535,5265834.331512451,5389023.780822754,13870070.457458496,10244231.224060059,5358356.475830078,8627989.768981934,8795283.317565918,8795058.250427246,5068275.451660156,6039551.734924316,5820034.503936768,9939961.433410645,9021659.851074219,9027161.598205566,9239023.208618164,7303389.549255371,6520543.575286865,9103856.086730957,9671037.673950195,8850147.247314453
0.31,-20686601.638793945,-13906963.348388672,-7476404.666900635,-16651796.340942383,-5849972.724914551,-22480888.36669922,-8927377.700805664,-10233564.376831055,6431401.72958374,453777.3132324219,-1989702.1055221558,-5609629.154205322,8251709.938049316,8826113.7008667,-27470317.840576172,5140038.49029541,-18020555.49621582,-2473345.7565307617,-4654051.303863525,-4064606.6665649414,4826026.916503906,-783083.3196640015,8704349.517822266,-98158264.16015625,-13544325.828552246,-14658559.799194336,1024505.9728622437,-9567308.42590332,1514971.0178375244,12633359.909057617,9910234.451293945,9061470.985412598,-25828590.393066406,-4310131.072998047,3577945.2323913574,2011945.7244873047,52226.03306174278,5547132.49206543,11100352.28729248,9716693.878173828,8923062.324523926,-4392987.251281738,8577139.854431152,8263621.3302612305,15128646.850585938,11141351.699829102,5216982.364654541,9146707.534790039,9207465.171813965,9087784.767150879,8415563.583374023,9298752.784729004,8895458.221435547,10964409.828186035,9556816.101074219,9504332.542419434,9791728.019714355,11175889.96887207,9889163.970947266,10121630.668640137,10288436.889648438,9447161.674499512
0.315,-13631444.931030273,-8239504.814147949,-2346747.398376465,-11550862.312316895,-3410554.4090270996,-17047008.514404297,-4048424.243927002,-5353806.495666504,9595639.2288208,2912148.7140655518,123837.20278739929,-3595653.533935547,6448552.60848999,6880601.406097412,-25041267.39501953,9356608.390808105,-14627567.291259766,1638616.5618896484,-3737490.177154541,-3245255.2318573,5336874.961853027,-1852221.2505340576,6594650.745391846,-94921516.41845703,-10693369.86541748,-13854637.145996094,2916820.764541626,-9531741.14227295,1218785.4051589966,11248497.96295166,6751885.890960693,6726552.963256836,-25794166.564941406,-4629782.199859619,4227309.703826904,1818340.539932251,105187.17765808105,4175313.4727478027,9270208.358764648,7249766.3497924805,6327461.719512939,-5650323.390960693,7372644.901275635,7265242.099761963,13638144.493103027,8534192.085266113,3789532.8998565674,6621962.070465088,6847882.270812988,6628140.926361084,7082647.323608398,8003162.384033203,7410072.803497314,8444290.161132812,6980648.517608643,6980737.686157227,7182956.695556641,9084495.544433594,7458129.405975342,7556039.333343506,7694319.248199463,6807017.803192139
0.32,-6694204.330444336,-1579057.6934814453,4988097.667694092,-7033130.168914795,1976207.2563171387,-13835253.715515137,-1047951.4598846436,-2249418.7355041504,12010496.139526367,6811080.9326171875,5220891.952514648,1728928.2083511353,6703562.259674072,6719308.853149414,-26177804.946899414,10921826.362609863,-13384041.786193848,5632102.489471436,-1215293.049812317,-1092488.408088684,9040349.006652832,376789.1824245453,6039479.2556762695,-95768867.49267578,-9992373.4664917,-12987027.168273926,3655498.0278015137,-10261519.432067871,1921373.1288909912,11276165.962219238,5263757.705688477,5537064.075469971,-28789760.58959961,-6556854.248046875,3343586.206436157,1182692.527770996,131289.2884016037,3273162.603378296,7785400.390625,4986251.8310546875,3945114.1357421875,-9916995.04852295,3747346.6396331787,4265052.318572998,11614035.606384277,5636979.579925537,2798859.5962524414,4298216.342926025,4694817.066192627,4519590.854644775,3282592.535018921,4302684.307098389,3705590.009689331,5449871.063232422,4523923.397064209,4741192.817687988,4744111.53793335,3567537.784576416,2632768.6309814453,4499509.334564209,5293474.197387695,4320096.492767334
0.325,-6603454.58984375,-356672.5552082062,7418931.007385254,-7103539.46685791,5829638.0043029785,-15232770.919799805,-1653972.9833602905,-2670813.798904419,11548701.286315918,9200723.648071289,9046361.923217773,5804357.528686523,9153210.639953613,8901513.09967041,-28964317.321777344,9660570.14465332,-14598120.68939209,5655903.339385986,586856.8420410156,372387.6178264618,12530248.641967773,4065959.4535827637,7919969.081878662,-98066375.73242188,-11594002.723693848,-13270756.721496582,3064185.619354248,-10967843.055725098,3210213.1843566895,13171157.836914062,7466547.48916626,7035150.527954102,-30734508.514404297,-7149186.134338379,2978886.127471924,1422296.404838562,254191.19000434875,4130113.6016845703,8624746.322631836,5554874.420166016,4505686.7599487305,-11630969.047546387,2553846.3592529297,3527087.450027466,12027661.323547363,5887015.819549561,3432626.724243164,4863050.46081543,5241865.634918213,5178778.171539307,2008661.2701416016,3068587.303161621,2609700.2029418945,5463953.971862793,4988067.626953125,5436366.081237793,5350388.050079346,-952818.8705444336,1142198.3242034912,4466601.848602295,5977950.572967529,4940810.203552246
0.33,-12937293.05267334,-5017098.426818848,3802145.24269104,-10690161.70501709,6449321.746826172,-20061010.360717773,-4083867.5498962402,-5020398.139953613,10071084.976196289,9736241.340637207,9861554.145812988,6061496.257781982,11469483.375549316,11295096.397399902,-30916358.947753906,7421225.070953369,-16363182.067871094,3313019.9909210205,1569432.020187378,1348983.645439148,13458252.906799316,6115032.196044922,10308465.003967285,-99019424.43847656,-14184576.988220215,-14309811.59210205,2548334.836959839,-9994450.569152832,4384777.545928955,15450028.419494629,11520277.02331543,9522125.244140625,-30029050.827026367,-6254209.995269775,3771856.0695648193,2420286.8938446045,630628.8242340088,5762444.496154785,10980742.454528809,7988649.368286133,7023700.714111328,-9461427.688598633,4611623.764038086,5584302.4253845215,14214341.163635254,8193139.07623291,4818996.906280518,7249597.072601318,7547677.993774414,7531112.194061279,4074357.509613037,5094261.646270752,4774392.604827881,7619235.038757324,7386588.096618652,7856269.359588623,7882944.583892822,-3584623.336791992,3346075.7732391357,6615280.628204346,8583067.893981934,7539268.970489502
0.335,-17522994.995117188,-8622628.211975098,742381.21509552,-12817620.277404785,6349020.004272461,-23944662.09411621,-5180258.750915527,-6207424.163818359,10772483.825683594,9894935.607910156,9943329.811096191,4982682.228088379,11953985.214233398,11931797.981262207,-31720863.342285156,6084523.2009887695,-16938488.006591797,2847559.4520568848,2849506.139755249,2977718.5916900635,13172932.624816895,6180169.105529785,11102441.787719727,-98875511.1694336,-16217288.970947266,-14963383.674621582,2991914.987564087,-7728035.926818848,5501898.765563965,16598360.061645508,13778505.325317383,10478084.564208984,-29353832.244873047,-6436203.479766846,3961898.8037109375,2711838.722229004,1073278.0694961548,6363860.130310059,12559399.604797363,9321863.174438477,8446311.950683594,-7916520.118713379,5930952.548980713,6705717.086791992,14870335.578918457,8770146.369934082,5407957.077026367,8454676.628112793,8829043.3883667,8740129.470825195,5402476.3107299805,6353593.349456787,6163227.081298828,8303952.217102051,8659712.791442871,8922274.589538574,9095566.749572754,-6443603.038787842,4627833.366394043,7310614.585876465,9808656.692504883,8799551.963806152
0.34,-14182035.446166992,-5140392.780303955,4362957.954406738,-11106186.866760254,7834798.812866211,-23470695.49560547,-3970551.2523651123,-5094194.8890686035,13559833.526611328,9924636.840820312,11395402.908325195,6119253.158569336,11180537.223815918,11025667.190551758,-32269950.86669922,6188111.305236816,-16343181.610107422,4852308.750152588,3850380.6591033936,4377510.070800781,13837515.830993652,6133838.653564453,10251247.40600586,-99329200.7446289,-16624216.079711914,-14886741.638183594,3717885.4942321777,-6620837.211608887,6567399.978637695,16310815.811157227,12630289.077758789,9443832.397460938,-31515245.43762207,-8961355.209350586,2199790.2393341064,1711651.5636444092,1159347.7725982666,5531510.353088379,12130128.860473633,8125556.945800781,7309602.737426758,-10855644.226074219,3565089.225769043,4369300.842285156,12901556.968688965,6408792.972564697,4848426.818847656,7182827.949523926,7765326.023101807,7519633.769989014,3037450.075149536,3909265.2797698975,3876672.0294952393,6220120.906829834,7402762.413024902,7468988.418579102,7633161.0679626465,-10450083.73260498,2177475.4524230957,5206495.28503418,8277188.301086426,7349416.732788086
0.345,-6417591.094970703,2715882.0629119873,12289205.551147461,-8373212.814331055,9554265.975952148,-19371894.83642578,-2100269.079208374,-3182729.482650757,15300797.462463379,8782519.340515137,12907371.520996094,8918079.376220703,10565405.84564209,10031040.19165039,-31927946.090698242,7480847.358703613,-15564518.928527832,6040891.647338867,2911073.684692383,3521075.0102996826,14989971.160888672,6716314.792633057,9145879.745483398,-99569679.2602539,-15032297.134399414,-14468987.464904785,3764108.180999756,-7868396.759033203,6758718.490600586,15133624.076843262,9833737.37335205,7986686.706542969,-34617061.614990234,-11556794.166564941,-84875.40483474731,623468.9950942993,755457.8185081482,4328643.321990967,10362193.10760498,5787196.159362793,5028670.787811279,-15689624.786376953,-127947.44968414307,915476.2625694275,11011899.948120117,3791842.9374694824,3932360.4106903076,4934727.191925049,5598703.384399414,5226552.963256836,-594400.1078605652,196930.37867546082,225827.58963108063,3758928.7757873535,5073973.655700684,5176309.108734131,5219764.232635498,-13688925.743103027,-1251328.468322754,2714292.287826538,5728812.217712402,4940284.252166748
0.35,-2766861.4387512207,6614672.660827637,16396089.553833008,-8020133.972167969,8951325.416564941,-15111250.877380371,-1207207.6797485352,-2204393.6252593994,14381772.994995117,6767426.490783691,12190162.658691406,9790507.316589355,10635480.880737305,9890088.081359863,-28857887.268066406,9699995.994567871,-15150888.442993164,4704330.921173096,561908.8411331177,894236.0281944275,14771041.870117188,6910495.758056641,8890604.972839355,-96564781.18896484,-12035512.924194336,-13839335.441589355,3253629.9228668213,-9642942.428588867,5637011.528015137,13883972.16796875,8321149.826049805,7681768.417358398,-33549160.00366211,-11044014.930725098,-323972.1655845642,706229.8059463501,218928.35199832916,3736143.5890197754,8847105.979919434,4789308.547973633,4080549.716949463,-16116289.138793945,-385795.35484313965,560293.0188179016,11899334.907531738,3760201.6925811768,3383141.9944763184,4098980.42678833,4556348.80065918,4252176.761627197,-717058.8970184326,53995.54595351219,-124502.96431779861,3586451.0536193848,4098704.8149108887,4415575.981140137,4418923.377990723,-13769000.053405762,-957487.5235557556,2590754.270553589,4796741.008758545,4115782.7377319336
0.355,-5883932.590484619,3235281.7058563232,13091294.288635254,-9238734.245300293,6608537.673950195,-12987962.72277832,-1014107.1081161499,-2049945.35446167,12936056.137084961,6159382.343292236,10055840.492248535,7618319.511413574,11027037.620544434,10513078.689575195,-23474134.44519043,12310782.432556152,-14917587.280273438,3239152.9083251953,-213583.18626880646,-180937.4988079071,13344890.594482422,6253693.580627441,9520096.778869629,-89678398.13232422,-9172214.50805664,-12797191.619873047,3075103.0445098877,-9521290.77911377,4413244.247436523,13385817.527770996,9064046.859741211,8625124.93133545,-26976013.18359375,-7411063.194274902,1863592.028617859,1645044.445991516,2568.5266591608524,3762594.46144104,8643404.006958008,6028028.964996338,5316394.329071045,-10258167.266845703,3729683.3992004395,3933640.956878662,14584425.926208496,5944665.431976318,3289834.0225219727,5392444.610595703,5504976.749420166,5518629.550933838,3513431.0722351074,4375391.483306885,3820404.7679901123,5497026.9203186035,5264403.343200684,5734401.226043701,5831267.356872559,-10876668.930053711,3594787.59765625,4643195.629119873,6186239.242553711,5437673.568725586
0.36,-9657704.35333252,-1616553.4257888794,7502687.454223633,-8577627.182006836,5647472.858428955,-12145948.41003418,-39207.39144086838,-1209692.8358078003,13840658.187866211,8457604.40826416,9584767.34161377,5306813.2400512695,11105083.465576172,11038607.597351074,-19120925.903320312,14557972.90802002,-14259743.690490723,4437698.3642578125,2156067.6097869873,2185438.1561279297,12685719.49005127,5492643.356323242,10117511.749267578,-82618995.6665039,-7659411.430358887,-11359885.215759277,3878444.6716308594,-7629464.149475098,4555038.4521484375,13750553.131103516,10173867.225646973,9459373.474121094,-20267744.064331055,-3796246.05178833,4407954.692840576,2407301.187515259,200555.75668811798,3802276.611328125,9275866.508483887,7750175.476074219,6993900.775909424,-3604417.562484741,7921082.973480225,7362872.123718262,15866853.713989258,7644222.736358643,3298056.8408966064,7041761.39831543,6978792.190551758,7362638.473510742,7699355.602264404,8701067.924499512,7942911.148071289,7105166.912078857,6875886.4402771,7318649.2919921875,7484783.172607422,-8064870.834350586,7700931.549072266,6337674.140930176,7957992.5537109375,6996230.602264404
0.365,-7908725.738525391,-1237129.3306350708,6067012.786865234,-4997140.884399414,7189488.887786865,-10327430.725097656,2507180.690765381,1282051.682472229,17013019.561767578,12191353.797912598,11611018.180847168,5368987.083435059,10405670.166015625,10558849.334716797,-17780572.89123535,16464097.97668457,-12496086.120605469,7663043.49899292,5526859.760284424,5743299.48425293,13272306.442260742,4871537.685394287,9696640.968322754,-79141395.56884766,-6940052.9861450195,-9710368.156433105,5713078.498840332,-6148563.385009766,5602242.469787598,14026726.722717285,9385114.669799805,8884060.859680176,-19130443.572998047,-2411201.000213623,5700566.291809082,2921532.63092041,560739.7556304932,3423143.148422241,9291251.182556152,7620624.06539917,6854580.879211426,-2428072.929382324,8078215.599060059,7643700.59967041,14577914.237976074,7194144.725799561,3012088.0603790283,6854609.01260376,6935209.75112915,7419842.24319458,7740652.561187744,8799036.026000977,8184297.561645508,6818325.519561768,6786997.7951049805,7140553.4744262695,7231381.893157959,-8190822.601318359,7089441.776275635,5952569.007873535,7822412.014007568,6753138.542175293
0.37,-2309987.5450134277,3163472.4140167236,8547969.818115234,-1074914.2169952393,9107596.397399902,-6861733.913421631,5802898.88381958,4656402.587890625,19786991.119384766,14570959.091186523,13695537.567138672,6841428.756713867,9503172.874450684,9542989.730834961,-17060365.676879883,18845222.47314453,-9668219.566345215,10116455.078125,6905416.011810303,7110857.4867248535,13595012.664794922,4149413.1088256836,8765279.769897461,-78448272.70507812,-5384672.164916992,-7955968.856811523,7967419.624328613,-6203625.202178955,5954969.40612793,13640759.468078613,7497285.36605835,7639946.937561035,-21981298.446655273,-2031142.234802246,6289455.413818359,3817435.7414245605,797334.4326019287,2911960.3633880615,8352036.476135254,6062808.513641357,5365957.260131836,-5842842.578887939,5586091.5184021,5931235.313415527,12814470.291137695,5725868.701934814,2518270.254135132,5353304.386138916,5752150.535583496,5967934.131622314,5133334.159851074,6108489.990234375,5786750.793457031,5520430.564880371,5471201.419830322,5825140.953063965,5807387.828826904,-10501630.783081055,3621009.349822998,4483098.983764648,6313713.550567627,5402638.4353637695
0.375,1062193.9897537231,5554682.25479126,10570035.934448242,747292.8166389465,9837495.803833008,-3301497.459411621,8199880.599975586,7142931.938171387,20329105.377197266,14812248.229980469,14170445.442199707,8027449.607849121,10327820.777893066,10218563.079833984,-13676604.270935059,21712667.46520996,-7132488.250732422,10513635.635375977,6393851.280212402,6253229.61807251,13379632.949829102,4703915.596008301,9572158.813476562,-76897674.56054688,-2633040.428161621,-6431364.059448242,9433495.52154541,-6560984.134674072,5630584.716796875,13900495.529174805,8212771.415710449,8392420.768737793,-22329216.00341797,-452288.6276245117,7241518.020629883,4885490.417480469,770553.8272857666,3086924.0760803223,8220749.855041504,6305459.976196289,5732842.445373535,-7106000.900268555,5312122.344970703,5725665.56930542,12837055.206298828,5544090.270996094,2530974.6265411377,5714210.510253906,6316735.26763916,6167616.844177246,4846429.347991943,5671925.067901611,5506080.150604248,5307732.105255127,5973668.575286865,6388018.608093262,6408038.61618042,-11209532.737731934,3238745.68939209,4269429.683685303,6640789.985656738,5972033.500671387
0.38,336455.16633987427,4324784.755706787,10954199.79095459,931388.7357711792,10591732.025146484,-1457597.8517532349,8717999.458312988,7688787.460327148,19441450.119018555,14598080.6350708,14479133.605957031,9561613.082885742,14064206.12335205,13994094.848632812,-8870863.914489746,23524419.7845459,-6483217.716217041,9924601.554870605,6558332.443237305,6068394.184112549,14572690.963745117,8717711.448669434,13367625.23651123,-73564849.85351562,-432355.4039001465,-5843908.786773682,9201965.33203125,-5608562.94631958,6291654.586791992,16461763.381958008,13470537.185668945,12431404.113769531,-18278263.092041016,1848780.3936004639,8158373.832702637,5048725.605010986,473599.3444919586,4184040.069580078,10477772.71270752,10027287.483215332,9601704.597473145,-2764613.8668060303,8787611.961364746,7895270.347595215,14108122.825622559,7180397.033691406,3430709.6004486084,9493352.890014648,10027541.160583496,9791190.147399902,8425064.086914062,9152964.59197998,8932543.754577637,6807991.504669189,9765216.827392578,10163952.827453613,10331589.698791504,-8253913.879394531,8078988.075256348,5987907.409667969,10375082.969665527,9750802.040100098
0.385,-1261826.992034912,3076525.4497528076,11542868.614196777,875942.9454803467,12027532.577514648,-1603938.5795593262,7666565.418243408,6676212.310791016,18820146.560668945,15054016.11328125,15723805.42755127,12053751.945495605,18620773.315429688,18668134.689331055,-7356331.348419189,22986118.31665039,-7645487.7853393555,9578434.944152832,8301159.858703613,7856259.346008301,17619014.739990234,14972905.158996582,17798604.96520996,-71373107.91015625,-584228.8136482239,-6536318.778991699,7852759.36126709,-3645956.27784729,8138004.302978516,20168905.25817871,19991699.21875,17112462.997436523,-15055981.636047363,2391999.7215270996,7942604.064941406,4058352.9472351074,32367.374747991562,5131269.931793213,13731034.278869629,14425213.813781738,14129014.96887207,2907688.617706299,12172041.893005371,9725811.004638672,14415174.48425293,8842631.340026855,4324478.1494140625,13798803.329467773,14117363.929748535,14141488.075256348,11970400.8102417,12716462.135314941,12318306.922912598,8435846.328735352,14020936.012268066,14311410.903930664,14518382.07244873,-4127944.9462890625,13503957.748413086,7836996.078491211,14659803.39050293,13909917.831420898
0.39,-2151029.8252105713,2920133.113861084,11267076.49230957,-174381.94155693054,11274356.842041016,-2955613.851547241,5766741.2757873535,4857491.493225098,18418926.239013672,14497961.044311523,15267712.593078613,12692777.633666992,20081752.77709961,20216226.57775879,-10934277.534484863,20821060.180664062,-9074994.087219238,9235526.084899902,9215002.059936523,9161136.627197266,19146711.349487305,18148052.215576172,19026119.232177734,-72445854.18701172,-2771835.3271484375,-7965492.248535156,6956630.229949951,-2566119.67086792,8776206.970214844,21369380.950927734,22300189.971923828,18458639.14489746,-16665695.190429688,686382.1744918823,6825728.416442871,3151427.745819092,-299131.51264190674,4764053.821563721,14849516.868591309,15660901.069641113,15374337.196350098,4410788.536071777,12127094.268798828,9280724.52545166,13319744.110107422,9154734.61151123,4048983.097076416,14794965.744018555,15030137.062072754,15353758.811950684,12073718.070983887,12926724.433898926,12321745.872497559,8818672.180175781,15041886.329650879,15254547.119140625,15320368.766784668,-2225140.5715942383,14808534.622192383,8269035.339355469,15706580.16204834,14940848.350524902
0.395,-3968536.376953125,1042712.2116088867,7358063.697814941,-3607037.06741333,5881971.35925293,-4372255.325317383,3665874.0043640137,2750643.730163574,16736444.473266602,10736919.403076172,10317268.371582031,8472126.960754395,17354297.637939453,17692703.247070312,-15774569.511413574,19157987.594604492,-9826701.164245605,8042581.558227539,6762081.146240234,6987744.8081970215,16190427.780151367,14860360.145568848,16500156.40258789,-74963981.62841797,-4757371.425628662,-9238272.666931152,7052687.168121338,-3632163.5246276855,6434206.485748291,18360607.147216797,18878736.49597168,16052911.758422852,-19815868.377685547,-750353.8727760315,6258501.5296936035,3441309.928894043,-313011.13963127136,3590107.202529907,12918540.000915527,13946156.50177002,13462001.80053711,2594029.9034118652,10611755.37109375,8304024.696350098,12861706.733703613,9185998.916625977,2983051.061630249,12830018.997192383,13231634.140014648,13553087.23449707,10642901.420593262,11595570.56427002,10882667.541503906,8874120.712280273,13188657.760620117,13407393.455505371,13361208.91571045,-1938871.7412948608,13555452.346801758,8277631.759643555,13841136.932373047,13256787.300109863
0.4,-5324491.97769165,-1500585.7944488525,2972458.839416504,-7184548.854827881,-479666.44167900085,-3816306.1141967773,2822093.725204468,1733209.252357483,13833333.015441895,5346992.492675781,3915977.4780273438,2300366.163253784,13502117.156982422,14198399.543762207,-17011800.76599121,19614522.93395996,-10112899.780273438,6281517.98248291,2003369.8081970215,2069750.5474090576,11271122.932434082,8481157.302856445,13384824.752807617,-75834480.28564453,-4507267.951965332,-9816342.3538208,7079844.4747924805,-6133281.230926514,2814748.0487823486,13821338.653564453,13202000.617980957,13092514.991760254,-19674081.802368164,-149210.70635318756,6767324.447631836,4380158.424377441,-72970.04759311676,3130952.3582458496,10042926.788330078,12360182.762145996,11576889.991760254,2002144.0982818604,11007983.207702637,9028506.2789917,14325345.993041992,10319422.721862793,2535227.2987365723,11205791.473388672,11816591.262817383,11849770.545959473,11035478.591918945,11991569.519042969,11412831.30645752,9962996.482849121,11604805.946350098,11820234.298706055,11884475.708007812,-515988.17110061646,13629443.168640137,9346761.703491211,12241592.407226562,11805003.16619873
0.405,-1037057.1613311768,1475815.6538009644,5686330.318450928,-5871275.901794434,-819148.8981246948,366053.2236099243,5187005.996704102,3929122.20954895,12540837.287902832,3442116.9757843018,2969810.0090026855,1070991.1584854126,11572165.489196777,12377223.96850586,-14564323.425292969,22090133.666992188,-9788657.188415527,5517926.216125488,-1024240.1361465454,-1363319.8738098145,9816658.973693848,5141825.199127197,11891973.495483398,-74979866.02783203,-2301722.288131714,-9599067.687988281,6300417.423248291,-8151958.465576172,1089228.868484497,11488505.363464355,9035992.622375488,11565606.117248535,-18067764.282226562,685616.8508529663,7102883.815765381,4551636.695861816,132410.31765937805,3483871.6983795166,8086570.739746094,11523056.030273438,10615909.576416016,2811352.9682159424,11960711.479187012,10009495.735168457,15827563.285827637,11216220.85571289,2767392.39692688,10626927.375793457,11207423.210144043,11019381.523132324,11915673.25592041,12784269.332885742,12522584.915161133,10893088.340759277,10880161.28540039,11030714.03503418,11305031.776428223,1156622.290611267,13896252.632141113,10216460.227966309,11525741.577148438,11036881.446838379
0.41,8288015.365600586,10210718.154907227,14938550.94909668,1203786.3731384277,5659716.606140137,5898430.347442627,10238404.273986816,9056854.248046875,15175747.871398926,7664175.510406494,9009142.875671387,6140290.7371521,11042140.007019043,11357129.096984863,-12706692.695617676,24749849.319458008,-8107233.047485352,6775138.854980469,347224.8315811157,-148624.10724163055,12683197.975158691,6142764.091491699,10796964.645385742,-74932937.62207031,-976137.4592781067,-8845479.011535645,5713893.890380859,-8294062.614440918,1896816.611289978,11757072.448730469,7119338.9892578125,10143653.869628906,-20475374.221801758,-829729.974269867,6148298.740386963,3657573.2231140137,126034.215092659,3100583.31489563,6798951.148986816,9201500.89263916,8493582.725524902,977791.2497520447,9662214.279174805,8291493.4158325195,14808008.193969727,9438957.214355469,2203815.221786499,8649584.770202637,8982933.044433594,8918662.071228027,9536791.801452637,10321806.907653809,10252603.530883789,9291007.041931152,8709272.384643555,8845333.099365234,9144505.500793457,-917636.9905471802,10435721.397399902,8418726.921081543,9371052.742004395,8778312.683105469
0.415,12801443.099975586,14479508.399963379,19139482.498168945,7757773.399353027,11250884.056091309,7303338.527679443,13872714.99633789,12972832.679748535,19869918.823242188,13972780.227661133,14980364.799499512,10352623.93951416,9931156.158447266,9543123.245239258,-14234788.89465332,25483295.440673828,-5529161.45324707,8896918.296813965,4487368.106842041,4304292.678833008,15005562.782287598,7591860.771179199,8743319.511413574,-76411987.3046875,-3025408.983230591,-8016055.107116699,6664687.633514404,-6725780.487060547,3071400.1655578613,12251382.827758789,6709353.446960449,7760895.252227783,-26201753.616333008,-3560898.780822754,4925040.245056152,2973450.8991241455,64165.31652212143,1504412.5318527222,5771674.156188965,5456224.44152832,5086706.161499023,-3484740.0188446045,5374055.3855896,5017495.155334473,12197452.545166016,5932753.086090088,543150.4845619202,5039374.828338623,5203405.857086182,5483934.8793029785,5208175.6591796875,5989695.072174072,5797327.041625977,5963912.9638671875,5119273.1857299805,5365579.605102539,5463575.839996338,-6573240.280151367,4956328.392028809,4926087.379455566,5781009.674072266,5216711.99798584
0.42,6421340.9423828125,7710216.045379639,11855396.270751953,7739233.493804932,9773702.621459961,3136036.6344451904,12982975.006103516,12266485.214233398,22307186.126708984,15970541.000366211,14273610.11505127,7799326.8966674805,8700689.315795898,8158536.911010742,-16796810.150146484,24251516.342163086,-3924032.688140869,9367341.995239258,7375032.424926758,7656048.774719238,13525482.177734375,7065959.453582764,7416849.613189697,-76518089.2944336,-6761583.32824707,-7145550.25100708,8841738.7008667,-4804115.295410156,3000224.828720093,11739784.240722656,7584655.76171875,6431079.387664795,-27845474.243164062,-3507199.287414551,5645703.315734863,3765072.3457336426,225791.3500070572,513119.637966156,5898015.022277832,4063084.125518799,3865048.885345459,-4502757.0724487305,5135539.531707764,5001202.10647583,11791631.698608398,4833348.274230957,-268933.4750175476,3561922.073364258,3775278.5682678223,4264350.414276123,4955209.255218506,5786110.877990723,5370028.018951416,4880308.628082275,3909471.7502593994,4219766.616821289,4156610.0120544434,-9496726.036071777,4194493.770599365,3982953.5484313965,4536403.179168701,4046587.4671936035
0.425,-1844925.6420135498,-538261.5327835083,3745914.2208099365,3741351.842880249,5289109.230041504,-232053.2351732254,10297062.873840332,9473322.868347168,21246566.772460938,12939997.673034668,9873580.932617188,2704005.241394043,9640877.723693848,9557118.41583252,-16144372.940063477,23515659.33227539,-3997856.378555298,6942738.056182861,7086124.897003174,7498014.450073242,11466568.946838379,6909346.103668213,9133361.81640625,-72877685.546875,-7207533.359527588,-5686658.85925293,10630874.633789062,-3832171.4401245117,2505840.063095093,11418761.253356934,9231439.590454102,8355918.884277344,-22086547.8515625,450974.82204437256,8622658.729553223,5667609.691619873,618101.8352508545,1637684.3452453613,7531132.698059082,7018031.120300293,6760158.061981201,841322.9584693909,10481977.462768555,9539145.469665527,14918369.29321289,7711191.177368164,1169672.7275848389,6476867.67578125,6760176.658630371,7182217.121124268,10273698.806762695,11121438.026428223,10719891.548156738,7593523.979187012,7062542.915344238,7178395.748138428,7189862.7281188965,-5550324.9168396,9471394.538879395,7085065.841674805,7579749.10736084,7028679.847717285
0.43,1042991.3997650146,3430623.769760132,8728948.593139648,3365128.755569458,6328140.2587890625,3339815.378189087,11093932.151794434,9999190.330505371,19871158.599853516,10478598.594665527,10066543.579101562,3615093.70803833,13168224.334716797,13383033.752441406,-12148826.599121094,24901546.478271484,-4270966.529846191,2803780.7941436768,5573887.348175049,5702312.94631958,13560828.20892334,9902649.879455566,13043086.051940918,-68040382.3852539,-2712287.9028320312,-3851500.2727508545,10932898.52142334,-4093772.8881835938,3141909.8377227783,12597148.895263672,10423959.732055664,12305639.266967773,-15616503.715515137,4107100.009918213,11124718.66607666,6899513.244628906,924667.4180030823,3764535.665512085,9231801.03302002,11187838.554382324,10848410.606384277,6197591.304779053,14711034.774780273,13319632.530212402,17998409.271240234,10920723.915100098,3477667.3316955566,10770846.366882324,10970362.663269043,11259347.915649414,14455316.543579102,15254308.700561523,15090782.165527344,10569435.119628906,11325513.83972168,11099302.291870117,11287435.531616211,602034.6879959106,13379734.03930664,10281085.014343262,11649562.83569336,10943518.63861084
0.435,12268532.752990723,16146476.745605469,22478326.79748535,7735856.533050537,13249408.721923828,9882328.033447266,15114265.441894531,13832548.141479492,20584068.298339844,12300276.756286621,16251924.514770508,10609291.076660156,16932729.721069336,16834241.86706543,-9399390.22064209,26201766.967773438,-3808458.089828491,-1338260.0545883179,5615900.51651001,5435238.838195801,18637241.36352539,14626646.995544434,16177768.70727539,-67069145.20263672,1443517.2080993652,-3393148.183822632,9843469.619750977,-4987990.856170654,4925698.757171631,14840514.183044434,11088684.08203125,15271977.424621582,-16478311.538696289,3116763.3533477783,10392397.8805542,6171314.716339111,883751.1539459229,4916523.456573486,9960902.214050293,12963175.773620605,12680912.017822266,4288502.216339111,12134262.084960938,11470685.005187988,17281051.635742188,10829366.683959961,4564980.030059814,12614060.401916504,12743448.257446289,13053347.58758545,11818816.184997559,12556249.618530273,12541248.321533203,10314694.40460205,12979210.85357666,12614932.0602417,12839140.892028809,1744184.970855713,10646837.23449707,9824862.480163574,13137801.170349121,12366807.93762207
0.44,15683419.227600098,20131137.84790039,26926870.346069336,9502430.91583252,17161800.384521484,9966642.379760742,16198040.008544922,14915221.214294434,21113906.860351562,14816493.98803711,20508876.80053711,14479175.567626953,18481138.229370117,18035892.486572266,-11109958.64868164,24219190.59753418,-4037505.626678467,-5386025.905609131,6898434.162139893,6731538.772583008,20736589.431762695,16996999.740600586,17115566.25366211,-70454788.20800781,-473444.99826431274,-5398783.6837768555,8080225.944519043,-5937528.133392334,6344235.420227051,16532703.399658203,12316513.061523438,16214374.542236328,-23034843.44482422,-951063.8117790222,7351707.935333252,4247622.013092041,611400.0678062439,4999176.979064941,10577772.14050293,13094269.752502441,12911141.395568848,-2097485.7807159424,6766139.030456543,6845582.008361816,14218577.38494873,9036278.72467041,4491088.8671875,12556199.073791504,12858110.427856445,13277408.599853516,6353175.640106201,7075198.173522949,6989134.311676025,8537924.766540527,12853764.533996582,12672812.461853027,12790894.508361816,-1651969.1944122314,6389977.45513916,7667067.527770996,13035305.02319336,12302865.982055664
0.445,4888971.328735352,8774176.597595215,15721230.506896973,3889800.3101348877,12100605.010986328,2472215.8908843994,11246852.87475586,10093619.346618652,18133787.155151367,12499794.006347656,16470043.182373047,9239249.229431152,17167394.638061523,17063961.029052734,-14731453.895568848,20004219.05517578,-6215630.054473877,-10163166.999816895,6511006.3552856445,6592634.677886963,16835437.774658203,14851723.670959473,16335483.55102539,-72829277.03857422,-6127545.8335876465,-7895503.997802734,6560304.164886475,-6821569.919586182,5950464.725494385,16154859.54284668,13283912.658691406,15811571.12121582,-26671384.811401367,-2572655.67779541,5751463.413238525,3223320.0073242188,438196.6292858124,5062173.843383789,11451358.795166016,13815176.010131836,13592370.03326416,-3853136.3010406494,6505953.311920166,6090227.127075195,13365382.194519043,9362654.685974121,4478631.019592285,13017508.506774902,13576649.66583252,14007506.370544434,5955497.264862061,6693993.091583252,6525214.195251465,9073822.021484375,13420921.325683594,13461779.594421387,13544614.791870117,-2875399.351119995,8067999.839782715,8032946.586608887,13813476.5625,13063833.236694336
0.45,-7667748.45123291,-4476374.14932251,2617255.210876465,-3828955.4119110107,2906672.239303589,-3464922.1897125244,5138313.293457031,4151998.0430603027,12890999.794006348,6166466.71295166,7818287.372589111,-220562.50274181366,13653759.956359863,14301717.758178711,-15678228.378295898,17939062.118530273,-8795242.309570312,-15189261.436462402,3232215.8813476562,3487562.894821167,10156052.589416504,9445864.6774292,13995944.023132324,-70160949.70703125,-7985048.294067383,-7988068.103790283,6040816.307067871,-7565939.426422119,3576643.705368042,13082762.718200684,10818438.529968262,13878591.537475586,-23914972.30529785,86778.69290113449,7250273.704528809,4086994.171142578,495268.851518631,4951498.508453369,10606777.19116211,13939501.762390137,13544974.327087402,1132366.1804199219,11378894.805908203,9948770.523071289,15794861.793518066,11655651.092529297,4356260.776519775,13154852.867126465,13679972.648620605,14027420.997619629,10754500.389099121,11471767.42553711,11388814.926147461,11626296.043395996,13643677.711486816,13680609.703063965,13882942.199707031,486303.32946777344,13766504.287719727,10675934.791564941,14238620.75805664,13355821.60949707
0.455,-9104662.895202637,-6116128.921508789,865906.9538116455,-5896410.942077637,-1897825.7179260254,-1939919.4717407227,3772012.948989868,2898864.0308380127,9833637.237548828,1915672.779083252,2758300.542831421,-5583155.632019043,9183767.318725586,10094861.98425293,-13900475.50201416,19171672.821044922,-9560523.986816406,-18654367.446899414,-477999.38917160034,-199581.8167924881,5519694.3283081055,3497406.9595336914,9973632.8125,-65625747.68066406,-4405649.185180664,-6310583.114624023,6287175.65536499,-7927948.474884033,444245.69606781006,8350821.495056152,4180837.631225586,9876457.214355469,-20489910.125732422,2671521.6636657715,9149006.843566895,5544958.591461182,607796.6094017029,3838994.9798583984,6726734.638214111,10896391.868591309,10355658.531188965,5193628.787994385,13865818.02368164,12459983.825683594,17924369.81201172,12417055.130004883,3217666.3875579834,10389170.64666748,10577467.918395996,10891359.329223633,13349281.311035156,13980221.74835205,14025565.147399902,12487111.09161377,10848546.028137207,10782031.059265137,11067986.488342285,3413977.62298584,15357704.162597656,11653476.71508789,11491033.554077148,10475510.597229004
0.46,-3311375.856399536,-376387.95375823975,5912290.096282959,-2885586.977005005,-1037286.2815856934,2037969.3508148193,6043020.725250244,5169013.500213623,10201082.229614258,2471637.964248657,3319182.1575164795,-5672421.455383301,5429620.742797852,5912524.223327637,-13193388.938903809,20043260.57434082,-9003933.906555176,-19612392.42553711,-1768368.4825897217,-1444505.9299468994,4172660.3507995605,-813323.974609375,5703756.332397461,-64830039.978027344,-1771071.3148117065,-6317698.4786987305,6162214.279174805,-8039091.110229492,-1813517.689704895,4487875.461578369,-2225135.087966919,5357469.081878662,-22018413.543701172,1293730.8549880981,8513114.929199219,5921159.744262695,600508.5110664368,2362855.1959991455,2327628.6125183105,6021552.562713623,5426752.090454102,2750007.8678131104,10702040.672302246,10388368.606567383,17441513.061523438,10834853.172302246,1750537.1570587158,5695493.698120117,5668411.731719971,5995241.641998291,10408451.080322266,10954924.583435059,10966983.795166016,10780251.502990723,6142035.484313965,6153141.975402832,6285893.440246582,1968457.579612732,11221716.88079834,9978353.500366211,6758919.239044189,5709070.682525635
0.465,-1935274.4817733765,878719.3298339844,6065618.991851807,-1493538.1412506104,4080.7025507092476,2168180.9425354004,6867850.303649902,5919557.094573975,10616847.99194336,3896606.922149658,4514037.609100342,-5445606.231689453,3548703.193664551,3643100.0232696533,-14467881.202697754,18601621.627807617,-9039762.496948242,-18985754.013061523,-1225980.1626205444,-782452.8217315674,4271568.298339844,-2623670.816421509,3394424.9153137207,-67339111.328125,-3828363.6569976807,-8597738.265991211,5336740.493774414,-8611433.029174805,-2618954.1816711426,3317836.284637451,-3963032.7224731445,2995857.4771881104,-25813308.715820312,-1443420.5293655396,6795688.629150391,5549643.039703369,546896.4576721191,1908353.328704834,895951.0922431946,3393923.759460449,2763222.9328155518,-1616719.2459106445,7633841.991424561,8136542.320251465,16755167.007446289,9937509.536743164,1408569.2167282104,2959281.4445495605,3106596.9467163086,3329292.5357818604,7440810.203552246,7991353.511810303,7860659.599304199,9684375.762939453,3492529.1538238525,3747045.9938049316,3581770.896911621,-619944.2744255066,8216923.713684082,8934109.687805176,4154973.5069274902,3144477.128982544
0.47,-6232415.199279785,-3113904.7145843506,1076513.648033142,-4081713.6764526367,-2002440.6909942627,795282.1850776672,5261738.300323486,4273923.873901367,8596451.759338379,2036002.3975372314,2631981.84967041,-7324276.924133301,3118872.4040985107,3398364.305496216,-14306365.013122559,18136604.30908203,-9499664.306640625,-18260593.41430664,-1654750.4663467407,-1203680.6344985962,4317870.140075684,-2608728.6472320557,3256306.6482543945,-67652565.0024414,-5701375.0076293945,-9566178.321838379,5045512.1994018555,-9991486.549377441,-2789310.6937408447,4039738.655090332,-2393797.1591949463,3122666.597366333,-25681135.177612305,-505625.54597854614,7529724.597930908,5972201.824188232,617849.2903709412,2145426.034927368,1975075.602531433,3921700.954437256,3242547.5120544434,-831405.758857727,10007764.81628418,10404703.140258789,18498830.795288086,11271997.451782227,1754464.1494750977,3325542.211532593,3784215.9271240234,3763272.762298584,9674453.735351562,10311154.36553955,10159548.75946045,10924233.436584473,3905081.9873809814,4289726.257324219,3985504.627227783,495837.926864624,10597095.489501953,10292376.518249512,4656050.682067871,3706800.699234009
0.475,-9098655.700683594,-5038293.361663818,-1216207.9811096191,-7090119.361877441,-4864283.084869385,2255162.477493286,3900351.047515869,2913724.899291992,5822234.630584717,-1729211.5688323975,-611563.3249282837,-9009903.907775879,3062548.875808716,3761229.0382385254,-11758008.003234863,20656316.75720215,-9069917.678833008,-18354242.3248291,-3829156.8756103516,-3584834.337234497,4046202.6596069336,-2377242.5651550293,3698718.0709838867,-64332122.802734375,-3059695.00541687,-7641461.372375488,5982028.484344482,-11337983.131408691,-3033098.9360809326,4650713.4437561035,-1875978.1122207642,3804867.744445801,-21678359.985351562,3370923.0422973633,10296251.29699707,7101837.635040283,810408.2345962524,1825641.9897079468,2539215.8031463623,4976974.4873046875,4301961.898803711,4151906.967163086,14695297.241210938,14582872.39074707,20810321.807861328,12718079.566955566,1375800.609588623,4465786.933898926,4975395.679473877,4796959.400177002,14173479.080200195,14887413.024902344,14910355.567932129,12394167.90008545,4928534.507751465,5207092.28515625,5053613.185882568,4527977.94342041,14555516.242980957,11840497.016906738,5679903.030395508,4788791.656494141
0.48,-9729586.601257324,-5018573.760986328,-755678.3556938171,-8772736.549377441,-6510658.264160156,2843549.7283935547,2771349.1916656494,1693170.189857483,4517511.84463501,-3718912.6014709473,-2627058.744430542,-9212592.124938965,3212824.821472168,4044374.942779541,-11738693.237304688,21511394.500732422,-8772141.456604004,-19721513.748168945,-5701620.578765869,-5690371.036529541,3148055.076599121,-3044462.6808166504,4032892.2271728516,-62808876.037597656,-844999.0749359131,-6666484.832763672,6536232.471466064,-11589874.267578125,-2705604.5532226562,4806277.751922607,-2978099.584579468,4144933.7005615234,-20134838.104248047,4189428.3294677734,10733891.487121582,7063550.94909668,960136.7712020874,1716713.9053344727,2326318.9792633057,5577052.593231201,4922201.633453369,6654560.565948486,15494529.724121094,14923697.471618652,20353576.66015625,12785211.563110352,1084030.8666229248,5329343.795776367,5597725.391387939,5528465.747833252,15012660.98022461,15746610.641479492,15949779.510498047,12489066.123962402,5646576.881408691,5767129.421234131,5816191.19644165,7108119.964599609,15618098.258972168,11924769.401550293,6307598.59085083,5434032.917022705
0.485,-13621555.32836914,-9681466.102600098,-4776301.860809326,-11331905.364990234,-8356816.291809082,-2922894.7162628174,-346191.1082267761,-1660299.7779846191,3901320.457458496,-3912904.0241241455,-4039539.8139953613,-10176154.136657715,3618052.2441864014,4386771.202087402,-17578388.214111328,16274883.270263672,-10641081.809997559,-21998231.887817383,-5883982.6583862305,-5909404.277801514,1268655.776977539,-4546555.042266846,4601723.194122314,-66911003.11279297,-5504236.698150635,-9656722.068786621,5000084.87701416,-11135265.350341797,-993707.8356742859,5582606.315612793,-2919476.5090942383,4734731.197357178,-24176219.940185547,-233856.06706142426,7358112.335205078,5374889.850616455,972129.7025680542,3758040.189743042,3723407.506942749,7233234.405517578,6426876.544952393,4286971.569061279,12403009.414672852,11534604.0725708,18062068.939208984,13100191.116333008,3014218.0919647217,7115602.016448975,7147056.579589844,7312490.463256836,12169987.678527832,12912070.274353027,13092574.119567871,12745730.40008545,7472373.485565186,7574604.511260986,7547960.7582092285,6668114.66217041,14876745.223999023,12185157.775878906,8071057.319641113,7156857.490539551
0.49,-19108270.6451416,-17192625.045776367,-12748424.530029297,-14109230.995178223,-11367340.087890625,-9556091.30859375,-3268399.715423584,-4772210.121154785,2788294.0769195557,-4950373.17276001,-6096562.86239624,-13130918.502807617,2914270.1625823975,3788562.059402466,-23503303.52783203,10029265.403747559,-12902357.10144043,-23243461.60888672,-5640120.983123779,-5553144.931793213,-848965.4064178467,-6434224.605560303,4352006.912231445,-72101837.15820312,-12571403.503417969,-12533520.698547363,2814675.5695343018,-11494380.950927734,1131127.953529358,6631892.204284668,-1884494.0662384033,4750404.357910156,-28916183.471679688,-4411992.073059082,4594707.012176514,4318283.557891846,907311.6183280945,6948800.563812256,6264770.5078125,9020292.282104492,7856268.882751465,1039103.5079956055,10294865.608215332,9793430.32836914,17827478.408813477,14472132.682800293,6203817.367553711,8788793.563842773,8827675.819396973,9038937.56866455,10198712.348937988,10966750.144958496,10945907.592773438,13982239.723205566,9342818.260192871,9527299.880981445,9149401.664733887,4913299.560546875,14507571.22039795,13493915.557861328,9938591.003417969,8998985.290527344
0.495,-16976913.452148438,-16985767.364501953,-14811080.932617188,-11984668.731689453,-13133117.67578125,-5709234.237670898,-305561.78092956543,-1724960.3271484375,2773975.610733032,-6833755.970001221,-7493525.02822876,-15547030.448913574,-474012.97092437744,600316.7033195496,-20757787.704467773,12134091.3772583,-11005491.256713867,-21428852.081298828,-6570185.18447876,-6429480.075836182,-1922453.8803100586,-8646640.77758789,1273325.3240585327,-71305007.93457031,-11481311.798095703,-9382303.237915039,3084013.7004852295,-13127697.944641113,1593661.5467071533,5875640.392303467,-3693410.634994507,1923908.3528518677,-28062812.80517578,-2898866.1766052246,6545626.163482666,5730614.66217041,850617.1703338623,7472408.294677734,5852638.721466064,6925620.555877686,5501718.997955322,232166.75221920013,10661448.47869873,11616305.351257324,20130172.729492188,14234381.675720215,6682391.64352417,6544642.448425293,6827488.422393799,6800452.23236084,10376691.818237305,11128925.323486328,10935420.989990234,13618972.778320312,7231078.624725342,7460893.154144287,6815027.713775635,2839362.621307373,12678586.00616455,13159591.674804688,7784514.427185059,6926551.342010498
0.5,-6822660.92300415,-7733082.294464111,-8419179.916381836,-4387094.974517822,-12077541.35131836,7397821.90322876,8032908.4396362305,6930072.30758667,5230969.9058532715,-6978444.0994262695,-6976138.114929199,-15490299.224853516,-5404887.676239014,-4373794.5556640625,-10477366.44744873,21883995.056152344,-5080347.061157227,-17622688.29345703,-8293492.317199707,-8213300.704956055,-2173766.1361694336,-11127942.085266113,-3905915.7371520996,-65087646.484375,-2113458.3950042725,-2268568.277359009,5734115.6005859375,-14628003.120422363,-78644.2831158638,2708600.9979248047,-9172907.829284668,-3399999.1416931152,-22311544.41833496,1790129.30393219,10677536.964416504,7978300.57144165,824606.8358421326,4359507.5607299805,1177776.6942977905,457862.913608551,-848706.5434455872,571705.5201530457,10386457.443237305,12951040.267944336,21327234.268188477,10891845.703125,3460260.8680725098,108502.5891661644,675681.8890571594,379909.6345901489,9766025.54321289,10420962.3336792,10219020.84350586,10270019.53125,762649.8341560364,972226.7389297485,409583.9858055115,329256.17694854736,7807461.738586426,9719590.187072754,1184872.031211853,488178.0743598938
0.505,-2139136.31439209,-3346599.578857422,-5192131.519317627,225611.29927635193,-11416830.062866211,14024732.58972168,12606807.708740234,11790987.014770508,7113079.54788208,-5428606.033325195,-6787614.345550537,-15417956.352233887,-8446123.123168945,-7615341.1865234375,-4102345.9434509277,27323732.376098633,-1956383.228302002,-15830872.535705566,-9700928.688049316,-9666601.181030273,-3320091.724395752,-13276234.62677002,-7216328.144073486,-61191562.65258789,3225345.3731536865,365151.67355537415,6904635.429382324,-14686435.69946289,-2042893.886566162,-416604.1910648346,-13473670.00579834,-7113662.242889404,-18160779.95300293,2948282.241821289,11336709.976196289,8144367.218017578,858518.6004638672,1903243.7801361084,-3049723.8636016846,-4438129.901885986,-5443012.714385986,-56363.85083198547,8278541.564941406,10998217.582702637,19915391.92199707,8406580.924987793,1061064.0048980713,-4607201.099395752,-3979635.000228882,-4269356.727600098,7518465.995788574,8085809.707641602,7965815.544128418,7935157.775878906,-4039352.8938293457,-3860056.4002990723,-4152566.909790039,-1330862.6413345337,3733929.15725708,7292991.161346436,-3753908.87260437,-4309594.15435791
