time,Fp1,Fpz,Fp2,AF3,AF4,F7,F5,F3,F1,Fz,F2,F4,F6,F8,FT7,FC5,FC3,FC1,FCz,FC2,FC4,FC6,FT8,T7,C5,C3,C1,Cz,C2,C4,C6,T8,TP7,CP5,CP3,CP1,CPz,CP2,CP4,CP6,TP8,P7,P5,P3,P1,Pz,P2,P4,P6,P8,PO7,PO5,PO3,POz,PO4,PO6,PO8,CB1,O1,Oz,O2,CB2
0.0,3901764.154434204,4164192.6765441895,2956221.103668213,2209095.9548950195,1923556.4470291138,2767179.7275543213,2118001.937866211,2172525.8827209473,1876073.8372802734,1090130.5675506592,1583546.2808609009,530458.5099220276,-356270.55168151855,-460012.67433166504,2280875.6828308105,2807770.4906463623,1231162.3096466064,615318.4771537781,994441.80727005,995849.3709564209,108940.16921520233,-778659.9397659302,-438405.6031703949,396646.26121520996,-507732.68938064575,-216456.24935626984,198778.34618091583,-913859.0097427368,-264965.14678001404,121119.58861351013,-565073.1921195984,-518131.91175460815,-87277.94140577316,-175672.2778081894,79799.40623044968,12901.82489901781,63782.304525375366,-82037.36692667007,-316123.45576286316,-637609.8990440369,-517930.0308227539,-658960.5808258057,-541606.3070297241,-336880.1772594452,372565.358877182,-557954.7882080078,35559.63188409805,-655706.1076164246,-606156.4087867737,-601051.6285896301,-506383.47864151,-532764.9116516113,-548858.2253456116,-547818.9587593079,-610547.9001998901,-644350.6479263306,-603721.6186523438,-271038.5024547577,-848273.1580734253,-486674.2491722107,-632990.5390739441,-625302.3147583008
0.005,234498.15809726715,5114893.913269043,3455386.6386413574,-109574.47439432144,730802.059173584,6281162.738800049,-1279218.6737060547,-430868.6852455139,1043156.0277938843,859256.5655708313,-1686346.6501235962,-6141706.943511963,-4595048.904418945,-5161890.983581543,621040.5230522156,2333204.0309906006,-2055398.2257843018,2043464.4222259521,164431.27393722534,506954.96797561646,-3367191.791534424,-11684903.144836426,-3367718.21975708,-15582979.202270508,3311310.7681274414,-849923.2530593872,-678815.5436515808,416487.81299591064,-2444506.883621216,-3674369.8120117188,-4117634.7732543945,-3758145.0939178467,4559408.187866211,-1218866.229057312,376038.8791561127,426514.26792144775,1223402.500152588,-1033379.9123764038,-5832356.929779053,-2100438.8332366943,-963786.3039970398,2608393.907546997,1915582.0608139038,-341371.44684791565,1558818.9363479614,2082650.4230499268,209671.55694961548,-2527120.351791382,-1680152.0586013794,-1857207.8943252563,2661465.883255005,2290338.0393981934,2270760.7746124268,2796781.539916992,-843805.193901062,-1583489.179611206,-1157811.999320984,6671358.108520508,2843183.994293213,4082220.0775146484,-1294556.3793182373,-544732.0342063904
0.01,6384800.910949707,14588651.657104492,11827226.638793945,3754480.8387756348,5879705.429077148,12182838.439941406,807481.8849563599,2121457.815170288,3372328.519821167,2940224.1706848145,1996215.4626846313,-5037901.878356934,-3503252.2678375244,-4389888.286590576,2281524.658203125,4744701.862335205,-1243372.5595474243,3305985.21232605,1813516.37840271,2366249.7997283936,-2321550.6076812744,-12838595.390319824,-1963090.7773971558,-20919471.740722656,5060050.487518311,-1213770.866394043,-742857.038974762,219252.809882164,-2017496.8242645264,-2871919.1551208496,-2454858.7799072266,-2704167.366027832,6916439.533233643,-2142881.393432617,-113496.94430828094,277430.8919906616,1939324.6173858643,-554893.434047699,-6734148.025512695,-1110452.7711868286,629753.4704208374,3014361.1431121826,1708329.439163208,-1671775.9370803833,1242280.4832458496,2499741.0774230957,1295104.742050171,-1681887.7458572388,-376033.9319705963,-787818.3126449585,2859510.4217529297,2191727.1614074707,2223636.6271972656,3331811.6664886475,670022.3684310913,-302613.40737342834,236849.0993976593,8018710.136413574,2810288.429260254,5349156.379699707,-75171.87297344208,989696.9199180603
0.015,17349241.256713867,27122446.060180664,23494329.45251465,10675580.978393555,13960130.69152832,16640478.134155273,5566378.593444824,6942458.629608154,7012207.984924316,5526285.648345947,9477817.53540039,1254565.3581619263,1036253.5715103149,14052.502810955048,5060393.810272217,7792044.639587402,1708635.5686187744,3829496.145248413,4378824.710845947,5075222.969055176,1310150.9809494019,-6931610.584259033,2060130.8345794678,-17867244.720458984,4744611.740112305,-1456087.7084732056,-299453.7651538849,-982298.4933853149,-34132.41729140282,531692.2664642334,1875274.419784546,1033426.8808364868,5831284.999847412,-2981806.516647339,-828437.328338623,28691.02917611599,2096109.390258789,1102469.4442749023,-4482407.569885254,1295926.809310913,3202246.1891174316,629269.0634727478,-448396.4145183563,-3162963.1519317627,232902.75037288666,1413999.9151229858,2972274.7802734375,799687.0279312134,2174652.8148651123,1659085.750579834,840724.1106033325,-4708.719905465841,78452.98945903778,1859683.7520599365,2948998.212814331,2094103.0979156494,2591693.40133667,4551531.791687012,-286676.7942905426,4066379.0702819824,2093656.5399169922,3097344.8753356934
0.02,20416641.235351562,30292877.197265625,27225355.14831543,12502498.626708984,16247375.48828125,14546999.93133545,6004225.730895996,7240155.6968688965,7446360.111236572,4867365.837097168,11885116.577148438,3733490.9439086914,2858936.309814453,1851365.9238815308,4600898.265838623,7184471.130371094,1671240.210533142,2870659.589767456,4038488.3880615234,4913599.967956543,2023615.3602600098,-4518001.079559326,3567402.8396606445,-16069377.899169922,3789531.707763672,-2074242.5918579102,-449243.81375312805,-1786627.2926330566,306046.7541217804,982128.2029151917,2264561.414718628,2459121.4656829834,2770534.9922180176,-3675101.9954681396,-832223.2365608215,350347.9063510895,1919441.3423538208,2553229.808807373,-4014828.681945801,2188855.8864593506,4060778.1410217285,-1458700.7761001587,-1373634.3383789062,-2613424.301147461,708760.2615356445,1707678.5564422607,4200724.6017456055,1773948.1925964355,3035860.776901245,2690706.253051758,-28130.98207116127,-892969.0718650818,-841192.1262741089,1820791.7213439941,3695949.5544433594,2826918.601989746,3394267.0822143555,1844385.8623504639,-2305972.099304199,3941250.801086426,2847854.1374206543,3777954.578399658
0.025,13182081.22253418,22226276.397705078,20518819.80895996,7583589.553833008,10620856.285095215,7965330.600738525,1118710.994720459,2281177.282333374,3977465.6295776367,733504.1761398315,6704174.518585205,-1033119.4400787354,63691.51175022125,-788481.2355041504,1029999.3753433228,3061068.058013916,-2258284.330368042,495536.1485481262,-129890.84422588348,869068.0861473083,-1650421.2617874146,-9760210.037231445,1269265.2940750122,-18668306.350708008,3015971.899032593,-3265273.8094329834,-1677139.7590637207,-2089922.4281311035,-1980126.976966858,-2767357.587814331,-2515204.1912078857,271898.0014324188,1204953.7897109985,-3882574.5582580566,-445804.4767379761,844962.0008468628,1734871.745109558,3159713.9835357666,-6689914.226531982,1117226.3622283936,2886492.0139312744,-302371.3529109955,683688.4021759033,-28522.52684533596,3233458.7574005127,4894295.692443848,4684791.564941406,722673.3565330505,1907493.1144714355,1791404.7241210938,1985737.681388855,1229698.657989502,1181807.6372146606,5029197.216033936,2850477.2186279297,1691218.0185317993,2417099.2374420166,3415749.5498657227,-465359.3599796295,7009426.593780518,2016928.9112091064,3038847.4464416504
0.03,6207265.377044678,14140293.12133789,12577181.816101074,2954889.0590667725,4047414.779663086,4228379.249572754,-2814650.058746338,-1568708.062171936,1058883.9054107666,-2728554.4872283936,435061.2759590149,-7539968.490600586,-3111471.176147461,-3670339.345932007,-1486282.3486328125,-3013.96194845438,-5579135.417938232,-1726522.3264694214,-4707927.703857422,-3803797.721862793,-5780149.459838867,-16480644.226074219,-1023176.4316558838,-20869756.6986084,2385843.276977539,-4362256.050109863,-3081332.206726074,-2696524.6200561523,-4625228.404998779,-6497184.753417969,-7067549.228668213,-1848494.291305542,2928453.9222717285,-3361578.7029266357,-702657.9976081848,612951.8151283264,1755494.9522018433,3532884.120941162,-9137701.988220215,643907.6662063599,2237599.8497009277,3447866.916656494,4057483.673095703,2173988.5807037354,5834832.668304443,9146945.95336914,5086634.635925293,286084.8605632782,1504838.1090164185,1361468.6727523804,5109580.039978027,4531873.70300293,4395663.261413574,9430396.08001709,2751234.531402588,1374677.6580810547,2109714.7464752197,7365101.337432861,3762281.656265259,11330632.209777832,1905306.100845337,3055318.1171417236
0.035,7555709.8388671875,14838823.318481445,11528933.52508545,4239299.297332764,2898609.399795532,6209575.653076172,-1346552.4911880493,-8604.281581938267,2216742.0387268066,-2249543.1900024414,-821862.8168106079,-9847418.785095215,-3164776.563644409,-3409326.7917633057,-908724.0099906921,642728.2094955444,-4826203.8230896,-1863742.470741272,-6151214.599609375,-5522641.658782959,-6991687.297821045,-18362394.332885742,-599899.0535736084,-19996623.992919922,2211098.1941223145,-4386118.412017822,-3375241.994857788,-3507006.6452026367,-5474282.264709473,-7036200.523376465,-7593134.40322876,-1268096.4469909668,5632148.742675781,-2624260.902404785,-1597726.1066436768,-218218.80340576172,2005449.5334625244,4085632.801055908,-8937802.3147583,2071496.7250823975,3498327.9705047607,5977848.052978516,5701097.011566162,2160831.928253174,6398142.8146362305,11174909.591674805,5681628.704071045,1766865.3726577759,3093219.518661499,2708028.793334961,6441358.56628418,6059552.6695251465,5887573.2421875,11447181.701660156,4332359.790802002,3082761.526107788,3636534.9292755127,9511328.69720459,6624941.349029541,13404588.69934082,3473134.0408325195,4657289.981842041
0.04,12494839.668273926,19956260.681152344,14747008.323669434,8076138.496398926,5461825.847625732,8960372.924804688,2169152.25982666,3412236.452102661,5056811.809539795,499672.4724769592,1423812.985420227,-8756390.571594238,-2223880.0525665283,-2357979.7744750977,338195.6219673157,2323586.7023468018,-2236899.1374969482,63773.32657575607,-4869599.81918335,-4481535.4347229,-6449689.865112305,-17201534.271240234,196789.53289985657,-19475610.733032227,2938993.453979492,-3502160.5491638184,-2587561.1305236816,-3703664.779663086,-5031919.002532959,-6179405.689239502,-6755343.437194824,-328959.04779434204,5589180.469512939,-2943932.7716827393,-2245408.058166504,-669581.2344551086,2304058.313369751,4087967.3957824707,-7965199.947357178,2936708.450317383,4356767.654418945,4554765.224456787,4303200.721740723,441770.2853679657,5038524.627685547,9572566.986083984,5667923.927307129,2614428.758621216,4036207.675933838,3509039.878845215,4981187.82043457,4731147.766113281,4562641.620635986,9770990.371704102,5147079.944610596,4148772.716522217,4543743.61038208,7882127.285003662,5901679.039001465,11846787.452697754,4246063.709259033,5425448.894500732
0.045,11873661.994934082,19990882.873535156,14618816.375732422,7537134.170532227,5982909.202575684,6722777.843475342,1714114.5467758179,2680562.734603882,4508099.07913208,1446201.5628814697,1952232.837677002,-8715939.52178955,-4021142.9595947266,-4355587.482452393,-852545.976638794,919162.5714302063,-2508986.9499206543,1470425.6057739258,-4027192.1157836914,-3727020.502090454,-7055872.917175293,-18344329.833984375,-1922339.0817642212,-22353710.174560547,3518026.828765869,-3476562.023162842,-2304877.996444702,-3506993.532180786,-4926749.706268311,-6879898.548126221,-8499144.554138184,-2375111.5798950195,2130558.0139160156,-5327330.112457275,-2705661.7736816406,-640099.7042655945,2346938.8484954834,2857583.0459594727,-8850575.44708252,529652.1186828613,2070983.88671875,338005.78117370605,944277.286529541,-1631410.002708435,3405651.569366455,5902724.742889404,4436272.144317627,126401.05187892914,1538253.1881332397,1090544.7006225586,1865713.119506836,1586840.7487869263,1433771.014213562,6223473.54888916,2729381.0844421387,1746852.993965149,2132620.8114624023,3685587.8829956055,2342338.3235931396,8237442.0166015625,1705288.6486053467,2927467.5846099854
0.05,5046899.795532227,13573431.015014648,9383388.51928711,1958343.505859375,2566000.22315979,-176439.97073173523,-3272966.146469116,-2526830.9116363525,-242984.27999019623,-747417.2711372375,-875529.0508270264,-11155466.079711914,-7829186.43951416,-8473090.171813965,-4895212.173461914,-3895022.6306915283,-6712371.826171875,-275123.32797050476,-5319057.941436768,-5030184.745788574,-9330131.530761719,-22089872.360229492,-5773761.749267578,-26832555.770874023,1719618.2012557983,-5831265.449523926,-3872891.902923584,-4150242.805480957,-5314669.609069824,-8571895.599365234,-11605529.78515625,-6321070.194244385,-2130054.235458374,-9291800.498962402,-4108333.5876464844,-1226646.900177002,1962402.8205871582,1275875.210762024,-10797387.12310791,-3626448.8697052,-2053841.5908813477,-3634186.267852783,-2567636.9667053223,-3650392.770767212,2440083.7421417236,2812750.1010894775,2936427.593231201,-4051159.8587036133,-2779721.0216522217,-3096692.8005218506,-1372870.4452514648,-1827359.3187332153,-1986470.2224731445,3396571.636199951,-1388701.6773223877,-2543395.519256592,-2115083.694458008,-583332.359790802,-1843302.3691177368,5111599.922180176,-2539854.049682617,-1254574.5372772217
0.055,-459080.0404548645,7732758.522033691,3983387.9470825195,-2630300.998687744,-1924358.84475708,-6213000.774383545,-7610978.126525879,-6813101.768493652,-4728287.220001221,-3921548.366546631,-4586078.643798828,-13927324.295043945,-9805184.364318848,-10526401.51977539,-9493289.947509766,-8288413.047790527,-11165519.714355469,-4746755.123138428,-7464240.074157715,-7196252.346038818,-11768734.9319458,-24266319.274902344,-7505002.021789551,-29459312.438964844,-2426970.2434539795,-9386978.149414062,-6522795.677185059,-5919951.438903809,-5282994.747161865,-8837957.382202148,-12046819.686889648,-8263249.397277832,-4762202.739715576,-12646750.450134277,-6334214.210510254,-2770886.8980407715,1357689.1422271729,944940.2689933777,-11277981.758117676,-5482020.378112793,-4055547.2373962402,-5841981.410980225,-4911528.11050415,-5427557.945251465,2046814.4416809082,1709174.1561889648,2706929.4452667236,-5811467.64755249,-4709138.3934021,-4975137.233734131,-3639908.790588379,-4252158.164978027,-4450023.651123047,2372874.975204468,-3352372.646331787,-4517045.021057129,-4086719.036102295,-2892695.903778076,-4782557.964324951,3868336.2007141113,-4459654.331207275,-3143498.182296753
0.06,986181.7359924316,8056578.636169434,2811175.584793091,-1602050.0659942627,-4352584.362030029,-5695677.757263184,-6742161.750793457,-5690756.320953369,-4873178.482055664,-5693032.741546631,-6688500.881195068,-15279804.229736328,-8942321.77734375,-9423145.294189453,-10554434.776306152,-8010760.307312012,-11656320.571899414,-8458316.802978516,-8505394.93560791,-8232645.034790039,-13373502.731323242,-23398405.075073242,-6398317.813873291,-28290029.525756836,-4678407.669067383,-10557951.927185059,-7772913.455963135,-7443760.871887207,-4899414.539337158,-7773710.72769165,-9683658.599853516,-7252507.68661499,-4611008.644104004,-12626412.391662598,-6978785.037994385,-3667016.5061950684,996201.8132209778,1880850.4343032837,-10249554.634094238,-4011339.6644592285,-2740023.612976074,-5989725.589752197,-4947915.077209473,-5553913.593292236,2487274.646759033,2244149.684906006,3636132.7171325684,-4220962.5244140625,-3169456.958770752,-3412021.8753814697,-3735929.7275543213,-4347692.012786865,-4546967.98324585,2711753.1299591064,-2119081.974029541,-3052188.6348724365,-2601594.6865081787,-2182098.627090454,-5307129.859924316,4329760.551452637,-2995873.9280700684,-1657973.5279083252
0.065,8344180.107116699,13756572.723388672,5826723.098754883,3777540.683746338,-3534929.9907684326,3700917.0055389404,-809312.8800392151,400835.1266384125,-1119935.154914856,-5326988.697052002,-6207663.536071777,-15248989.10522461,-8086262.7029418945,-8287881.851196289,-3700818.5386657715,-1813980.1025390625,-7390993.595123291,-8177432.060241699,-8008884.429931641,-7647340.297698975,-13970046.043395996,-22618276.596069336,-5493802.547454834,-21899017.333984375,-304521.5904712677,-6995697.975158691,-5961061.000823975,-7323366.165161133,-5129022.598266602,-7651543.617248535,-8442836.76147461,-6185362.815856934,-221834.77878570557,-7917211.055755615,-4028978.3477783203,-2251758.575439453,1125278.115272522,2245845.7946777344,-10018563.270568848,-2258299.3507385254,-1020957.5891494751,-2880110.025405884,-1752514.0047073364,-2508163.9289855957,4327773.094177246,3287188.768386841,3859763.1454467773,-2452113.151550293,-1312021.6131210327,-1523643.6128616333,-581625.8192062378,-1087262.9880905151,-1164976.716041565,3591997.1466064453,-483966.1121368408,-1262585.6399536133,-732045.3524589539,1517395.01953125,-2934164.524078369,5447898.864746094,-1146997.8094100952,222969.97904777527
0.07,17331226.348876953,20874217.987060547,10430209.159851074,9703569.412231445,134722.5159406662,19302265.167236328,6812308.788299561,7908362.865447998,3389758.825302124,-3063663.7210845947,-3137616.8727874756,-14313633.918762207,-9306123.733520508,-9463119.506835938,11302844.047546387,7646431.446075439,-1157010.793685913,-4194159.984588623,-6802618.026733398,-6317064.7621154785,-13469828.605651855,-24470609.664916992,-6793027.400970459,-10367017.74597168,9885432.243347168,-698629.4984817505,-2163287.63961792,-5708189.487457275,-6019444.942474365,-9029387.474060059,-10302285.194396973,-7189764.499664307,9015557.289123535,-270793.25914382935,1056204.3190002441,668823.1229782104,1520181.8943023682,878840.1484489441,-11495090.48461914,-2719811.43951416,-1521425.8432388306,4272944.927215576,3888790.8458709717,2674934.6256256104,6739812.37411499,3907366.7526245117,2348765.1348114014,-3036169.2905426025,-1811130.8813095093,-2043376.9226074219,5064805.507659912,4620712.2802734375,4713494.300842285,4343188.762664795,-877488.6131286621,-1780825.9725570679,-1219981.4319610596,6716399.669647217,1327476.2630462646,6167160.511016846,-1475648.5223770142,-141403.25784683228
0.075,23759805.67932129,25253736.49597168,13023884.773254395,13595994.94934082,3642476.3202667236,33841762.54272461,12400782.585144043,13257830.619812012,6098866.939544678,-326159.5368385315,85047.01405763626,-13824215.88897705,-11800742.149353027,-12040714.263916016,27131956.100463867,15394640.922546387,3129833.221435547,-341379.46367263794,-6029973.030090332,-5508501.052856445,-12922134.399414062,-27897035.598754883,-9276839.256286621,1142937.5410079956,19022161.48376465,3477237.2245788574,725986.897945404,-4060685.157775879,-6720870.9716796875,-10300494.194030762,-13131629.943847656,-9428296.089172363,19075084.686279297,6084162.23526001,4472263.813018799,2504607.915878296,1804256.796836853,-911497.7121353149,-13197607.040405273,-4619413.85269165,-3619516.8495178223,12193550.109863281,8751691.818237305,6416911.1251831055,7677445.888519287,3870068.073272705,575651.4072418213,-5099299.430847168,-3929736.614227295,-4213442.325592041,9943524.360656738,9473017.692565918,9595318.794250488,4542382.24029541,-2718097.20993042,-3788758.5163116455,-3354465.2462005615,10606923.10333252,4749941.349029541,6145346.164703369,-3287855.386734009,-2138848.5431671143
0.08,24321022.033691406,23268131.256103516,9835032.46307373,13797688.484191895,1496862.769126892,40193099.97558594,13457571.029663086,14229546.546936035,5579017.162322998,-453708.2612514496,-1790914.535522461,-16864767.07458496,-14766571.044921875,-14881623.268127441,33905735.01586914,17686183.92944336,3184695.7206726074,-526876.0323524475,-6958745.47958374,-6547166.347503662,-14995232.582092285,-31280889.5111084,-11972692.489624023,4906624.794006348,21008895.874023438,2809758.186340332,851440.4892921448,-3983386.0397338867,-7361091.613769531,-11097155.570983887,-15046998.023986816,-11880568.504333496,22674163.818359375,7733855.724334717,4413921.83303833,2172456.741333008,1922004.8189163208,-1000381.8273544312,-14088205.337524414,-6506013.870239258,-5748657.703399658,14944848.06060791,9759658.813476562,6385406.017303467,6795968.532562256,3884627.5806427,696749.2699623108,-6997696.399688721,-5983882.904052734,-6240451.335906982,10990843.772888184,10470046.043395996,10476039.88647461,4532312.393188477,-4575529.098510742,-5577529.9072265625,-5348704.814910889,10825779.914855957,5130737.781524658,6142090.320587158,-5055737.495422363,-4169450.283050537
0.085,19216526.03149414,15314250.946044922,1134037.971496582,9626543.045043945,-8316619.873046875,37636245.72753906,10010619.163513184,10914673.805236816,1569174.7665405273,-5833332.061767578,-11065060.61553955,-24793651.580810547,-18670757.293701172,-18396430.96923828,29378263.473510742,15003789.901733398,-153362.33377456665,-4817126.750946045,-10210961.34185791,-9964463.233947754,-20599687.576293945,-34787143.70727539,-15408275.604248047,-450144.55914497375,16785411.834716797,-576360.0468635559,-962056.577205658,-6090981.483459473,-8929067.611694336,-12938610.076904297,-16967868.80493164,-14939091.682434082,17173322.677612305,5124829.292297363,2820163.4883880615,1347315.1922225952,2094596.1475372314,741011.0235214233,-14906942.367553711,-8606289.863586426,-7902716.159820557,10659936.904907227,7340082.64541626,4192301.2733459473,6494277.9541015625,5049544.334411621,2703735.828399658,-8824584.007263184,-7904440.402984619,-8094325.065612793,8609523.77319336,8034093.856811523,8045309.066772461,5409125.804901123,-6413245.20111084,-7259232.044219971,-7135127.544403076,7580061.912536621,3299315.929412842,7297848.224639893,-6903520.107269287,-6152976.512908936
0.09,14843076.705932617,9308828.353881836,-5205677.032470703,4085369.58694458,-18567266.4642334,32135028.839111328,5390580.177307129,6450631.141662598,-3457334.280014038,-13122064.590454102,-21108020.782470703,-32716625.213623047,-22427814.483642578,-21889207.83996582,21071424.48425293,11189188.003540039,-3731040.4777526855,-9062674.522399902,-14206823.348999023,-14006709.098815918,-25644577.026367188,-37828460.693359375,-18866329.193115234,-7772222.518920898,12362556.457519531,-2555517.4350738525,-2466431.8561553955,-9175553.321838379,-10790827.751159668,-15668231.964111328,-19329307.556152344,-18060344.696044922,8248985.290527344,1547646.0456848145,2208472.490310669,1834858.775138855,2362559.3185424805,2337516.0694122314,-16062568.664550781,-11103107.452392578,-10291462.898254395,3913571.59614563,4516260.623931885,2881216.7644500732,8375095.367431641,7177092.0753479,4419558.048248291,-10909029.006958008,-9946627.616882324,-10222844.123840332,5692506.313323975,5021999.835968018,5318607.807159424,7345777.51159668,-8422828.674316406,-9360937.118530273,-9189786.911010742,3104147.9110717773,1670555.7107925415,9346741.676330566,-9184526.443481445,-8323032.379150391
0.095,19093708.038330078,14877658.84399414,217087.19432353973,3287142.515182495,-18220457.077026367,29345884.323120117,3977795.8393096924,5048247.814178467,-4777998.447418213,-14587430.000305176,-21271232.60498047,-32720104.217529297,-22913776.397705078,-22648614.88342285,16547103.881835938,9244965.553283691,-4835935.115814209,-8923577.308654785,-15559174.537658691,-15228233.337402344,-24522987.365722656,-37596405.029296875,-19712409.97314453,-11058694.839477539,11451725.959777832,-1766303.6584854126,-2414395.0939178467,-10630870.819091797,-10434868.812561035,-16392328.262329102,-19939666.748046875,-19047090.530395508,2776082.2772979736,-1053838.849067688,2225862.503051758,2885422.468185425,2442631.0062408447,2143204.2121887207,-16516698.837280273,-12762657.165527344,-11942576.40838623,-763469.2192077637,2286436.5577697754,2381992.816925049,9964964.866638184,7804645.06149292,4093246.4599609375,-12401960.372924805,-11378561.019897461,-11892301.559448242,3165982.723236084,2399727.3445129395,3000267.505645752,8055516.242980957,-9921102.523803711,-11142107.963562012,-10895918.846130371,-1648697.2570419312,-29505.789279937744,9777107.238769531,-11001620.292663574,-9914760.58959961
0.1,31425035.47668457,31063325.881958008,16266777.038574219,9619308.471679688,-5833039.7605896,29146654.12902832,6692648.887634277,7676212.310791016,-333248.64506721497,-6945302.486419678,-9808906.555175781,-23761123.657226562,-19707813.262939453,-20188360.2142334,15009988.784790039,8598819.732666016,-3505300.0450134277,-4369421.482086182,-12589922.904968262,-12136250.495910645,-17636600.494384766,-33294136.04736328,-17646163.940429688,-12953667.640686035,12200186.729431152,-408385.0681781769,-1373762.4883651733,-8854043.006896973,-7118441.104888916,-13965724.94506836,-17897102.35595703,-17708980.560302734,744140.8038139343,-3874608.7551116943,797657.0725440979,2404898.166656494,2150336.980819702,405308.3658218384,-16014062.881469727,-13327462.196350098,-12682821.273803711,-4705444.3359375,-1745084.1665267944,-290456.1161994934,7493314.266204834,4335329.055786133,2069100.1415252686,-13245691.299438477,-12305811.882019043,-12896592.140197754,-1209043.9796447754,-1965317.964553833,-1410165.1906967163,4677587.509155273,-11035286.903381348,-12316943.168640137,-12082854.270935059,-8220043.182373047,-5077667.713165283,6085846.424102783,-12092221.2600708,-10944820.404052734
0.105,41474086.76147461,44648998.26049805,29864711.76147461,17347494.12536621,6888154.983520508,28419290.54260254,9817749.977111816,10752864.837646484,5787802.696228027,3276656.150817871,2347700.357437134,-14769747.734069824,-17257205.963134766,-18444431.30493164,11840687.75177002,7096428.871154785,-1941143.6319351196,339693.5760974884,-7883552.551269531,-7558506.488800049,-12210077.285766602,-29358898.162841797,-16524358.749389648,-18156864.166259766,11322257.995605469,-706743.3595657349,-526614.3083572388,-5396392.822265625,-3996763.9446258545,-11808901.7868042,-16601657.86743164,-17361978.53088379,-1903239.4886016846,-8020912.170410156,-2115496.1585998535,225863.85905742645,1734598.0405807495,-1528272.5095748901,-16328376.770019531,-14842271.80480957,-14316399.574279785,-10785811.424255371,-8478759.765625,-5835958.957672119,1624563.455581665,-2161367.416381836,-70476.79275274277,-15190381.050109863,-14470899.58190918,-14784870.147705078,-8088616.371154785,-8717446.327209473,-8501674.65209961,-1989967.703819275,-13313180.923461914,-14302431.106567383,-14127274.513244629,-16671358.108520508,-13940386.772155762,-536231.8754196167,-14012616.157531738,-13076757.431030273
0.11,40793060.302734375,44837734.22241211,30301725.387573242,18741628.646850586,8320108.413696289,26843744.2779541,9697626.113891602,10634263.038635254,7469141.006469727,6478334.903717041,3969068.765640259,-14551859.855651855,-19124555.587768555,-20530195.236206055,7883127.689361572,4874397.277832031,-1706828.8326263428,1257415.4138565063,-5722647.666931152,-5733972.549438477,-13665657.997131348,-30470710.75439453,-18992998.123168945,-23736316.680908203,8954236.030578613,-2198579.0729522705,-332164.6451950073,-3565896.987915039,-4493666.648864746,-13341793.060302734,-19181505.20324707,-19989006.04248047,-4994141.101837158,-11290111.541748047,-3933308.3629608154,-1455157.1607589722,1574344.9926376343,-2588277.816772461,-18462728.50036621,-18059448.2421875,-17381055.83190918,-15984401.70288086,-13501780.50994873,-10179975.509643555,-2430341.4821624756,-6757007.598876953,-1115126.609802246,-18513784.408569336,-17952184.677124023,-17921272.27783203,-13023766.51763916,-13517141.342163086,-13531798.362731934,-6836175.441741943,-16644294.738769531,-17374683.380126953,-17191005.70678711,-22081695.556640625,-20682723.999023438,-5133775.71105957,-17111619.94934082,-16424556.732177734
0.115,32490062.713623047,35536445.61767578,21143692.016601562,13336524.963378906,206806.62989616394,26442722.32055664,7231925.964355469,8132843.017578125,3631123.3043670654,959259.7484588623,-3634459.972381592,-21153167.724609375,-22431364.059448242,-23556798.934936523,8230533.599853516,4439643.383026123,-2249695.062637329,-1486351.9668579102,-7153781.414031982,-7370072.841644287,-18826482.77282715,-34693332.67211914,-21819669.723510742,-22978052.139282227,7683574.676513672,-3132424.3545532227,-484983.2355976105,-4582048.8929748535,-7588253.498077393,-16478872.299194336,-22936964.03503418,-22341110.229492188,-4386054.039001465,-10498453.140258789,-2981510.1623535156,-1085977.9119491577,1684602.2605895996,-2421370.029449463,-20238155.364990234,-19703447.341918945,-18726865.768432617,-14066514.96887207,-11580753.326416016,-9182925.2243042,-1326731.80103302,-5785018.9208984375,-830801.3081550598,-19883792.877197266,-19239770.889282227,-19236688.6138916,-10985258.102416992,-11403660.774230957,-11367415.428161621,-5786211.4906311035,-17673097.610473633,-18525312.423706055,-18269313.81225586,-18820150.37536621,-18926521.30126953,-4064660.07232666,-18327268.600463867,-17603601.455688477
0.12,25030742.645263672,27889446.258544922,13413578.987121582,7152170.658111572,-6694966.793060303,26258411.407470703,5582714.557647705,6404245.853424072,-1474191.5464401245,-6194493.770599365,-10283671.379089355,-25457639.694213867,-21952812.19482422,-22628551.483154297,12474534.98840332,6497542.858123779,-2529626.1310577393,-4821882.247924805,-9259166.717529297,-9340644.836425781,-20520437.240600586,-35773761.74926758,-20363632.202148438,-17178947.44873047,8152988.433837891,-3252002.954483032,-664089.024066925,-6337424.278259277,-9138698.57788086,-16304298.400878906,-22609540.939331055,-20386795.043945312,64289.71886634827,-6418593.883514404,-899065.7329559326,244455.56104183197,1760476.3507843018,-1378619.3132400513,-19011831.283569336,-16713331.22253418,-15588939.666748047,-5429507.255554199,-4188297.748565674,-4332962.0361328125,2324825.2868652344,-1340505.599975586,197113.14141750336,-16647796.630859375,-15726332.664489746,-16119926.452636719,-3619434.356689453,-3993627.0713806152,-3862396.478652954,-902694.7617530823,-14138850.212097168,-15299974.44152832,-15050186.157226562,-8696306.228637695,-10673243.522644043,544297.1587181091,-15120462.417602539,-14103928.565979004
0.125,19893247.604370117,24485578.536987305,10401762.008666992,3561562.7765655518,-7374450.206756592,21713573.455810547,4635471.343994141,5432704.448699951,-4498850.345611572,-8628959.655761719,-10803143.501281738,-23784749.98474121,-18294725.41809082,-18674802.780151367,12865001.678466797,7616038.799285889,-3114128.351211548,-6550922.870635986,-9435424.8046875,-9254590.98815918,-17218872.0703125,-32319103.240966797,-16086160.659790039,-15621652.603149414,8031563.758850098,-3888742.9237365723,-909581.4228057861,-6525290.012359619,-7615206.718444824,-12518170.356750488,-18459569.931030273,-16045843.124389648,2837728.977203369,-3621663.0935668945,-415421.2176799774,596357.5839996338,1646402.7166366577,-477238.35706710815,-15913018.226623535,-11832432.746887207,-10808638.572692871,1620794.653892517,1337806.1056137085,-1018046.0214614868,3947310.68611145,1226353.1684875488,922916.7699813843,-11854790.687561035,-10674126.625061035,-11382220.268249512,1790874.6004104614,1428935.8854293823,1507397.7708816528,2032562.017440796,-9357875.82397461,-10586595.53527832,-10489645.957946777,-884105.2055358887,-4958037.376403809,3262066.602706909,-10353868.48449707,-9193203.926086426
0.13,11719293.594360352,18473979.949951172,5983952.045440674,-125393.98670196533,-6769126.892089844,10907414.436340332,1090840.1012420654,1972413.0630493164,-6193533.420562744,-7163892.2691345215,-9479025.840759277,-21479227.06604004,-17289892.196655273,-17644617.080688477,4662393.569946289,3960993.2899475098,-5422389.984130859,-6928587.436676025,-8414298.057556152,-8185333.251953125,-14193003.65447998,-30024843.215942383,-15051667.213439941,-22590923.309326172,5452626.2283325195,-5766702.175140381,-1395778.775215149,-5523758.411407471,-5774632.930755615,-10041275.978088379,-16311397.552490234,-15221374.51171875,417448.2524394989,-4885953.426361084,-1882591.0091400146,-206492.0961856842,1481979.0124893188,-657757.2822570801,-14647513.389587402,-10930553.436279297,-10105392.456054688,1109838.9625549316,660167.396068573,-1730082.392692566,2890098.810195923,-125668.4809923172,629553.0796051025,-11206388.473510742,-9935719.49005127,-10595970.153808594,1080530.047416687,634843.9455032349,670441.2698745728,641086.757183075,-8865626.335144043,-9867046.356201172,-9913640.022277832,-1755321.979522705,-6946072.578430176,1960490.8227920532,-9554751.3961792,-8653522.491455078
0.135,-403997.12324142456,7056487.560272217,-3166767.5971984863,-5992536.544799805,-9641556.739807129,-1165424.7045516968,-5465759.27734375,-4448296.546936035,-7858108.997344971,-5857685.089111328,-11007617.950439453,-23317920.684814453,-21066267.013549805,-21606294.631958008,-6527310.371398926,-3132414.8178100586,-9037981.986999512,-7045010.566711426,-8037352.561950684,-7983004.570007324,-15211820.602416992,-32962692.260742188,-18997936.248779297,-31067190.170288086,1626079.4401168823,-7968637.466430664,-2056061.7446899414,-4974621.295928955,-6004581.451416016,-11544736.862182617,-18865051.26953125,-19248596.19140625,-4190103.530883789,-8101728.439331055,-3415255.546569824,-906772.9115486145,1377810.001373291,-1633986.473083496,-16139968.872070312,-14837685.585021973,-14147637.367248535,-3893993.377685547,-3023995.876312256,-3849325.180053711,1927549.0045547485,-2320729.970932007,-249732.25593566895,-15186848.640441895,-13965088.844299316,-14459033.012390137,-2494395.7328796387,-3081141.471862793,-2902769.8040008545,-1835040.3308868408,-12890655.517578125,-13707361.221313477,-13670828.819274902,-7743797.779083252,-12135507.583618164,-249759.65917110443,-13362767.219543457,-12849442.481994629
0.14,-9147654.53338623,-2651736.4978790283,-11366500.854492188,-10396875.381469727,-13063605.308532715,-7115351.676940918,-10000885.963439941,-8862035.751342773,-8151329.99420166,-5571237.087249756,-13266552.925109863,-26018735.885620117,-24459564.208984375,-25242856.979370117,-11470551.490783691,-7466869.831085205,-11132935.523986816,-7097401.6189575195,-7802265.167236328,-7867737.293243408,-17232753.75366211,-36970996.85668945,-22464424.13330078,-32444484.71069336,-657044.7683334351,-9081367.492675781,-2416373.9681243896,-4807063.102722168,-6715489.864349365,-13372370.719909668,-21494899.74975586,-22580514.907836914,-6645968.914031982,-9688446.044921875,-3727534.055709839,-960618.6151504517,1255581.9749832153,-2059147.596359253,-17071117.401123047,-17821756.36291504,-17160730.361938477,-7192621.70791626,-4571400.165557861,-4335362.911224365,2368233.4423065186,-2191566.228866577,-518475.7709503174,-17999446.868896484,-16856821.060180664,-17442214.965820312,-3879927.635192871,-4491647.720336914,-4160188.674926758,-1850903.7494659424,-15686620.712280273,-16572900.772094727,-16242477.416992188,-10902632.713317871,-13331728.9352417,-94148.20373058319,-16282737.731933594,-15838755.60760498
0.145,-9073967.933654785,-4175092.2203063965,-12692788.124084473,-9035972.595214844,-12193636.894226074,-4856515.407562256,-8041007.995605469,-6803723.8121032715,-5740133.285522461,-4445314.407348633,-12117259.979248047,-23957855.224609375,-22438873.291015625,-23337337.493896484,-8243908.882141113,-4873448.848724365,-9544158.935546875,-6737230.30090332,-5851811.88583374,-5851203.918457031,-15446681.022644043,-35479393.005371094,-20515838.623046875,-27293571.47216797,-948.7548377364874,-8487016.677856445,-1913294.9113845825,-3663115.978240967,-5249327.659606934,-11251419.067382812,-19141826.629638672,-20494195.93811035,-6687180.995941162,-8834383.010864258,-3125443.458557129,-886137.9027366638,1101390.00415802,-1290200.4718780518,-14739325.523376465,-15478926.658630371,-14750990.867614746,-7511142.730712891,-3463230.1330566406,-3474021.4347839355,2876536.8461608887,-650660.1572036743,251587.6591205597,-15450921.058654785,-14379540.44342041,-15265807.151794434,-2650916.09954834,-3105867.1474456787,-2897290.4682159424,-246636.15226745605,-13259200.096130371,-14315058.708190918,-13745553.970336914,-8950233.459472656,-9940057.754516602,1485665.3213500977,-14110825.538635254,-13428698.539733887
0.15,-4583015.918731689,-1125000.4768371582,-9916956.901550293,-3949311.0179901123,-8749009.132385254,1215844.5119857788,-2038158.4167480469,-755819.9763298035,-2654781.8183898926,-2624627.8285980225,-9039403.915405273,-18627241.134643555,-17394517.89855957,-18153306.96105957,-2336446.0468292236,1828220.9634780884,-5716583.728790283,-6173008.441925049,-2843324.1844177246,-2734956.0260772705,-10750139.236450195,-29339786.529541016,-15589768.409729004,-22119775.772094727,2858749.8664855957,-6498072.147369385,-633791.9235229492,-1855345.9644317627,-2528591.8712615967,-7006313.323974609,-13910524.368286133,-15553404.808044434,-5651145.458221436,-6753765.58303833,-1889463.0670547485,-726235.2705001831,1091353.8932800293,-343818.39632987976,-11111528.396606445,-10637357.711791992,-9783643.72253418,-6976267.337799072,-2159717.798233032,-2583568.0961608887,3011112.689971924,-213087.3054265976,1092169.0464019775,-10542279.243469238,-9564208.030700684,-10549260.139465332,-1289218.4257507324,-1577535.629272461,-1699860.93044281,223746.83618545532,-8560065.269470215,-9662209.510803223,-9129012.107849121,-6044661.998748779,-6847177.982330322,1823296.070098877,-9457169.532775879,-8671508.7890625
0.155,-3091941.1182403564,-748538.7921333313,-9585256.576538086,-985219.8362350464,-8354306.221008301,6168490.409851074,1604617.8340911865,2795197.7252960205,-1866120.2192306519,-2527139.42527771,-8945426.940917969,-16824964.52331543,-15516047.477722168,-15936479.568481445,1959438.681602478,6450355.052947998,-3226162.4336242676,-5964535.236358643,-2119850.1586914062,-1976357.5792312622,-8571603.775024414,-25844955.444335938,-13635519.027709961,-19475257.873535156,6452371.120452881,-4034396.171569824,440319.299697876,-1609816.4319992065,-2022448.0628967285,-5949111.9384765625,-12005043.029785156,-13641392.707824707,-2824030.1609039307,-3905904.2930603027,371675.7595539093,222107.06770420074,1273886.0845565796,-494700.99806785583,-10088809.967041016,-8982456.20727539,-8055084.228515625,-5525503.158569336,-974155.068397522,-1006032.8245162964,4472906.112670898,-688187.2415542603,939796.4477539062,-8975564.002990723,-8105751.037597656,-8779992.10357666,-124594.50960159302,-399473.6075401306,-695593.0590629578,-367274.79100227356,-7023970.603942871,-8048369.407653809,-7780331.611633301,-5299151.420593262,-6569992.542266846,1123618.6027526855,-7722082.138061523,-7178223.133087158
0.16,-4375277.042388916,-2655942.20161438,-11756662.368774414,-1647350.4304885864,-11422039.985656738,9309258.460998535,892520.010471344,1857725.977897644,-2728190.1836395264,-4406140.8042907715,-12037682.53326416,-20378248.21472168,-17969280.242919922,-18101892.471313477,5305410.385131836,6906103.610992432,-3449233.293533325,-5919247.150421143,-5050394.535064697,-4849966.049194336,-11011677.742004395,-28374565.12451172,-15753617.286682129,-16621381.759643555,9755455.017089844,-2294287.4431610107,454147.45807647705,-3738151.0734558105,-4557690.620422363,-9028799.057006836,-14887518.882751465,-15799639.701843262,2174897.6707458496,-365769.8631286621,3179629.08744812,1820536.3750457764,1370105.266571045,-1524308.0854415894,-12081870.079040527,-11232875.82397461,-10383822.441101074,-1740547.2993850708,1588878.7508010864,2095590.1145935059,7624907.970428467,-43497.10792303085,27073.11138510704,-11431370.735168457,-10605883.598327637,-10838649.74975586,2313160.181045532,1982588.1719589233,1843727.1118164062,188798.7107038498,-9238516.807556152,-10193449.974060059,-10195180.892944336,-5092226.028442383,-6859758.8539123535,1673786.7593765259,-9756437.301635742,-9470993.041992188
0.165,-2336044.7883605957,-359365.6122684479,-10450427.055358887,-1783785.8200073242,-12060743.33190918,12676574.70703125,61914.39926624298,842876.0766983032,-1801821.4702606201,-4875857.353210449,-12800307.273864746,-23092695.236206055,-19638217.92602539,-19788377.76184082,8918815.612792969,6671362.87689209,-4073127.269744873,-5013787.746429443,-8162366.86706543,-7794618.129730225,-13763169.288635254,-31821119.30847168,-17264133.45336914,-12260798.454284668,12321381.568908691,-1875267.8632736206,-64990.76634645462,-5904877.185821533,-6865793.228149414,-11503119.468688965,-17526067.73376465,-17379383.087158203,6365519.046783447,2411444.664001465,4744059.085845947,2698090.5532836914,1157580.018043518,-2206359.386444092,-13647926.330566406,-12846282.005310059,-12136301.040649414,2877774.238586426,4920748.233795166,4995387.077331543,9701032.638549805,1606711.506843567,-642265.9754753113,-13301051.139831543,-12386023.52142334,-12460206.985473633,5488065.242767334,5191758.632659912,5333644.390106201,1940176.1293411255,-10816624.641418457,-11767692.565917969,-11853046.417236328,-3051720.380783081,-5541732.311248779,3509778.2611846924,-11364590.644836426,-10999122.619628906
0.17,4773221.015930176,7957913.398742676,-3236386.299133301,1571212.0532989502,-6647415.1611328125,16967319.48852539,2780076.742172241,3595813.274383545,2036009.7885131836,-1364013.7910842896,-7835011.959075928,-19444992.065429688,-16503156.661987305,-17000888.82446289,11433072.090148926,9049391.746520996,-2504429.340362549,-2820116.0430908203,-6929902.55355835,-6367239.475250244,-12019626.61743164,-29874780.654907227,-14565028.190612793,-9115330.696105957,13861441.612243652,-2012918.23387146,246143.34106445312,-5570042.133331299,-5994864.463806152,-9627595.901489258,-15463082.313537598,-14782919.883728027,6846592.426300049,2944514.9898529053,4195048.809051514,2174344.062805176,874187.2906684875,-2070894.2413330078,-12220737.45727539,-10640066.146850586,-9898952.48413086,5331071.376800537,6645040.988922119,5440025.806427002,8621525.764465332,2014872.3125457764,-699706.7332267761,-11252833.366394043,-10145203.590393066,-10417926.788330078,7202077.865600586,6969007.968902588,7244694.232940674,2526346.445083618,-8679944.038391113,-9661530.494689941,-9590219.497680664,234740.83840847015,-3665853.500366211,4174567.699432373,-9380673.4085083,-8747102.737426758
0.175,11592703.819274902,16181922.912597656,4697331.90536499,5949269.2947387695,607871.7112541199,20517942.428588867,6954741.477966309,7979124.069213867,5943003.177642822,3787844.181060791,-1065116.52469635,-12324552.536010742,-10818499.565124512,-11734672.546386719,11527498.245239258,12574980.735778809,387877.82192230225,-597914.3381118774,-1774569.034576416,-1074241.7573928833,-7020737.648010254,-23375286.102294922,-9615858.07800293,-9453966.14074707,13827330.589294434,-1526666.0451889038,1464204.7882080078,-3490933.418273926,-3139116.7640686035,-5405744.552612305,-10329553.604125977,-9913092.613220215,5257569.789886475,2269710.5407714844,2988100.76713562,1352190.8521652222,911856.1744689941,-1641742.5870895386,-9092084.884643555,-6529029.846191406,-5522988.796234131,5833665.370941162,6617077.827453613,4352375.9841918945,6514020.4429626465,907240.9272193909,-459951.84779167175,-7064475.059509277,-5789028.167724609,-6338665.962219238,7388328.552246094,7070447.92175293,7305221.5576171875,1475242.257118225,-4611965.656280518,-5628171.920776367,-5258730.411529541,3164989.948272705,-2721070.7664489746,3101143.8369750977,-5390726.089477539,-4705612.1826171875
0.18,13424836.158752441,18401044.845581055,7287812.232971191,7614945.411682129,3056861.400604248,21585666.65649414,8273517.608642578,9449432.373046875,7154151.439666748,5822921.276092529,1198612.093925476,-8887948.989868164,-7586232.1853637695,-8661417.007446289,10243834.495544434,13565417.289733887,1379866.9576644897,-158178.6870956421,2053503.7517547607,2907478.5709381104,-4267037.868499756,-18479936.599731445,-6674235.820770264,-12193319.320678711,11591822.624206543,-675335.6456756592,1805549.9792099,-2633605.480194092,-1651433.5870742798,-3222103.8341522217,-6998058.795928955,-7013382.434844971,4888201.2367248535,2521632.9097747803,2779539.5851135254,1334862.232208252,1208574.4142532349,-1142943.3822631836,-7078670.978546143,-4167154.312133789,-2898214.340209961,6677714.824676514,7012290.000915527,4432149.887084961,6714946.746826172,980794.2509651184,85370.23514509201,-4449141.502380371,-3151124.0005493164,-3794335.6037139893,8049172.401428223,7542107.582092285,7694859.504699707,1508201.7183303833,-2147731.5425872803,-3180486.4406585693,-2594330.7876586914,5826022.624969482,-1982474.92313385,3014493.703842163,-2878208.637237549,-2409822.702407837
0.185,12009181.97631836,15788503.646850586,4851076.602935791,6999579.906463623,124721.04281187057,20241779.327392578,6462975.50201416,7573332.786560059,6438696.384429932,3643277.168273926,-1675696.7306137085,-10999279.975891113,-8282269.477844238,-9169637.680053711,8821134.567260742,11481000.900268555,-616940.2599334717,-1488148.808479309,1045859.9328994751,2137207.7465057373,-6270298.480987549,-18538045.88317871,-7006392.002105713,-15172756.19506836,7468602.180480957,-966632.604598999,95946.49076461792,-4101967.8115844727,-2615374.3267059326,-4220094.203948975,-7620926.380157471,-7390093.3265686035,5130806.446075439,3231600.761413574,2985435.724258423,1441489.4580841064,1306362.509727478,-264388.3228302002,-7012040.615081787,-4434339.52331543,-3149380.2070617676,7115817.070007324,8026569.366455078,5522831.916809082,8572749.137878418,3498929.738998413,1157144.1888809204,-4508207.79800415,-3341542.2439575195,-3886456.7279815674,9136428.833007812,8581566.81060791,8679339.408874512,4061964.511871338,-2271770.477294922,-3267691.6122436523,-2731991.2910461426,8414067.268371582,-716613.9483451843,5430420.398712158,-2931978.940963745,-2617320.0607299805
0.19,11618659.973144531,13539263.725280762,2388775.34866333,7270522.117614746,-2684322.8340148926,17837873.458862305,4905136.585235596,5796204.566955566,6178753.37600708,1164181.8284988403,-4427198.41003418,-13764520.645141602,-10205392.837524414,-10821528.434753418,6616555.213928223,9293581.96258545,-3056658.983230591,-2464068.4127807617,-2306859.7316741943,-1023881.5546035767,-9788499.83215332,-21175153.732299805,-8531752.586364746,-17785148.62060547,3410067.081451416,-2755318.6416625977,-2091082.5729370117,-5932992.458343506,-4186115.7417297363,-6074662.208557129,-10243480.682373047,-8960407.257080078,3009095.1919555664,1824715.7335281372,2071513.8912200928,523639.14251327515,1033422.589302063,649291.2769317627,-7705325.126647949,-5643628.120422363,-4525110.244750977,4141835.2127075195,7047881.603240967,4740691.661834717,8530952.453613281,5581361.293792725,2099889.9936676025,-5689292.430877686,-4694824.695587158,-5098094.940185547,8030459.403991699,7644024.37210083,7687389.373779297,6266530.513763428,-3462230.682373047,-4380239.486694336,-4089217.185974121,9100491.523742676,-595972.2995758057,7546938.419342041,-4113602.638244629,-3703007.698059082
0.195,12985459.327697754,14188552.856445312,2969567.7757263184,9085330.00946045,-1387561.4404678345,15491555.213928223,5034573.554992676,5743165.493011475,6691405.773162842,2038248.5389709473,-3108841.65763855,-13067193.984985352,-10777057.647705078,-11391938.209533691,3059954.4048309326,9041742.324829102,-3370677.4711608887,-1646027.684211731,-3281254.291534424,-2026386.2609863281,-10618354.797363281,-22688982.009887695,-9279642.105102539,-20194498.06213379,1609175.5628585815,-4330397.129058838,-2257138.0138397217,-6152867.317199707,-4715538.024902344,-6862102.031707764,-12007439.613342285,-9704409.5993042,-780837.4762535095,-1840465.1880264282,470760.703086853,-730997.8008270264,762820.1246261597,564187.4074935913,-8165996.551513672,-6492722.988128662,-5463587.284088135,-1390071.988105774,3355686.1877441406,1655356.4071655273,6127334.117889404,4187924.385070801,1771532.1779251099,-6615211.963653564,-5700272.083282471,-6043632.984161377,4236669.540405273,4006804.4662475586,3984736.919403076,4900571.823120117,-4405329.704284668,-5294459.819793701,-5147435.665130615,6264447.6890563965,-3305078.7448883057,6181178.569793701,-5098319.530487061,-4530981.063842773
0.2,13746967.315673828,16285776.138305664,5303531.169891357,9922727.584838867,2083502.5310516357,13641807.556152344,4608459.949493408,5306746.482849121,6491546.630859375,5039563.6558532715,435422.50990867615,-10630800.247192383,-10036783.218383789,-10955760.00213623,-95441.32649898529,9525720.596313477,-2326121.8070983887,-447789.66903686523,-1195303.9169311523,-144192.96383857727,-8724831.581115723,-22102207.18383789,-9074389.457702637,-21836688.995361328,2209277.629852295,-4148983.4785461426,-473016.5898799896,-5358684.062957764,-4588399.410247803,-6803917.88482666,-11819693.565368652,-9456380.844116211,-2071757.5550079346,-4213739.395141602,240625.60498714447,-473398.8344669342,867155.4923057556,-488794.59500312805,-8295296.669006348,-6852651.596069336,-5742696.285247803,-4169641.0179138184,585024.4164466858,23630.820214748383,5359930.992126465,1068326.711654663,468507.0216655731,-7020098.2093811035,-6054361.820220947,-6466737.747192383,1528686.5234375,1237845.0632095337,1172956.4666748047,1643033.1468582153,-4822077.27432251,-5798070.907592773,-5522291.660308838,2046042.6807403564,-6819674.968719482,3047307.7297210693,-5579977.035522461,-5010859.01260376
0.205,13178988.456726074,18024679.18395996,7067822.456359863,8764950.7522583,3778217.077255249,12965212.82196045,2418989.658355713,3273548.126220703,5651189.804077148,6423759.937286377,2137408.494949341,-10284340.858459473,-9142765.998840332,-10331831.932067871,-209037.6764535904,9445241.928100586,-2043160.4385375977,-1055823.3261108398,557345.6883430481,1435368.4186935425,-7181432.247161865,-20588678.35998535,-8387742.99621582,-21663448.333740234,3579953.193664551,-2713301.89704895,847754.0612220764,-5337052.822113037,-4811677.932739258,-6693604.946136475,-10416644.096374512,-8765624.046325684,514185.36901474,-2519431.1141967773,2024103.8799285889,1561203.8373947144,1221149.3253707886,-988776.3261795044,-8079953.193664551,-6584129.810333252,-5375020.0271606445,-1365020.2751159668,2284902.0957946777,2712734.6992492676,8861737.251281738,700954.3776512146,37298.206239938736,-6740258.693695068,-5666141.033172607,-6243879.795074463,3334114.5515441895,2857761.1446380615,2789319.5152282715,1146492.838859558,-4489329.3380737305,-5606032.371520996,-5103157.997131348,870470.941066742,-6921571.254730225,2775784.2540740967,-5332339.763641357,-4847214.698791504
0.21,13150663.375854492,19149831.771850586,7740921.974182129,8292820.930480957,3074334.6214294434,14518704.414367676,1369998.2166290283,2436568.021774292,6419048.309326172,5442399.978637695,1157606.3632965088,-12316573.143005371,-8675310.134887695,-9810016.632080078,3151777.2674560547,10340267.181396484,-2096731.9011688232,-2810567.617416382,-93223.78784418106,733274.2810249329,-7660440.921783447,-19427530.28869629,-7610880.374908447,-19158664.70336914,5048899.6505737305,-1281383.5144042969,680458.4860801697,-6292793.273925781,-5397037.506103516,-6742245.197296143,-9375029.563903809,-8048303.604125977,3739243.984222412,1624383.6879730225,4191607.4752807617,3544575.4528045654,1452179.6703338623,-223858.47568511963,-7640487.194061279,-5691287.040710449,-4491873.741149902,3609844.446182251,6911461.83013916,7318390.846252441,13576601.028442383,3800343.7519073486,1170084.1188430786,-5841671.466827393,-4692895.889282227,-5414220.809936523,7926947.116851807,7371036.052703857,7311661.243438721,4293588.638305664,-3472177.743911743,-4654676.43737793,-4112120.6283569336,3984442.710876465,-2802390.3369903564,6100358.963012695,-4374417.781829834,-3884706.497192383
0.215,14624612.808227539,19534578.323364258,7632143.497467041,10804749.488830566,2039328.8135528564,18176784.51538086,4337894.439697266,5549319.744110107,9672858.238220215,4813514.232635498,-301799.14832115173,-14060835.838317871,-8976662.635803223,-9862533.569335938,7673064.231872559,14098714.828491211,-288320.8692073822,-2808260.917663574,-1472917.914390564,-671178.0428886414,-9053796.768188477,-19505203.247070312,-7586697.101593018,-14884949.684143066,7712561.130523682,20891.53230190277,713562.0713233948,-6901965.141296387,-5828542.232513428,-7120378.494262695,-9962915.420532227,-8065026.28326416,5148801.326751709,4640014.6484375,5277546.8826293945,4003811.3594055176,1454662.2037887573,249339.90836143494,-7789112.091064453,-5350246.429443359,-4215629.577636719,6194464.683532715,9832419.395446777,9210657.119750977,14586579.322814941,6155582.904815674,1962106.5855026245,-5532037.734985352,-4366083.62197876,-5083448.41003418,10681700.706481934,10215511.322021484,10149308.204650879,6802577.018737793,-3055729.1507720947,-4193200.11138916,-3822613.7161254883,7849805.83190918,1341002.7027130127,8565124.51171875,-3914430.856704712,-3339614.8681640625
0.22,15636044.5022583,18182504.653930664,6251381.397247314,13978244.78149414,1351792.573928833,21583240.509033203,8880630.493164062,10115014.07623291,12507123.947143555,5826782.703399658,-1089695.692062378,-14288414.001464844,-10229553.22265625,-11004241.943359375,10465339.660644531,18772371.292114258,2949175.3578186035,-458256.3042640686,-1696816.325187683,-978956.2821388245,-9914680.480957031,-20896673.20251465,-8888545.036315918,-10779623.031616211,11721998.21472168,1444863.7962341309,2140584.4688415527,-6690391.540527344,-5974609.851837158,-7894437.789916992,-11663029.670715332,-9294802.66571045,6401460.17074585,5518728.733062744,5659397.602081299,3433725.8338928223,1391479.0153503418,-1078758.8357925415,-8940264.701843262,-6583720.2072143555,-5487125.873565674,6416517.734527588,9410470.008850098,7601272.106170654,11593079.566955566,4760824.680328369,649215.1618003845,-6815624.237060547,-5657881.259918213,-6228500.843048096,10106544.494628906,9772932.052612305,9692608.833312988,5495001.316070557,-4305331.707000732,-5393124.580383301,-5166266.918182373,9085403.442382812,1598854.3033599854,7009090.423583984,-5042371.2730407715,-4428616.046905518
0.225,14136604.309082031,15075647.354125977,3571349.3824005127,13599829.67376709,-78698.60529899597,22410108.56628418,9822858.810424805,10985104.56085205,11466043.472290039,6211137.294769287,-2116980.3142547607,-14115184.783935547,-11281396.865844727,-12104569.435119629,10603268.62335205,20222026.824951172,4259700.775146484,1106840.1336669922,-1648867.0110702515,-1040896.6541290283,-10172713.279724121,-21959821.701049805,-10069084.167480469,-9099973.678588867,14666289.329528809,2218866.1098480225,3418409.824371338,-6793275.356292725,-5811330.318450928,-8141075.134277344,-12010325.43182373,-10301530.838012695,9505326.271057129,6185918.807983398,6328717.231750488,3073405.7426452637,1334285.3784561157,-2934704.7805786133,-9656385.42175293,-7775773.048400879,-6726191.520690918,7183586.120605469,8556494.71282959,6104922.771453857,8919917.106628418,2101362.705230713,-1382223.2484817505,-8062775.611877441,-6920934.677124023,-7343853.950500488,9188813.209533691,8910109.519958496,8837325.096130371,2838428.258895874,-5568974.494934082,-6717238.903045654,-6434096.336364746,8899098.39630127,-583403.4085273743,4142736.9117736816,-6247228.145599365,-5659385.204315186
0.23,11423786.163330078,12677613.258361816,1677402.377128601,9794717.788696289,-1985463.8576507568,21456953.048706055,6738974.094390869,7789362.907409668,7583606.243133545,4200773.239135742,-3552513.1225585938,-14210349.082946777,-10260766.983032227,-10992029.190063477,9890230.178833008,18056482.315063477,2520976.3050079346,-429331.86888694763,-2700692.4152374268,-2174516.201019287,-10249616.622924805,-20668819.427490234,-8783470.153808594,-9973362.922668457,14365465.16418457,1678551.0778427124,2889871.835708618,-8036635.398864746,-5125781.536102295,-6758146.286010742,-9377863.883972168,-8874016.761779785,12880328.178405762,8098881.721496582,7340277.194976807,3254925.25100708,1195929.8849105835,-2866898.536682129,-8172616.004943848,-6123196.125030518,-5187950.611114502,9344295.501708984,10124948.501586914,7565926.074981689,9614506.721496582,2209567.3084259033,-1419003.2482147217,-6465132.713317871,-5366139.4119262695,-5752959.728240967,10741842.269897461,10433836.936950684,10384469.032287598,2973520.7557678223,-4009148.597717285,-5294229.984283447,-4834343.910217285,10388287.544250488,-721079.4687271118,4318243.980407715,-4743007.183074951,-4169872.283935547
0.235,10583172.798156738,13329200.744628906,2584622.859954834,7137483.596801758,-2605049.8485565186,21347414.016723633,4738874.435424805,5694462.776184082,5661149.024963379,1848319.172859192,-4078479.290008545,-14119487.762451172,-7790635.108947754,-8203469.276428223,10523308.753967285,16436164.855957031,1078410.1486206055,-2812798.261642456,-3759831.190109253,-3301032.543182373,-10248428.344726562,-17936185.836791992,-5789759.635925293,-11155627.250671387,11891630.172729492,926052.3915290833,1771490.9315109253,-9536911.964416504,-4268096.446990967,-4722492.218017578,-5981342.792510986,-5923179.149627686,13399484.634399414,10029969.215393066,8026859.283447266,3520154.4761657715,973499.4173049927,-1111246.3474273682,-5602525.71105957,-2478543.758392334,-1683616.5189743042,10750087.73803711,12681076.049804688,10327138.900756836,11963567.733764648,4496425.151824951,340974.0924835205,-2838711.977005005,-1814305.4246902466,-2255357.265472412,13294018.745422363,12929022.789001465,12868205.070495605,5325057.029724121,-488090.30652046204,-1816859.245300293,-1245413.7802124023,12575899.124145508,2022525.7873535156,6905561.923980713,-1249063.9686584473,-675130.2480697632
0.24,11634619.71282959,15250266.075134277,4430145.263671875,7836212.635040283,-2120936.155319214,21683702.46887207,6584376.335144043,7511569.976806641,7878404.140472412,1864603.2810211182,-3628119.945526123,-14332657.814025879,-7651183.128356934,-7880023.956298828,11437066.078186035,17588230.13305664,2608445.167541504,-2389804.3632507324,-3024456.50100708,-2651127.815246582,-10424520.492553711,-17674152.374267578,-5466390.609741211,-11646203.04107666,9761452.674865723,1332135.3197097778,2172687.768936157,-9989561.080932617,-4322169.303894043,-4720388.412475586,-6106385.707855225,-5844824.314117432,10462873.458862305,9444957.733154297,7739531.04019165,3443209.409713745,804558.3963394165,-499109.3575954437,-5370607.376098633,-1849444.6277618408,-1149392.3664093018,9078020.095825195,12152294.158935547,10392973.899841309,12344258.308410645,4600933.55178833,899012.02917099,-2150078.058242798,-1176810.7414245605,-1699176.0730743408,12786478.042602539,12390368.461608887,12252188.682556152,5424134.254455566,39.759128412697464,-1167948.9612579346,-638204.8726081848,10620954.513549805,3238548.517227173,7192417.144775391,-651219.9640274048,-112914.84534740448
0.245,10652100.563049316,13732573.509216309,2862841.6061401367,8133772.850036621,-3060113.9068603516,18627401.35192871,8058730.125427246,9016632.080078125,10528732.299804688,3148510.217666626,-4140547.275543213,-15993994.71282959,-11735175.132751465,-12208250.045776367,8819931.983947754,18020158.767700195,4518296.241760254,380814.43309783936,-1321105.718612671,-1039480.6861877441,-10865267.753601074,-21432462.692260742,-9894891.738891602,-13437715.530395508,8225213.050842285,1958148.0026245117,3341488.5997772217,-9557172.775268555,-5540684.700012207,-7298529.148101807,-10281094.551086426,-10534506.797790527,6300634.860992432,5551777.362823486,6034716.1293029785,2726043.939590454,732491.7912483215,-2167829.990386963,-8300919.532775879,-6594969.272613525,-5940827.369689941,4218866.348266602,7170886.516571045,6349777.698516846,9696774.48272705,879669.6662902832,-922235.9657287598,-6792809.009552002,-5781231.880187988,-6402516.841888428,7846457.958221436,7463691.234588623,7237108.7074279785,1580152.6308059692,-4815877.437591553,-5725501.06048584,-5340913.29574585,3229533.6723327637,-482491.22500419617,3337849.1401672363,-5371133.804321289,-4862820.148468018
0.25,5037923.336029053,7493324.279785156,-2593816.041946411,3706454.5154571533,-5834966.659545898,11105147.361755371,4197985.1722717285,5153909.683227539,8938652.992248535,2621320.962905884,-6117887.496948242,-17728187.561035156,-15659216.88079834,-16539873.123168945,2092310.1902008057,14120244.979858398,2790410.7570648193,1521852.3740768433,-957117.49792099,-742438.8527870178,-10209308.624267578,-24579029.083251953,-14204378.128051758,-17501060.485839844,5806968.212127686,711920.0229644775,2665206.6707611084,-9476301.193237305,-6346324.920654297,-8971475.601196289,-13113767.623901367,-14891313.552856445,3394500.970840454,786063.8499259949,3180304.0504455566,1252650.0225067139,619840.681552887,-3716135.025024414,-10415990.829467773,-11433724.403381348,-10773597.717285156,-1192194.5810317993,1434421.6585159302,1188521.8620300293,6138437.271118164,-3065561.294555664,-2554028.7494659424,-11602950.096130371,-10486969.947814941,-11194108.963012695,2137101.173400879,1778571.2480545044,1545263.7672424316,-2516823.0533599854,-9605447.769165039,-10392730.712890625,-10130845.069885254,-3201801.538467407,-6007228.374481201,-889031.5294265747,-10285544.395446777,-9702661.514282227
0.255,-2485812.187194824,1186806.4403533936,-6610528.469085693,-3948437.213897705,-7088696.9566345215,4207085.132598877,-2973058.2237243652,-2115422.248840332,3743818.759918213,266707.56936073303,-7061774.730682373,-15932273.864746094,-12881620.407104492,-13848188.400268555,-3107805.013656616,8620326.042175293,-1504754.662513733,-753863.9903068542,-1940995.216369629,-1762237.787246704,-6590970.516204834,-20854598.999023438,-11418938.636779785,-20320896.14868164,2873462.677001953,-2102659.7023010254,12579.950504004955,-10198403.358459473,-5146954.536437988,-6160842.418670654,-9081317.901611328,-11938333.511352539,2919837.9516601562,-1130424.6187210083,734578.7286758423,-379158.3478450775,380687.1175765991,-2751116.0373687744,-7728243.350982666,-9018024.444580078,-8216335.296630859,-3175073.6236572266,-63437.58851289749,-864244.0438270569,4166450.5004882812,-3233426.094055176,-1520295.50075531,-9314012.52746582,-8140636.444091797,-8801613.807678223,665797.1143722534,290809.0353012085,132068.27640533447,-2763911.9625091553,-7146170.616149902,-8029404.640197754,-7744541.168212891,-1185189.2471313477,-6899121.284484863,-1209433.913230896,-8058481.216430664,-7344433.784484863
0.26,-6974148.750305176,-315838.42635154724,-4668792.724609375,-9433687.210083008,-4693974.018096924,3281486.749649048,-6987609.386444092,-6218532.562255859,-272622.0190525055,-1073167.6816940308,-5332748.4130859375,-10038700.103759766,-3390271.6636657715,-4119973.1826782227,-1275761.365890503,7371833.324432373,-3510382.890701294,-3863139.867782593,-2082878.1127929688,-1924730.5393218994,-956874.1321563721,-10617264.747619629,-1757557.1537017822,-18064193.725585938,1744319.200515747,-3787189.00680542,-1771687.1500015259,-11019663.81072998,-2807235.0025177,-284534.752368927,216461.3902568817,-2149658.9183807373,4570879.4593811035,890832.781791687,391652.8522968292,-1054673.671722412,151950.07622241974,-365665.85302352905,-1931466.817855835,191656.32128715515,1318757.8916549683,-6359.810475260019,3262486.9346618652,1110575.1991271973,4416915.416717529,-246349.7817516327,930649.6381759644,-316558.00342559814,800250.1726150513,393744.021654129,4081462.860107422,3656826.0192871094,3549737.6918792725,228630.82587718964,1928612.1129989624,907171.9646453857,1372627.2583007812,8115305.9005737305,-1580925.2262115479,1845477.819442749,1035825.9677886963,1736211.2998962402
0.265,-7454864.978790283,1469760.775566101,240017.56310462952,-10564368.24798584,-2043213.129043579,6602830.410003662,-5925459.861755371,-5058293.81942749,-915334.6419334412,-893178.2245635986,-3637521.982192993,-5165164.947509766,4924983.024597168,4314637.184143066,4770289.897918701,10740608.215332031,-1939113.4977340698,-5087905.8837890625,-1027379.1551589966,-882089.4956588745,2248984.5752716064,-1840684.413909912,6434872.627258301,-12995706.558227539,2883684.8735809326,-3262863.6360168457,-1213031.8880081177,-11569212.913513184,-2017308.4735870361,3219310.998916626,6953668.117523193,5945514.20211792,6596333.5037231445,3832916.259765625,1771307.5876235962,-456585.3774547577,130821.85387611389,661180.0193786621,1238038.5398864746,7610961.9140625,9090705.871582031,5035858.631134033,6980493.068695068,4007813.9305114746,5903792.381286621,2228217.363357544,1879458.0698013306,6972862.720489502,8004579.544067383,7930041.313171387,7949629.306793213,7512689.113616943,7381154.0603637695,2746669.5308685303,9104305.267333984,8095758.438110352,8737537.384033203,15425029.754638672,4536896.705627441,4490047.931671143,8576898.574829102,9037393.569946289
0.27,-7748274.803161621,561181.0684204102,594208.4789276123,-10365330.696105957,-4309351.444244385,7677695.274353027,-4421516.418457031,-3301888.4658813477,-1098473.6680984497,-2381082.057952881,-6035656.929016113,-6982339.859008789,4890167.236328125,4141277.313232422,6569717.884063721,12741206.169128418,-929002.6426315308,-5383401.393890381,-1448274.1355895996,-1279461.2646102905,-502381.02674484253,-2089159.4886779785,6107511.9972229,-11296382.904052734,3649094.1047668457,-2782173.3951568604,-464896.7385292053,-12531564.712524414,-4150705.8143615723,979544.1031455994,5411424.160003662,5462586.879730225,6885759.353637695,4041993.6180114746,2547441.4825439453,381388.99207115173,303673.6249923706,-172511.9650363922,-1062441.8258666992,6822341.442108154,8395176.887512207,6798937.797546387,7190664.291381836,4641565.322875977,7439552.783966064,2561344.623565674,933015.5253410339,6225459.098815918,7279781.341552734,7367790.222167969,8260895.729064941,7887422.561645508,7739018.440246582,3100753.7841796875,8269313.812255859,7359344.005584717,7973515.033721924,14399925.231933594,5914555.549621582,4903153.896331787,8082000.732421875,8285778.999328613
0.275,-11160192.489624023,-5587110.0425720215,-6524812.698364258,-12212902.069091797,-11696098.327636719,3937607.2883605957,-6548865.795135498,-5288565.158843994,-4063420.7725524902,-7380433.559417725,-12527908.325195312,-15073016.166687012,-2318062.0670318604,-3055940.628051758,1061745.8820343018,9319213.8671875,-3739078.5217285156,-7403785.228729248,-5150912.284851074,-4857324.600219727,-7534031.867980957,-10974221.229553223,-946143.5079574585,-14416742.324829102,1948267.2214508057,-4573779.582977295,-2021546.1254119873,-14391526.222229004,-7763429.164886475,-4833143.23425293,-2265883.445739746,-1467345.8337783813,5141386.50894165,1671259.6416473389,1395364.2845153809,398233.6223125458,441433.3999156952,-871315.5388832092,-5802684.783935547,724860.5489730835,1991044.1637039185,4774665.355682373,5215067.386627197,3462523.4603881836,8537936.210632324,2480570.7931518555,288768.5298919678,252008.16988945007,1431331.6345214844,1412431.1208724976,6261552.333831787,5972968.578338623,5894216.537475586,2956206.798553467,2472574.472427368,1519641.637802124,1897900.104522705,8898860.931396484,3553920.030593872,4685309.410095215,2227100.372314453,2434864.044189453
0.28,-17089157.104492188,-13524495.124816895,-16478303.909301758,-16236757.278442383,-19489736.557006836,-1385021.5673446655,-11064450.26397705,-9936218.26171875,-8897429.466247559,-13031977.653503418,-19233818.05419922,-23652574.53918457,-9618595.123291016,-9906391.143798828,-6099341.39251709,3143341.302871704,-8482257.843017578,-11501572.608947754,-10087968.826293945,-9544494.62890625,-13639504.432678223,-21173677.444458008,-7399370.6703186035,-17495998.38256836,-1191906.213760376,-7823176.860809326,-5252183.91418457,-16278652.19116211,-10308971.405029297,-9381870.26977539,-9132159.233093262,-7443500.995635986,3129049.53956604,-131247.77376651764,-519194.7817802429,-263475.2690792084,360641.6881084442,-1871.2658202275634,-8179039.95513916,-3228402.853012085,-2503476.858139038,3606024.980545044,5089247.226715088,3210934.87739563,9287437.438964844,3750562.6678466797,1400905.0130844116,-3642226.457595825,-2389675.1403808594,-2647581.5773010254,6060765.743255615,5799159.049987793,5805795.669555664,4077077.3887634277,-1078752.7561187744,-2246533.6322784424,-2100812.1967315674,7072639.942169189,2769729.3758392334,5661241.054534912,-1660991.1918640137,-1189226.2697219849
0.285,-23143789.291381836,-18943296.432495117,-22936174.392700195,-20793893.814086914,-23749967.575073242,-5675645.351409912,-14792303.085327148,-13895029.067993164,-12244727.13470459,-15278985.977172852,-22979436.87438965,-27677972.7935791,-11784577.369689941,-11563701.629638672,-9487260.818481445,-1176719.6655273438,-11691614.151000977,-15361886.024475098,-12643466.94946289,-11842184.066772461,-15266986.846923828,-25369457.244873047,-8589584.350585938,-17557209.014892578,-3926153.1829833984,-10331800.46081543,-7698018.0740356445,-16819688.79699707,-10408896.446228027,-9845736.503601074,-10453977.584838867,-8141619.682312012,2001836.2998962402,-215272.50111103058,-1690333.366394043,-924645.6623077393,135211.2591266632,1816160.5596542358,-6569547.653198242,-1935432.0764541626,-1626833.438873291,5715063.095092773,7326467.990875244,4485335.826873779,9681280.136108398,5556034.088134766,3493411.3025665283,-2374113.5597229004,-1196872.9496002197,-1622146.3680267334,8290858.268737793,7987813.949584961,7982123.851776123,5768116.9509887695,367243.28994750977,-935272.3956108093,-844444.8113441467,10734432.220458984,5490845.203399658,7258185.863494873,-403417.3786640167,310694.0984725952
0.29,-27914735.794067383,-20905031.204223633,-23603464.126586914,-24566488.26599121,-23911228.17993164,-10318728.44696045,-17007270.81298828,-16174554.824829102,-12587982.177734375,-13689611.434936523,-23155515.670776367,-26088268.280029297,-8757928.848266602,-8564804.077148438,-10988905.906677246,-3030935.049057007,-12954087.257385254,-16846092.224121094,-11596015.930175781,-10715770.721435547,-12639101.028442383,-21571683.883666992,-5264128.684997559,-18313503.26538086,-6408785.820007324,-11609889.98413086,-8345157.623291016,-15825668.334960938,-8365796.089172363,-6750792.026519775,-6751498.699188232,-4757468.223571777,510181.12897872925,-1107373.4760284424,-2494059.8011016846,-1581926.703453064,17897.702753543854,3278327.703475952,-2816749.095916748,1752366.6620254517,2061398.0293273926,6950788.497924805,7955711.364746094,4675747.394561768,9267608.642578125,5856926.918029785,5091975.688934326,1316053.6289215088,2360339.1647338867,1919661.283493042,8972571.37298584,8613977.432250977,8543635.368347168,6115473.747253418,3911797.285079956,2746336.4601135254,2911079.6451568604,14256793.975830078,7848993.77822876,7610818.386077881,3259512.186050415,3971641.5405273438
0.295,-30758634.567260742,-20392904.28161621,-19850215.911865234,-26461456.298828125,-20712625.50354004,-16446743.01147461,-18527168.27392578,-17589895.248413086,-11205164.909362793,-10973513.60321045,-20089832.305908203,-20420595.169067383,-3319297.0752716064,-3702365.8752441406,-15104036.331176758,-4715860.843658447,-13843618.392944336,-15976936.340332031,-8645600.318908691,-7890467.166900635,-7783326.625823975,-13374936.1038208,-437667.6082611084,-23917985.916137695,-9576658.248901367,-12711543.083190918,-8044876.0986328125,-14439095.497131348,-5533111.572265625,-2395068.407058716,-1579221.9638824463,-442958.801984787,-3064802.408218384,-4882423.877716064,-4096904.754638672,-2619000.6732940674,156100.91388225555,3713185.0719451904,478522.09210395813,4181971.0731506348,4906596.1837768555,2494357.8243255615,4175201.892852783,1755622.8637695312,7596824.169158936,4145615.1008605957,5410723.686218262,3823689.9375915527,4819546.699523926,4463522.434234619,5193571.090698242,4825533.390045166,4785459.995269775,4545999.050140381,6117233.753204346,5211092.472076416,5430372.714996338,13124271.392822266,5908893.10836792,6072341.442108154,5636285.305023193,6181316.85256958
0.3,-31069896.697998047,-17974287.033081055,-14106897.354125977,-25954742.431640625,-15439310.073852539,-21649932.861328125,-19301548.00415039,-18289766.311645508,-10041537.284851074,-9309975.624084473,-15001882.553100586,-13571727.752685547,1384085.6552124023,435561.2099170685,-21189828.872680664,-7022863.388061523,-14690993.309020996,-14617341.995239258,-6094593.048095703,-5466563.701629639,-2945549.249649048,-6731638.9083862305,3225481.7485809326,-31697961.807250977,-12699073.791503906,-14058927.536010742,-7701366.901397705,-13741376.876831055,-3661433.219909668,708020.4486846924,1713186.502456665,2470508.337020874,-8149065.017700195,-9674658.77532959,-6205253.124237061,-3754239.320755005,417627.9008388519,3026399.1355895996,1668654.9186706543,4338803.768157959,5566930.294036865,-5594992.160797119,-1494806.5280914307,-2582227.945327759,5148890.018463135,2016663.5513305664,4362021.923065186,4020462.989807129,5048409.938812256,4799219.131469727,-552324.2950439453,-849291.980266571,-771157.3839187622,2437636.8522644043,6117242.336273193,5300822.2579956055,5518216.609954834,9599143.981933594,1321391.1056518555,3940182.4474334717,5618487.358093262,6070227.62298584
0.305,-29787672.04284668,-15092635.154724121,-9443341.255187988,-24812225.341796875,-11568474.769592285,-23586856.842041016,-19436103.82080078,-18440795.8984375,-10335051.536560059,-9248736.381530762,-11571948.051452637,-9735638.618469238,2818575.143814087,1743491.1727905273,-24804039.001464844,-8855819.702148438,-15037649.154663086,-15026350.021362305,-5377592.086791992,-4716993.33190918,-645357.9068183899,-5512657.642364502,3907480.001449585,-35093227.38647461,-14117440.223693848,-15002749.4430542,-7578562.259674072,-13810332.298278809,-3900486.2308502197,968853.5332679749,1734030.9619903564,2745369.1959381104,-12087438.583374023,-11917406.08215332,-7295991.897583008,-4172937.3931884766,539680.9577941895,1740933.6566925049,529540.4195785522,3016438.0073547363,4438245.77331543,-10444380.760192871,-4203567.5048828125,-4718835.830688477,3582697.629928589,1497291.3265228271,2708120.584487915,2587410.2115631104,3608421.0872650146,3450774.669647217,-3309053.1826019287,-3456669.330596924,-3361335.9928131104,1746623.8737106323,4704057.693481445,3752836.4658355713,3986792.56439209,8734947.204589844,-686171.5912818909,3200929.1648864746,4081182.0030212402,4614203.929901123
0.31,-29812725.067138672,-14761778.831481934,-8908344.268798828,-26085971.83227539,-12961833.000183105,-23697912.216186523,-20435047.149658203,-19407270.431518555,-12495357.513427734,-10943924.903869629,-13601910.591125488,-11750958.442687988,804053.4257888794,-29280.28255701065,-24321893.6920166,-9661413.192749023,-15534251.21307373,-18092441.55883789,-6905220.985412598,-6164170.265197754,-2300848.4840393066,-8562728.881835938,1836216.688156128,-31993608.474731445,-13547991.752624512,-14995804.786682129,-7817505.836486816,-14184935.569763184,-5683973.789215088,-1044352.8890609741,-387886.5838050842,950016.0217285156,-12728229.522705078,-10565746.307373047,-6576254.367828369,-3627016.544342041,444544.4941520691,1235448.5988616943,-1429874.8970031738,1653781.533241272,2871641.6358947754,-8866817.474365234,-2318487.6441955566,-3079294.6815490723,4507026.672363281,3320730.209350586,2166097.640991211,1051036.2386703491,1983224.5111465454,1906538.6056900024,-1381460.5474472046,-1347638.8454437256,-1421387.9108428955,3421231.269836426,3333282.709121704,2228270.0538635254,2535925.3883361816,11782815.933227539,2250546.455383301,4874840.73638916,2690053.2245635986,3367474.7943878174
0.315,-32183963.775634766,-17618560.791015625,-12078789.710998535,-29488307.95288086,-18297832.489013672,-24033512.115478516,-22582466.12548828,-21412811.279296875,-15365630.149841309,-13769244.194030762,-19441541.67175293,-16935802.459716797,-1179071.545600891,-1678877.1152496338,-21679790.496826172,-9480220.794677734,-16612298.965454102,-21971658.70666504,-9580357.551574707,-8906304.359436035,-5574891.567230225,-10952811.241149902,348632.8125,-26074258.80432129,-11856089.59197998,-13903652.19116211,-8233707.427978516,-14602384.567260742,-6994028.091430664,-2623320.5795288086,-1604464.054107666,138152.1224975586,-9873165.130615234,-7359460.830688477,-4572792.053222656,-2708656.5494537354,319882.0352554321,2635778.9039611816,-1694536.566734314,2271254.777908325,3202515.6021118164,-3933657.169342041,1723780.3936004639,756471.9915390015,7629251.480102539,6463610.1722717285,3881925.344467163,1634976.2678146362,2488651.2756347656,2492234.706878662,2706621.1700439453,2887913.465499878,2633997.917175293,6687741.279602051,4060803.8902282715,2938542.366027832,3343876.838684082,15838687.896728516,7282460.2127075195,8147218.704223633,3516907.215118408,4258845.329284668
0.32,-32708065.032958984,-18768156.051635742,-13623783.111572266,-29874849.319458008,-20520708.084106445,-22633619.30847168,-22568317.413330078,-21307516.09802246,-15968491.554260254,-15127774.238586426,-21967660.903930664,-18388429.641723633,976961.4338874817,707625.6275177002,-17616369.247436523,-7273606.777191162,-16317680.358886719,-23133691.787719727,-10782866.477966309,-10271397.590637207,-5497025.489807129,-9055172.92022705,2967536.211013794,-20634574.89013672,-9211136.817932129,-11578680.992126465,-7926496.505737305,-15056948.6618042,-6410001.754760742,-1453259.9449157715,411379.27770614624,3117373.466491699,-4774472.236633301,-3918709.2781066895,-2090348.482131958,-1982012.7487182617,365745.27621269226,5051362.991333008,760512.8288269043,5896847.724914551,6815577.030181885,377324.640750885,5082384.5863342285,4270252.704620361,10594447.135925293,8947439.193725586,6569209.575653076,5393227.577209473,6283996.105194092,6326376.438140869,6020253.658294678,6273200.988769531,6031418.323516846,9533291.816711426,7796938.896179199,6742966.651916504,7244882.106781006,18381183.624267578,10295003.890991211,10893226.623535156,7324929.237365723,8038569.450378418
0.325,-25878993.98803711,-12514574.05090332,-8561491.012573242,-23131620.407104492,-14927569.389343262,-16076940.536499023,-16985874.17602539,-15833559.036254883,-12070086.479187012,-12386558.532714844,-16815681.45751953,-12784844.398498535,6661734.104156494,6365669.727325439,-10888576.50756836,-1830410.5997085571,-12362781.524658203,-19906696.319580078,-8575614.929199219,-8093278.884887695,-255895.733833313,-4309037.685394287,8533936.500549316,-15248101.234436035,-5460377.216339111,-8373491.287231445,-6296831.6078186035,-15539008.140563965,-4690287.5900268555,1719758.9874267578,4497150.897979736,8315954.208374023,652614.2358779907,-661895.3347206116,303324.9080181122,-1425275.9218215942,555108.7856292725,6044069.766998291,3885612.2493743896,10260051.727294922,11437277.793884277,3265455.484390259,6971679.210662842,6138834.9533081055,11337392.807006836,9337676.048278809,7497732.639312744,9825292.587280273,10880722.045898438,10835882.186889648,7840192.794799805,8067762.37487793,7988001.346588135,10238698.959350586,12062336.921691895,11069212.913513184,11660007.47680664,19399276.733398438,10136398.315429688,11425140.380859375,11570055.961608887,12247325.897216797
0.33,-13002381.324768066,-566018.5813903809,1039287.3287200928,-12611950.874328613,-5883200.168609619,-5978515.148162842,-7954855.918884277,-7011785.507202148,-5506940.3648376465,-6706110.954284668,-8533737.182617188,-5032930.850982666,10442713.737487793,9794878.005981445,-2691019.058227539,5427724.838256836,-6174204.8263549805,-14736296.653747559,-4265775.680541992,-3653024.911880493,5725361.8240356445,-1260336.16065979,11656728.744506836,-9456145.286560059,-2055053.7109375,-5791853.427886963,-4293833.7326049805,-15970118.522644043,-3809634.4470977783,3893191.09916687,6827266.693115234,10721476.554870605,4283324.241638184,1776236.5341186523,1884528.9945602417,-892262.2203826904,715370.237827301,4430093.765258789,4638531.20803833,11292012.214660645,12708819.389343262,5275244.71282959,7707178.592681885,6404277.801513672,10306483.268737793,7821318.14956665,5708871.364593506,10673927.307128906,11959414.4821167,11685145.378112793,8613186.836242676,8692992.210388184,8735186.576843262,8770849.227905273,12803789.138793945,11864033.699035645,12503333.09173584,19389045.71533203,8272621.154785156,9913835.525512695,12263725.280761719,12958632.469177246
0.335,-2969992.8760528564,8451450.34790039,7899986.743927002,-6413315.296173096,-1680323.2431411743,869594.156742096,-2033503.2939910889,-1178386.2113952637,-1144422.8887557983,-2638582.944869995,-5055145.263671875,-2245221.3764190674,8870455.741882324,7778514.862060547,2061119.0795898438,10671589.851379395,-2192874.6700286865,-11796907.424926758,-1362363.2192611694,-705721.4379310608,7017541.885375977,-1988846.3020324707,9486956.596374512,-6340871.810913086,-1473955.512046814,-5360067.367553711,-3541393.518447876,-16224609.375,-4548097.610473633,3530735.2542877197,5469341.75491333,8207732.200622559,4535303.592681885,2079938.1732940674,1927879.3334960938,-661179.8405647278,762498.0807304382,1768789.291381836,2747954.1301727295,8175139.427185059,9651159.286499023,5483393.19229126,7160739.421844482,5562685.966491699,9465959.548950195,5771841.526031494,3126526.8325805664,7244803.905487061,8736709.594726562,8236220.359802246,8191554.069519043,8013202.667236328,8086778.64074707,6541489.124298096,9480254.173278809,8585443.496704102,9220306.396484375,17810852.05078125,6029653.072357178,7881260.871887207,8911312.103271484,9662717.819213867
0.34,-2312738.4185791016,9572686.195373535,9117025.375366211,-7785609.722137451,-3400229.6924591064,-31239.669770002365,-2656711.3399505615,-1722675.2042770386,-1433418.0355072021,-2547353.982925415,-7038624.286651611,-4195083.141326904,5491964.817047119,4252310.276031494,18564.969301223755,11473039.627075195,-2575723.648071289,-12441368.103027344,-1338322.1626281738,-873576.283454895,4567832.469940186,-3485443.353652954,5979325.771331787,-9209130.28717041,-4164548.397064209,-6767146.110534668,-4236108.303070068,-16066780.090332031,-5502443.790435791,2551899.9099731445,3255130.2909851074,4905139.446258545,1341131.2103271484,-205909.5799922943,533596.932888031,-1182383.1796646118,750642.0016288757,486557.7518939972,1274315.1187896729,5097432.613372803,6583239.0785217285,2805290.460586548,5122438.907623291,3985574.960708618,9362280.84564209,4278042.316436768,2081217.7658081055,4011223.316192627,5587960.243225098,5073036.670684814,6213591.575622559,5778162.002563477,5899927.139282227,4840888.500213623,6431601.047515869,5502703.666687012,6162374.973297119,14631905.555725098,3926047.3251342773,6449824.333190918,5836734.771728516,6619307.041168213
0.345,-7109521.389007568,7882058.620452881,10128340.721130371,-11338116.645812988,-3504696.846008301,-5831770.420074463,-6232349.395751953,-5230150.22277832,-3488393.545150757,-3392454.8625946045,-7097457.408905029,-3693272.352218628,6559656.143188477,5492004.871368408,-6286944.86618042,9121556.282043457,-4788412.094116211,-14124485.969543457,-1782410.5024337769,-1572464.7045135498,4625174.045562744,-1366788.0296707153,7062402.248382568,-16072782.516479492,-7668281.078338623,-8121536.2548828125,-4920001.983642578,-15260095.596313477,-4692428.5888671875,3859340.4293060303,4585043.907165527,6220932.960510254,-3616839.88571167,-3717210.7696533203,-1251348.2570648193,-2376281.0230255127,741558.3729743958,1229231.7152023315,2929561.6149902344,6306751.728057861,7903822.422027588,-1508548.617362976,2370304.1076660156,2032847.8813171387,8651956.558227539,3418636.0836029053,2812475.6813049316,5311079.025268555,6796307.563781738,6519393.444061279,3411623.477935791,2866721.3916778564,3082886.6958618164,3913233.757019043,7706952.5718688965,6660424.23248291,7460779.666900635,11802717.208862305,2788244.4858551025,5612589.359283447,7094000.816345215,7836888.313293457
0.35,-8800930.976867676,10628479.957580566,16079685.21118164,-10530771.255493164,2986878.3950805664,-10364003.18145752,-7352549.5529174805,-6430404.186248779,-3076284.170150757,-1091769.3376541138,-696140.3489112854,2884374.6185302734,12698219.299316406,11709308.624267578,-11401505.470275879,6531375.885009766,-5380199.909210205,-13876231.19354248,174869.8055744171,319160.521030426,9994129.180908203,4581867.694854736,12835197.448730469,-20571428.298950195,-9529677.391052246,-8184177.398681641,-4418972.492218018,-13893412.590026855,-1946260.3330612183,7443569.183349609,9642026.901245117,11824532.508850098,-7709237.575531006,-6372329.235076904,-2319719.3145751953,-3424019.8135375977,740750.1935958862,2685935.2588653564,6694062.232971191,10767289.161682129,12509816.16973877,-4508378.982543945,535835.3853225708,472681.3733577728,6907801.151275635,3006987.3332977295,3955756.187438965,9942678.451538086,11229703.903198242,11242569.923400879,1562332.7493667603,1074116.9452667236,1318105.936050415,3585805.892944336,12041370.391845703,10941429.138183594,11919515.609741211,11775144.577026367,3642274.856567383,5162242.412567139,11444010.734558105,12105844.497680664
0.355,-6426836.013793945,15800567.626953125,22489727.020263672,-6316984.176635742,10247789.38293457,-11268175.12512207,-5724726.20010376,-4922664.165496826,-328873.872756958,3275542.0207977295,6417860.507965088,9456063.270568848,17932872.772216797,16744945.526123047,-12934174.537658691,5007613.182067871,-4245625.019073486,-11613931.655883789,3667813.539505005,3954798.2215881348,15690138.816833496,9655433.654785156,17546972.274780273,-19394767.76123047,-9808216.094970703,-7512498.85559082,-3129776.7162323,-12474995.613098145,621914.9231910706,10126211.166381836,13689916.610717773,16233610.153198242,-8902318.954467773,-7039696.69342041,-2308484.5542907715,-3449228.525161743,748326.2419700623,3480095.386505127,9065000.534057617,13938178.062438965,15707158.088684082,-4227693.0809021,895162.3439788818,399122.11894989014,6084321.49887085,3427429.19921875,4526550.769805908,13222719.192504883,14371708.869934082,14491676.330566406,2058644.0563201904,1665293.9319610596,1820835.7095718384,4120906.352996826,15024414.0625,14045195.579528809,15037529.945373535,14940035.820007324,6395462.512969971,5528390.407562256,14430791.854858398,15060576.438903809
0.36,-6593711.376190186,15401849.746704102,20890893.936157227,-4646439.075469971,9228110.313415527,-10676546.096801758,-5070596.218109131,-4221891.403198242,1019456.6249847412,4737442.493438721,5686075.687408447,8079332.35168457,17550212.860107422,16285657.88269043,-12635052.680969238,4229104.995727539,-3537347.7935791016,-9406232.833862305,5184242.725372314,5660479.0687561035,15513812.065124512,9546422.004699707,17291900.634765625,-16366935.729980469,-9915357.58972168,-7237905.979156494,-2138068.437576294,-11620032.31048584,784780.2639007568,9460062.980651855,12878214.836120605,16060424.8046875,-7293539.524078369,-5994108.200073242,-1647690.5345916748,-2477264.642715454,769560.9331130981,3485929.489135742,8333913.803100586,13931776.04675293,15617628.09753418,-976487.2193336487,3389132.261276245,2231641.7694091797,7809031.963348389,5065186.500549316,4639994.6212768555,13304138.18359375,14483555.793762207,14498001.098632812,4728568.077087402,4368224.620819092,4435878.753662109,5760475.635528564,15082001.686096191,14285001.754760742,15064545.631408691,19188907.623291016,9751632.690429688,7081490.993499756,14407280.921936035,15102170.944213867
0.365,-10414583.206176758,9989049.911499023,13324907.302856445,-6629673.957824707,1305452.585220337,-9990574.836730957,-6383307.456970215,-5328273.296356201,-279974.93743896484,1750923.2759475708,-1676089.4060134888,480990.6482696533,13934284.210205078,13034810.066223145,-12451053.619384766,4338747.978210449,-3807078.8383483887,-8546208.381652832,3497117.757797241,4096054.0771484375,10494072.914123535,5434698.104858398,14559955.596923828,-17178581.23779297,-10134737.014770508,-7560880.184173584,-1845402.5983810425,-11684580.80291748,-1236268.7587738037,6765617.370605469,8924393.653869629,13740176.2008667,-5110038.757324219,-4235975.26550293,-1086670.2795028687,-1516333.2223892212,763807.2967529297,3470592.260360718,6392876.148223877,13100185.39428711,14737936.019897461,3305788.993835449,6649865.627288818,4899245.738983154,10511869.430541992,7159145.832061768,4841444.01550293,12597821.235656738,13918323.516845703,13764249.801635742,7978549.480438232,7633434.295654297,7718723.773956299,7717240.333557129,14561563.491821289,13828763.961791992,14335907.936096191,21682357.788085938,12466774.940490723,9041708.946228027,13775369.644165039,14560173.988342285
0.37,-7896262.645721436,12049428.939819336,13698825.83618164,-5923844.814300537,-1656668.4246063232,-7300877.571105957,-5919169.902801514,-4756825.923919678,-610985.279083252,-976213.1571769714,-4879634.380340576,-3126668.930053711,12598833.084106445,12041578.29284668,-11969886.779785156,6233984.470367432,-3367952.1083831787,-8391528.129577637,1475698.8286972046,2109856.128692627,7506989.9559021,2535190.8206939697,13745030.403137207,-21555286.407470703,-9594597.816467285,-7825423.717498779,-1866315.7224655151,-12553496.360778809,-2862687.587738037,5337556.3621521,6401439.189910889,13051208.49609375,-4387845.516204834,-2699424.2668151855,-1072769.5226669312,-1458906.650543213,675093.1143760681,4011465.549468994,5912746.429443359,13294389.724731445,14981501.579284668,6145205.974578857,8745060.920715332,6511290.550231934,11111715.316772461,7876445.770263672,5406848.907470703,12879729.270935059,14300786.972045898,14025422.096252441,9814423.561096191,9535140.991210938,9691084.861755371,8269970.893859863,14924133.30078125,14159819.602966309,14515128.135681152,20435890.197753906,13497930.526733398,9684678.077697754,14154741.287231445,14939761.1618042
0.375,9141716.957092285,30269248.962402344,30706781.3873291,2386350.154876709,7726575.3746032715,-902952.5518417358,-813598.6924171448,166030.09402751923,3413772.1061706543,1431568.7417984009,2817995.78666687,2972803.831100464,14666108.131408691,13707283.020019531,-10012371.063232422,9716274.26147461,-1204865.6940460205,-7727219.581604004,2255578.9947509766,2842498.540878296,10316529.273986816,3894832.134246826,14933125.495910645,-23558712.005615234,-7985644.817352295,-7509061.813354492,-1785921.4544296265,-13585753.440856934,-2064765.9301757812,6266871.929168701,6650451.66015625,13739281.65435791,-4527987.480163574,-1905538.3205413818,-1422803.6403656006,-2111962.31842041,537835.4787826538,4892991.542816162,6933235.645294189,12782254.219055176,14547465.324401855,5849989.414215088,8206859.588623047,5970742.702484131,8961575.508117676,5986270.427703857,6135560.989379883,12337542.533874512,13733294.486999512,13358942.031860352,8946282.386779785,8721301.078796387,8920695.304870605,6287332.534790039,14169009.2086792,13442774.772644043,13760550.498962402,15062910.079956055,11320406.913757324,7875580.787658691,13565074.920654297,14261634.826660156
0.38,32745681.762695312,55322044.372558594,54290287.017822266,13851613.998413086,22230413.43688965,6777309.417724609,6081269.74105835,6722150.802612305,9555070.877075195,7429085.731506348,15162376.403808594,12688177.108764648,16387050.62866211,14445317.268371582,-7162249.565124512,12713003.158569336,1290253.1623840332,-6370470.04699707,5183631.420135498,5700869.083404541,15469142.91381836,7175044.059753418,14950632.095336914,-19766654.96826172,-6091304.779052734,-6691095.82901001,-1590693.712234497,-13900629.043579102,383376.8665790558,7523082.733154297,6941657.543182373,13055509.567260742,-3245139.1220092773,-2036296.8444824219,-1739213.9434814453,-2659495.1152801514,474737.1971607208,5457599.639892578,7475578.308105469,9806596.755981445,11608215.33203125,2835239.6488189697,5035388.946533203,3720414.161682129,6272348.403930664,2500106.0962677,6561574.935913086,9295677.185058594,10573002.815246582,10087484.359741211,5593818.187713623,5304631.71005249,5551659.107208252,2750880.002975464,10767987.251281738,10166686.058044434,10464327.812194824,7525255.20324707,5423090.934753418,4483276.844024658,10269104.957580566,10917337.417602539
0.385,44887565.61279297,68070510.86425781,65243675.231933594,19054216.384887695,28372444.15283203,10620314.598083496,9154180.526733398,9589074.13482666,12093758.583068848,11038503.646850586,20405429.84008789,15955608.367919922,15058877.944946289,12576161.38458252,-5687639.7132873535,13126474.380493164,2008645.5345153809,-5323273.181915283,6945271.4920043945,7485230.445861816,17561071.395874023,7942050.933837891,12776862.144470215,-13973974.227905273,-4993344.783782959,-5950571.060180664,-1596545.934677124,-13139628.410339355,2046892.4045562744,7129148.483276367,5222685.33706665,10680394.172668457,-506148.63634109497,-3262242.555618286,-2221450.5672454834,-2929149.389266968,533662.0211601257,5424396.03805542,6712477.207183838,6508117.198944092,8277493.476867676,-762049.4365692139,872912.7049446106,941204.4286727905,4753327.8465271,103489.67462778091,6486349.105834961,6033435.344696045,7166772.365570068,6627868.65234375,1450321.6743469238,1036080.7180404663,1363124.4897842407,286052.4356365204,7312976.360321045,6750301.837921143,7041231.632232666,1760818.8390731812,-1182000.0410079956,1973811.388015747,6681307.792663574,7411444.187164307
0.39,36952022.552490234,60065460.205078125,56052177.42919922,14121662.139892578,21629871.368408203,7148791.790008545,6134926.795959473,6595452.785491943,8469792.366027832,9130708.694458008,14632067.680358887,10342645.645141602,11776687.622070312,9764694.213867188,-7940242.767333984,10572878.83758545,217954.75482940674,-5968757.629394531,5756165.504455566,6417530.536651611,15387610.43548584,4612436.294555664,10255387.306213379,-12699337.005615234,-5924851.894378662,-6322129.249572754,-2292411.0889434814,-11988118.171691895,1738222.8374481201,5544220.924377441,2700488.0905151367,8652249.336242676,-212239.92109298706,-6033247.947692871,-3775577.0683288574,-3644020.5574035645,597344.696521759,5188823.223114014,5736429.214477539,5992060.661315918,7609245.777130127,-3713883.876800537,-2509440.6604766846,-1746086.0013961792,3706820.249557495,323320.8954334259,6278709.888458252,5647699.83291626,6630897.521972656,6176221.3706970215,-1844780.9219360352,-2237547.8744506836,-1914872.5271224976,481848.1504917145,7033363.342285156,6342958.450317383,6686190.605163574,376332.6108455658,-3940470.4570770264,1949115.3955459595,6145353.317260742,7020611.28616333
0.395,17244268.4173584,40194408.41674805,36527732.849121094,3552926.540374756,9134623.527526855,-3409301.7578125,-741733.968257904,-148577.40700244904,1542707.5624465942,3978320.1217651367,3960237.979888916,1566557.52658844,7961282.730102539,6799190.044403076,-15038998.6038208,5938310.623168945,-3494843.9598083496,-9136829.376220703,2792906.5227508545,3494294.8818206787,11306381.225585938,-1001209.7358703613,7777995.1095581055,-18273586.27319336,-10362558.364868164,-8923316.955566406,-4043890.4762268066,-11636320.114135742,339190.87052345276,4140060.4248046875,839003.8013458252,6915174.961090088,-6395572.185516357,-10888821.601867676,-7026564.598083496,-5313458.9195251465,530093.0738449097,5158811.092376709,5156709.19418335,6783581.733703613,8082457.542419434,-7660472.393035889,-5401566.028594971,-4810385.704040527,1877337.93258667,1409495.5921173096,6303777.694702148,6528132.438659668,7355601.3107299805,7060668.468475342,-4737123.012542725,-4885827.541351318,-4756783.008575439,1693577.4087905884,8130169.868469238,7303029.0603637695,7700066.089630127,951177.5374412537,-2976477.861404419,2956910.8486175537,7132535.934448242,8081647.872924805
0.4,-934026.8969535828,22012107.849121094,20038377.76184082,-6337769.985198975,-709698.8558769226,-17634313.583374023,-8160811.424255371,-7420087.814331055,-4493618.488311768,-956623.9714622498,-4540897.846221924,-5048713.684082031,2987439.3939971924,2127959.4898223877,-25570676.803588867,503480.1959991455,-8039192.199707031,-14213906.288146973,-125694.42391395569,408328.3245563507,7105052.471160889,-6605839.729309082,3399342.5369262695,-27774482.72705078,-18257902.145385742,-13654617.309570312,-6545587.539672852,-12623892.784118652,-1042879.4622421265,2841023.2067108154,-1379575.9677886963,2967437.0288848877,-17714384.078979492,-17322839.736938477,-11194563.865661621,-7309823.513031006,384875.41675567627,5100470.066070557,3944732.189178467,4365715.503692627,5296481.609344482,-14605597.496032715,-9627900.123596191,-8781693.458557129,-270104.9745082855,236368.47734451294,6261926.651000977,4088105.2017211914,4821694.850921631,4596025.9437561035,-9064456.939697266,-8973426.818847656,-9082443.237304688,726884.0670585632,5745941.638946533,4943932.53326416,5284933.567047119,-1807689.6667480469,-3993969.678878784,1915227.770805359,4864375.591278076,5774307.727813721
0.405,-12070218.086242676,11114816.665649414,10882966.995239258,-12765280.723571777,-5840085.029602051,-29756309.509277344,-13558910.369873047,-12634038.925170898,-7882630.825042725,-4506584.167480469,-9243081.092834473,-8972065.925598145,-2774289.36958313,-3881287.3363494873,-34629367.82836914,-3486029.1481018066,-11545336.723327637,-18743515.014648438,-2367537.7368927,-2041033.0295562744,3240627.2888183594,-10893927.574157715,-2466189.14604187,-36401546.478271484,-25791517.25769043,-18046354.293823242,-8517433.166503906,-14363999.366760254,-2403062.582015991,887463.0928039551,-5033514.022827148,-2937332.1533203125,-27026102.06604004,-22488174.438476562,-14024414.0625,-8254463.195800781,379748.4040260315,4583294.868469238,1649074.4352340698,-1392535.8057022095,-617213.9048576355,-22218210.220336914,-14703377.723693848,-12342926.979064941,-951309.2637062073,-3319092.273712158,5692021.84677124,-1749728.5604476929,-933428.704738617,-1249715.9242630005,-14198044.776916504,-14177473.068237305,-14303018.569946289,-2758437.395095825,-203142.85159111023,-860897.3026275635,-665155.4107666016,-8447095.87097168,-9838175.773620605,-1603487.491607666,-923570.6329345703,-92740.28241634369
0.41,-17714015.96069336,5912324.42855835,6256033.897399902,-15261208.534240723,-7832453.727722168,-34039703.369140625,-14574687.957763672,-13482197.761535645,-8531777.381896973,-6370925.426483154,-11342646.598815918,-10993775.367736816,-5671226.978302002,-6841596.603393555,-36086814.880371094,-3042081.594467163,-11553570.747375488,-19618495.94116211,-3679627.8953552246,-3323847.532272339,832369.2083358765,-12705919.26574707,-5190654.754638672,-39680770.87402344,-27227399.826049805,-18542528.15246582,-8430157.661437988,-15809368.133544922,-3899542.808532715,-948725.700378418,-8081222.5341796875,-5922138.214111328,-27320920.944213867,-22158397.674560547,-13191322.326660156,-7193973.541259766,629748.4636306763,3858056.06842041,68122.81906604767,-4509199.142456055,-3558185.815811157,-23982532.501220703,-16015193.939208984,-12179507.2555542,957421.8988418579,-5391667.84286499,4954739.570617676,-4933753.490447998,-3858310.4610443115,-4305093.288421631,-15395640.37322998,-15747505.187988281,-15660286.903381348,-4967754.364013672,-3410790.9202575684,-3963989.2578125,-3863135.0994110107,-11712716.102600098,-14151528.358459473,-3887405.6339263916,-4098764.419555664,-3306291.5802001953
0.415,-19645114.89868164,4212152.95791626,4063756.4659118652,-13591580.390930176,-7119848.251342773,-29705642.700195312,-10416458.129882812,-9338974.952697754,-6126162.528991699,-5267285.346984863,-10751639.366149902,-10168459.89227295,-2760336.16065979,-3515033.24508667,-28465345.38269043,2416114.091873169,-7383150.577545166,-15641949.653625488,-3202749.252319336,-2588826.894760132,1484148.383140564,-11025918.960571289,-1603684.1869354248,-35131492.614746094,-20984317.779541016,-14182270.050048828,-6029395.10345459,-16240781.784057617,-4686051.845550537,-776011.4073753357,-7389461.517333984,-2484177.827835083,-18445150.37536621,-15048851.96685791,-8597208.976745605,-4566913.604736328,951533.7944030762,3641628.9806365967,1102625.9660720825,-750531.9118499756,496310.62150001526,-16557178.497314453,-9967801.094055176,-6638151.168823242,4601811.408996582,-3058009.147644043,4873507.499694824,-1199355.8406829834,97859.7030043602,-347472.9657173157,-9126168.251037598,-9789490.699768066,-9547881.126403809,-2784117.4602508545,508667.2306060791,-27050.191536545753,77390.1641368866,-4943743.2289123535,-8982370.376586914,-1736846.685409546,-243409.4399213791,556482.0170402527
0.42,-18928434.371948242,4523452.281951904,4117939.9490356445,-9272698.402404785,-3838435.649871826,-23093755.7220459,-4453271.865844727,-3591501.235961914,-1083223.819732666,-853249.3114471436,-7260938.64440918,-6143976.68838501,3286602.49710083,2888039.3505096436,-18087043.76220703,8673548.698425293,-2048451.1852264404,-9083079.33807373,-561989.1881942749,246754.27377223969,4834314.346313477,-6713553.428649902,4735395.431518555,-25418399.810791016,-12643575.668334961,-8594256.401062012,-3041026.3538360596,-15473804.473876953,-3840497.7321624756,1646483.7789535522,-3409416.1987304688,3937973.0224609375,-7801978.11126709,-6170680.999755859,-3443113.5654449463,-2194281.1012268066,1024151.6828536987,3971036.195755005,3785277.6050567627,5912964.820861816,7264019.966125488,-5796212.196350098,-676908.0758094788,424651.02672576904,7385313.987731934,976868.5102462769,5320102.691650391,5504386.425018311,6739912.033081055,6453803.062438965,284115.10586738586,-333379.23884391785,-167519.52469348907,1272842.7648544312,7364112.377166748,6830672.740936279,6938342.571258545,7522388.935089111,2468889.7132873535,2411399.1260528564,6587352.752685547,7390998.840332031
0.425,-18160493.850708008,4509815.216064453,5056916.7137146,-6175781.726837158,-256952.64339447021,-21530372.619628906,-2046663.761138916,-1360280.0369262695,3962426.6624450684,4124570.369720459,-3083418.846130371,-1578842.043876648,6487551.689147949,5854505.53894043,-13435489.654541016,10361514.0914917,185373.7235069275,-4000402.9273986816,2785970.92628479,3570363.2831573486,8171073.913574219,-2813206.911087036,7217547.416687012,-18397686.004638672,-9558727.264404297,-6788589.4775390625,-1752814.1736984253,-13898361.206054688,-2105137.586593628,4010140.4190063477,-282818.67504119873,6585380.554199219,-3809382.915496826,-3265931.8447113037,-1895905.4946899414,-1903613.0905151367,758243.3819770813,3881237.268447876,5111489.772796631,7928936.48147583,9146133.422851562,-1934483.1705093384,2548705.1010131836,2153067.3503875732,6841088.29498291,1108648.8962173462,5044314.384460449,7608369.35043335,8516129.493713379,8409994.125366211,3416117.6681518555,3068333.864212036,3110934.7343444824,1512660.8610153198,9294308.66241455,8783836.364746094,8845983.505249023,13269100.189208984,7494573.11630249,2754149.1985321045,8587856.29272461,9355152.130126953
0.43,-19459760.665893555,2691542.148590088,4764045.238494873,-6686621.66595459,882955.8491706848,-24761013.03100586,-4204317.569732666,-3468669.4145202637,5920130.252838135,6086905.479431152,-1305589.5566940308,120848.81961345673,4434504.985809326,3210052.013397217,-15890485.763549805,7507540.702819824,-1360842.1087265015,-2644522.6669311523,4495534.420013428,5224732.875823975,9022242.546081543,-2036319.9710845947,4065149.7840881348,-19817531.58569336,-12727909.088134766,-9602262.496948242,-2604270.4582214355,-12532587.051391602,-1571127.5339126587,3904728.651046753,-1001811.2659454346,3447221.517562866,-8006283.760070801,-8262073.516845703,-4672472.4769592285,-3579151.6304016113,417149.21593666077,2565004.587173462,3572472.095489502,3491454.839706421,4560820.579528809,-7796657.562255859,-3591129.5413970947,-3224991.3215637207,3272413.492202759,-3801015.1386260986,3314814.0907287598,3212414.026260376,3814293.384552002,3771948.81439209,-2904761.31439209,-3131910.3240966797,-3025378.704071045,-3417297.601699829,4493637.561798096,3990186.929702759,4069952.0111083984,6694262.0277404785,224160.90965270996,-2236705.0647735596,3917335.5102539062,4621438.026428223
0.435,-21281736.373901367,691748.3806610107,3219686.74659729,-8809110.641479492,-543649.3158340454,-26175140.380859375,-6292356.491088867,-5436564.4454956055,4444591.522216797,4602161.407470703,-2544488.4300231934,-1672178.6260604858,379555.1657676697,-1127136.3496780396,-18860399.24621582,5586409.568786621,-3223431.11038208,-3899837.9707336426,3670072.7939605713,4523699.760437012,7240876.6746521,-4257797.718048096,-360476.553440094,-26086719.512939453,-16501438.14086914,-12956589.698791504,-3796435.832977295,-12446842.193603516,-3220240.831375122,1519325.9716033936,-4182284.8320007324,-1168885.2310180664,-13930459.976196289,-14411042.213439941,-7898657.79876709,-4995515.823364258,316723.40631484985,605351.448059082,693554.2225837708,-2003617.525100708,-946609.7950935364,-15007415.771484375,-11248362.54119873,-9197597.50366211,179050.95219612122,-8500842.094421387,1162634.1342926025,-2357265.4724121094,-1828034.4009399414,-1922519.4454193115,-10623062.133789062,-10991343.49822998,-10713444.709777832,-8284895.896911621,-1331074.2378234863,-1860184.4310760498,-1615045.7859039307,-3437887.9070281982,-9929301.261901855,-7300618.1716918945,-1763156.771659851,-1106392.6219940186
0.44,-21194890.97595215,578300.1184463501,1841398.000717163,-9682373.046875,-2796326.160430908,-23282590.866088867,-5141870.498657227,-4352220.058441162,1732748.27003479,2127484.3215942383,-5087670.803070068,-5064193.7255859375,-1628752.589225769,-2829566.240310669,-17375572.204589844,7713964.462280273,-2981563.3296966553,-5493151.1878967285,1546992.7787780762,2584423.065185547,4400703.907012939,-7010116.5771484375,-1748829.2455673218,-28735820.770263672,-16713655.471801758,-13470001.220703125,-3792944.90814209,-13591466.903686523,-5525256.633758545,-715012.4907493591,-6342627.52532959,-2748085.4988098145,-14672999.382019043,-14429513.931274414,-7765723.22845459,-4421983.242034912,473545.0744628906,-322537.69040107727,-934627.8309822083,-3237958.9080810547,-2166533.2317352295,-14395839.69116211,-10974710.464477539,-8641025.54321289,683141.3507461548,-7896607.875823975,468997.4784851074,-3692222.3567962646,-3106128.692626953,-3267571.9261169434,-10249207.496643066,-10749198.913574219,-10449759.483337402,-7793871.879577637,-2605055.809020996,-3165431.499481201,-2736458.3015441895,-4854702.472686768,-10481189.727783203,-6935287.952423096,-2923536.3006591797,-2284882.5454711914
0.445,-20816396.713256836,921809.196472168,499937.11709976196,-10488374.710083008,-5112761.974334717,-22144428.253173828,-4346699.237823486,-3752244.710922241,-815510.0345611572,106670.87137699127,-7624590.873718262,-8245119.094848633,-1138002.7532577515,-1764983.057975769,-14952143.669128418,9871143.341064453,-2924800.157546997,-7010432.243347168,-167896.7922925949,822920.2628135681,2182277.4410247803,-8231982.231140137,-321596.50325775146,-26005258.560180664,-15976665.496826172,-12926159.858703613,-3523576.7364501953,-14605843.544006348,-6119662.284851074,-790885.329246521,-5956450.939178467,-1259989.2616271973,-10793780.326843262,-9654074.668884277,-5432991.504669189,-2998296.2608337402,644130.8856010437,972111.5231513977,-102248.71337413788,-405684.35192108154,556674.4208335876,-7357696.056365967,-3703075.647354126,-2848947.286605835,3770175.4570007324,-3132886.8865966797,2083112.9550933838,-831527.4119377136,-264936.26832962036,-449046.46277427673,-2852475.881576538,-3236689.329147339,-3095570.5642700195,-2933907.0320129395,424615.41295051575,-164717.80836582184,264925.2712726593,3195548.5343933105,-1686365.7236099243,-2020318.2697296143,130640.4173374176,746731.162071228
0.45,-24083896.63696289,-1608610.2724075317,-2217409.133911133,-14624105.453491211,-7811305.522918701,-28250520.706176758,-8906609.535217285,-8329962.730407715,-3974804.639816284,-2437762.0220184326,-10052628.517150879,-10389864.921569824,-158221.90046310425,-392432.5108528137,-17747070.3125,6764545.917510986,-6457216.262817383,-9743037.223815918,-1000331.0441970825,-306542.69456863403,1574284.0766906738,-8103028.297424316,1264133.334159851,-24875728.607177734,-18921747.2076416,-15134655.952453613,-5021922.588348389,-14380531.311035156,-4548449.0394592285,1015062.9281997681,-4347451.686859131,641153.5739898682,-8871559.143066406,-7549091.339111328,-5193904.399871826,-3307214.0216827393,662600.2788543701,3870148.6587524414,2454380.750656128,2918038.6066436768,3708436.7275238037,-3039033.6513519287,1387257.0991516113,714978.5757064819,5575379.371643066,661024.5108604431,5009529.590606689,2639959.8121643066,3128803.7300109863,2927439.6896362305,2284253.5972595215,2126465.082168579,2158129.4536590576,1111821.0554122925,3956346.7502593994,3329029.7985076904,3578323.3642578125,10566870.68939209,5719139.099121094,2153597.831726074,3579231.7390441895,4144610.88180542
0.455,-30665811.53869629,-7071578.502655029,-6061196.804046631,-21453432.083129883,-10401357.650756836,-37099201.20239258,-16593101.501464844,-15773034.09576416,-8155318.260192871,-6051835.536956787,-12141576.766967773,-11131992.34008789,-52387.39773631096,-219775.63202381134,-24460662.841796875,220088.33289146423,-12204755.783081055,-13768194.198608398,-1581894.3977355957,-1119695.4250335693,2382749.319076538,-8400217.056274414,1574825.8829116821,-29506175.994873047,-24621492.385864258,-19677177.42919922,-8162757.873535156,-13559970.85571289,-2815096.616744995,2576280.355453491,-3693087.339401245,1242377.758026123,-12309967.041015625,-10982796.669006348,-8144058.2275390625,-5636354.446411133,609176.2185096741,6156261.444091797,4739402.770996094,4246578.693389893,4982240.676879883,-5717462.539672852,-456529.49810028076,-1263151.8840789795,4407207.96585083,883166.5515899658,7143197.536468506,4063574.79095459,4592317.581176758,4327923.29788208,461366.4150238037,352429.44955825806,441927.88004875183,1568117.4993515015,5382565.021514893,4734292.984008789,4828028.202056885,10082511.901855469,5573657.512664795,2655841.588973999,4884075.64163208,5405379.772186279
0.46,-34920921.325683594,-11363426.208496094,-8740726.470947266,-25396858.21533203,-11729924.201965332,-39286113.73901367,-19395706.176757812,-18363639.83154297,-11177035.331726074,-8806615.829467773,-13287099.838256836,-10904468.536376953,-1059959.1732025146,-1333014.2498016357,-27191753.387451172,-2442493.677139282,-14701377.868652344,-16586933.135986328,-2391533.374786377,-1860373.0201721191,2943041.3246154785,-10451420.783996582,555330.0380706787,-33799133.30078125,-27331157.684326172,-21884342.193603516,-10215142.250061035,-13752331.733703613,-3185741.662979126,1905362.0100021362,-5153272.62878418,226604.59578037262,-16802829.74243164,-14715940.475463867,-10511093.139648438,-7247714.519500732,645656.2280654907,5836704.730987549,4651584.625244141,3168507.0991516113,4000074.3865966797,-10340102.195739746,-4704230.308532715,-4495366.096496582,2507204.532623291,-810573.399066925,6820644.855499268,2940168.619155884,3625824.451446533,3285355.567932129,-3699269.2947387695,-3963912.9638671875,-3804659.843444824,-67281.69322013855,4330521.583557129,3717129.945755005,3817234.754562378,4844954.490661621,1952597.2604751587,965533.9121818542,3762543.9167022705,4288924.694061279
0.465,-32735958.099365234,-11204950.332641602,-9048573.49395752,-22490140.914916992,-12016103.744506836,-33227268.21899414,-13824053.764343262,-12875795.364379883,-10253637.313842773,-8605671.882629395,-13788576.126098633,-11395529.747009277,-3456774.7116088867,-3788275.4802703857,-22373489.379882812,1888897.5381851196,-11212815.284729004,-15614436.149597168,-3199765.920639038,-2466795.6829071045,1189440.131187439,-13796664.237976074,-1985044.4793701172,-30393865.58532715,-24282489.776611328,-19206432.342529297,-9108785.629272461,-15259732.246398926,-5957738.399505615,-1221384.7637176514,-8497520.446777344,-2543564.3196105957,-16717054.36706543,-13632215.49987793,-9071447.372436523,-5958222.389221191,804274.9762535095,3041991.949081421,1517897.605895996,55026.039481163025,978887.2599601746,-11188200.950622559,-5820698.7380981445,-4472728.729248047,2396207.332611084,-2220079.8988342285,4179324.6269226074,-257117.5992488861,489532.79852867126,132139.80197906494,-4690742.969512939,-5099391.937255859,-5016788.959503174,-1654632.568359375,1224532.4850082397,658402.8601646423,868428.4090995789,1155357.4800491333,312901.8843173981,-688506.4244270325,651200.3540992737,1203492.0454025269
0.47,-26695526.123046875,-8152304.649353027,-8652215.003967285,-15538572.311401367,-12985039.710998535,-26881525.03967285,-5585328.578948975,-4887908.458709717,-5822051.048278809,-6439891.815185547,-14943655.967712402,-14030472.755432129,-7161998.271942139,-7384300.708770752,-15765168.190002441,8133272.171020508,-5274665.832519531,-11540399.551391602,-3727715.253829956,-3013299.4651794434,-3098320.245742798,-16871547.69897461,-5844970.226287842,-22535472.869873047,-19215805.053710938,-14624590.873718262,-6009097.576141357,-16482454.299926758,-9435548.782348633,-5174113.750457764,-12413594.245910645,-6549009.323120117,-12963816.64276123,-9768798.828125,-5508848.667144775,-3008546.3523864746,979790.449142456,62685.38534641266,-2870944.9768066406,-3922871.8280792236,-3048578.2623291016,-9442640.30456543,-4490690.231323242,-2405936.7179870605,3709963.798522949,-2953686.475753784,1266135.0965499878,-4249761.581420898,-3627709.6271514893,-3951441.0495758057,-3306638.00239563,-3744332.5519561768,-3799393.1770324707,-2677067.518234253,-2764467.95463562,-3382297.0390319824,-3054996.4904785156,273008.46576690674,415723.89006614685,-1737352.8480529785,-3325297.8324890137,-2793987.512588501
0.475,-22127309.799194336,-5932845.592498779,-9369889.259338379,-10625314.712524414,-15119601.249694824,-25867635.72692871,-1951145.052909851,-1336120.2478408813,-1583732.2473526,-5361301.422119141,-16976320.266723633,-17550294.876098633,-10411576.271057129,-10391511.917114258,-13830912.590026855,10394792.556762695,-1968756.4373016357,-7955166.816711426,-4111963.7489318848,-3712749.719619751,-7223164.5584106445,-18440073.013305664,-9016278.266906738,-19579114.91394043,-16953775.40588379,-12257187.843322754,-3680288.314819336,-15924595.832824707,-11502541.542053223,-7584584.712982178,-14767971.992492676,-9562823.295593262,-10826784.133911133,-7975808.620452881,-3442515.3732299805,-1215390.2053833008,1040804.7437667847,-817593.6341285706,-5287784.099578857,-6290181.636810303,-5584746.837615967,-8974753.379821777,-3817829.132080078,-1427234.7688674927,4810330.867767334,-3014637.4702453613,331657.2904586792,-6593173.027038574,-6091180.324554443,-6416867.256164551,-2679839.3726348877,-3139715.6715393066,-3219133.138656616,-2860846.2810516357,-5149521.350860596,-5942676.067352295,-5500517.36831665,390101.49240493774,284077.82316207886,-1940190.4344558716,-5699352.264404297,-5229457.855224609
0.48,-20321531.295776367,-5417888.164520264,-10218018.531799316,-10087937.355041504,-16369985.580444336,-25716018.676757812,-2886274.0993499756,-2082415.1039123535,-428113.6691570282,-6546990.871429443,-18102828.979492188,-18655092.239379883,-10650436.401367188,-10401803.016662598,-14284571.647644043,9666296.95892334,-1796309.8287582397,-7414066.314697266,-4469984.531402588,-4391015.05279541,-7730535.507202148,-18197206.497192383,-8873616.218566895,-22283071.517944336,-17264957.427978516,-12028727.531433105,-3122850.4180908203,-14081540.10772705,-11096102.714538574,-6913666.725158691,-13684105.87310791,-9083950.04272461,-11350800.514221191,-8032701.49230957,-3215703.7258148193,-1329458.236694336,927253.9615631104,483218.9679145813,-3901982.7842712402,-4932968.616485596,-4389277.458190918,-8896000.862121582,-3050204.277038574,-901235.1036071777,5547711.372375488,-1794625.2822875977,1647903.2039642334,-5226996.421813965,-4646874.904632568,-5045476.43661499,-1978557.1098327637,-2512274.5037078857,-2503119.945526123,-1449965.9538269043,-3761011.1236572266,-4713910.102844238,-4187059.4024658203,2244917.869567871,1290320.634841919,-576063.1561279297,-4285941.123962402,-3833248.8536834717
0.485,-18215286.254882812,-4149914.7415161133,-8789887.428283691,-10980549.812316895,-14735087.394714355,-19208856.5826416,-2671603.9180755615,-1624903.917312622,-1381869.0776824951,-7973126.8882751465,-16672397.61352539,-15860508.918762207,-7682566.165924072,-7362321.853637695,-9814758.30078125,11209271.430969238,-1301278.1143188477,-8758355.140686035,-4415012.836456299,-4387219.429016113,-4111725.8071899414,-16573104.858398438,-5555795.192718506,-21331977.84423828,-16464557.647705078,-10994342.803955078,-3013078.212738037,-12726346.969604492,-8875102.996826172,-3763677.3586273193,-9570680.618286133,-5556402.683258057,-9929556.846618652,-5813110.828399658,-2335824.0127563477,-1717548.131942749,734646.0819244385,1953824.2816925049,-280627.2804737091,-991851.806640625,-489788.9494895935,-5604521.751403809,197665.5125617981,1493547.6779937744,6594874.858856201,283011.7642879486,3227601.2897491455,-1251754.7607421875,-463237.6432418823,-933869.8387145996,1232003.6888122559,684372.2462654114,768274.7840881348,913529.9324989319,284019.410610199,-646255.1951408386,-191820.30856609344,7429079.055786133,4847897.052764893,1751433.6109161377,-205807.3729276657,307895.0345516205
0.49,-14263446.807861328,-1051550.6267547607,-5468897.819519043,-10136212.348937988,-11596536.636352539,-7684107.780456543,1372241.1394119263,2496080.160140991,-1583661.0794067383,-7595450.401306152,-13907227.516174316,-11947592.735290527,-4942728.042602539,-4729256.629943848,352687.2992515564,16204185.485839844,1279916.4056777954,-9048885.345458984,-3695913.791656494,-3518915.6532287598,6127.756088972092,-14847556.114196777,-2899031.162261963,-12506892.204284668,-13482780.456542969,-8446941.375732422,-2171904.8023223877,-12821997.64251709,-6967093.944549561,-954482.5553894043,-5941532.135009766,-2933135.986328125,-4330522.537231445,-916401.0286331177,-85729.82251644135,-1162500.7390975952,685254.9314498901,1717028.3794403076,1833176.612854004,1267947.9122161865,1881655.8122634888,-314661.1154079437,4186087.131500244,4492314.338684082,7454691.410064697,1209831.1185836792,3004324.9130249023,1098107.3379516602,2029970.407485962,1561136.00730896,5164045.810699463,4720066.070556641,4843109.130859375,1863957.6435089111,2662504.9114227295,1930339.5748138428,2111715.55519104,13163942.337036133,7900454.521179199,2735861.7782592773,2196633.815765381,2788917.5415039062
0.495,-11519282.341003418,750275.9695053101,-4235927.581787109,-8505053.520202637,-10993429.183959961,-201666.05710983276,5382197.380065918,6435835.361480713,-546702.7425765991,-6585493.564605713,-13287101.745605469,-11397449.493408203,-6160257.816314697,-6112090.587615967,8088582.0388793945,19858188.62915039,3583136.0816955566,-7553304.195404053,-3180847.8832244873,-2911477.80418396,162690.83321094513,-15040517.807006836,-4560458.183288574,-4891871.452331543,-11406926.155090332,-6850945.472717285,-1272257.924079895,-13903685.569763184,-7408562.183380127,-1334187.0307922363,-6569975.37612915,-4683891.773223877,677785.9926223755,1914481.520652771,1308004.8561096191,-325465.8281803131,883315.9804344177,-86626.14971399307,210542.54472255707,-1157051.44405365,-359119.14706230164,1424820.4231262207,4741134.6435546875,4637114.04800415,7339953.899383545,110745.07236480713,1071476.8171310425,-1261137.9623413086,-309868.54434013367,-723773.2410430908,5618364.8109436035,5257324.21875,5470604.89654541,515286.4456176758,301798.82049560547,-245525.22599697113,-330785.1552963257,14325355.529785156,6779900.550842285,1455992.4602508545,-149957.96978473663,500145.97177505493
0.5,-13440180.778503418,-2154478.7883758545,-7869749.546051025,-9386743.545532227,-14900150.299072266,-2267186.8801116943,4486475.944519043,5467754.84085083,-874815.4044151306,-7966659.5458984375,-16573163.986206055,-15237403.869628906,-10637615.203857422,-10643848.419189453,6875764.846801758,18128561.01989746,2732596.6358184814,-6537735.939025879,-4196140.766143799,-3957448.2440948486,-4120948.7915039062,-18010189.056396484,-9306188.583374023,-8355351.448059082,-12821750.64086914,-7857424.259185791,-1621664.7624969482,-15181452.751159668,-10037456.512451172,-4642300.128936768,-11013393.40209961,-9352792.739868164,-85155.21883964539,-150358.12556743622,385048.3298301697,-201862.78223991394,1114588.2606506348,-1666221.6186523438,-3392851.5911102295,-6025376.319885254,-5125492.572784424,-1723629.117012024,2114921.808242798,2265622.138977051,7255916.118621826,-854750.93126297,-579758.2268714905,-6157514.0953063965,-5231204.032897949,-5607414.245605469,2938288.2118225098,2519725.0843048096,2858445.644378662,-597234.3683242798,-4549217.700958252,-5089618.682861328,-5189618.5874938965,11055631.637573242,3781853.675842285,341491.7290210724,-4989811.897277832,-4252843.379974365
