time,Fp1,Fpz,Fp2,AF3,AF4,F7,F5,F3,F1,Fz,F2,F4,F6,F8,FT7,FC5,FC3,FC1,FCz,FC2,FC4,FC6,FT8,T7,C5,C3,C1,Cz,C2,C4,C6,T8,TP7,CP5,CP3,CP1,CPz,CP2,CP4,CP6,TP8,P7,P5,P3,P1,Pz,P2,P4,P6,P8,PO7,PO5,PO3,POz,PO4,PO6,PO8,CB1,O1,Oz,O2,CB2
0.0,-3392407.6557159424,-2124868.154525757,-192151.08454227448,-3582295.8946228027,80234.27426815033,-5796133.518218994,-3277228.593826294,-3269462.1086120605,-1204682.8269958496,-870795.8459854126,-191582.45623111725,375089.9136066437,2292070.6272125244,2401916.027069092,-4405004.024505615,-2762483.596801758,-1429243.2069778442,-2049700.7369995117,-634961.8434906006,-577572.4053382874,1065183.9971542358,2553980.1120758057,2399706.1252593994,-1695951.5810012817,-1969050.0497817993,-1233926.4154434204,-1313599.5864868164,-345348.0005264282,764708.6977958679,808968.6632156372,1404576.063156128,2369393.1102752686,-1394578.218460083,-2033234.1194152832,-1768813.4908676147,-930594.8615074158,81630.25230169296,472480.2374839783,875852.7040481567,2109337.80670166,2193286.180496216,-1587986.946105957,-794653.4752845764,-998717.725276947,-929161.8466377258,135712.51928806305,464452.8031349182,2102772.7127075195,2128688.8122558594,2150279.998779297,-752189.2786026001,-739819.586277008,-755580.723285675,150134.74225997925,2104515.0756835938,2095470.905303955,2133672.2373962402,2055261.3735198975,126277.05931663513,162157.96768665314,2098909.854888916,2085931.3011169434
0.005,-851501.6436576843,-654269.9933052063,-1200905.3230285645,1330052.4950027466,-775183.6776733398,-14583697.319030762,-3057538.2709503174,-3033992.052078247,1618268.8474655151,1553992.9866790771,-2121880.292892456,-3232525.34866333,-6425278.663635254,-5371178.150177002,3062860.4888916016,-8534681.32019043,-268380.2545070648,-1428132.0571899414,-800782.0844650269,454096.9133377075,-8498482.704162598,-14836943.626403809,-5837323.6656188965,22798549.65209961,-4374182.70111084,-2885005.235671997,-1761940.836906433,4744419.097900391,-7608244.4190979,-13615490.913391113,-25390382.766723633,-4999442.577362061,-13948837.280273438,-11274078.369140625,-5518021.583557129,-3618818.998336792,-314876.16896629333,-2796477.0793914795,-9173561.096191406,-3171525.239944458,-2877882.957458496,11744090.08026123,-5179642.200469971,-6093244.552612305,-5361451.625823975,183135.5094909668,-3453841.209411621,-1529097.7954864502,-2160421.371459961,-2288977.3845672607,-4475110.5308532715,-4038164.6156311035,-3600003.719329834,-243649.27411079407,-1124382.2574615479,-1055545.5684661865,-1366163.8498306274,1055005.9080123901,-2007395.5059051514,-17296.770587563515,-685764.6107673645,-784889.5788192749
0.01,-6654942.512512207,-6955585.479736328,-8273815.155029297,-2269478.7979125977,-6415824.890136719,-22921339.03503418,-7326295.852661133,-7332660.19821167,-1292519.6886062622,-1420756.9360733032,-7513766.765594482,-9522390.365600586,-14714858.055114746,-12882500.648498535,2576182.3654174805,-14288452.1484375,-2427577.9724121094,-3330255.5084228516,-2810097.9328155518,-1028223.0377197266,-16040918.350219727,-28088527.67944336,-13187973.022460938,31036293.029785156,-7927240.371704102,-4834040.641784668,-2952916.145324707,5607694.149017334,-13065685.272216797,-22597053.52783203,-41207832.33642578,-11897266.387939453,-21322479.248046875,-15145912.170410156,-6938583.850860596,-4202154.636383057,-351990.9083843231,-3791027.307510376,-15539804.458618164,-8070281.982421875,-7738067.150115967,16623254.776000977,-6174702.167510986,-6903585.433959961,-4407983.303070068,2760485.1722717285,-4610104.084014893,-5729627.1324157715,-6667517.185211182,-6810886.859893799,-5138690.948486328,-4689976.692199707,-3873451.7097473145,1945995.807647705,-4931212.425231934,-4976498.126983643,-5334015.846252441,-699474.6923446655,-2918988.2278442383,2261913.537979126,-4380232.334136963,-4383782.863616943
0.015,-15416030.883789062,-15800381.660461426,-16246191.024780273,-10132615.089416504,-13030508.041381836,-27326993.942260742,-12300174.713134766,-12295740.127563477,-6577715.873718262,-6804551.124572754,-13056549.072265625,-14925614.356994629,-18799657.821655273,-16528217.315673828,-2797326.3263702393,-17198270.797729492,-5595030.307769775,-6382956.027984619,-5029197.692871094,-3368548.1548309326,-18910890.579223633,-32938957.21435547,-16372243.881225586,25932502.74658203,-9705078.125,-5548292.636871338,-3643882.7514648438,3139676.809310913,-14150478.36303711,-23995637.893676758,-43161457.06176758,-15043562.889099121,-22255033.493041992,-13275620.460510254,-5496438.980102539,-2792028.6655426025,-137177.79517173767,-2388695.71685791,-16216701.50756836,-9893507.957458496,-9660820.007324219,15704610.824584961,-3022188.425064087,-3176320.3144073486,586032.4501991272,7144460.678100586,-2934159.517288208,-7622848.987579346,-8592925.071716309,-8589577.674865723,-1986136.4364624023,-1790492.4154281616,-789056.1819076538,6118764.400482178,-6633598.327636719,-6899433.612823486,-7079903.602600098,-579249.7992515564,-940901.6370773315,6385685.920715332,-6136945.2476501465,-6059233.18862915
0.02,-16061412.811279297,-15942226.40991211,-14884142.875671387,-11843105.31616211,-12316794.395446777,-26131109.2376709,-11534254.07409668,-11406766.891479492,-6477853.775024414,-7066482.067108154,-12106173.515319824,-13163126.945495605,-15145653.72467041,-12911047.93548584,-5300219.535827637,-15630002.975463867,-5299924.850463867,-7046101.093292236,-4091086.3876342773,-2658378.839492798,-15523764.610290527,-27851572.036743164,-12802983.283996582,21921728.134155273,-7282608.509063721,-4014764.7857666016,-2464909.791946411,1844057.6791763306,-11522017.478942871,-19688838.958740234,-36552959.44213867,-11613561.630249023,-20479507.446289062,-10532528.8772583,-3341277.3609161377,-1476897.8357315063,-36271.18468284607,-520314.3358230591,-12364775.657653809,-6706750.392913818,-6509553.909301758,15875166.893005371,760721.6835021973,601559.3409538269,3415595.769882202,9806632.041931152,-829231.9774627686,-4509511.470794678,-5496386.0511779785,-5278286.933898926,1732844.4719314575,1841031.6705703735,2780215.02494812,8820844.650268555,-3681180.238723755,-3998547.7924346924,-4110086.441040039,3146594.762802124,2954270.124435425,8997420.310974121,-3059035.062789917,-3160295.9632873535
0.025,-8733118.057250977,-6348369.598388672,-3531969.3088531494,-6303894.996643066,-2832316.1602020264,-23936220.169067383,-6370807.17086792,-6115512.847900391,-243863.3292913437,-577171.4448928833,-3826709.985733032,-3984481.8115234375,-6390098.571777344,-4611664.772033691,-4694825.649261475,-13371384.620666504,-1914277.9111862183,-4471144.199371338,355204.9994468689,1810114.3836975098,-8035854.339599609,-17273462.295532227,-5223438.262939453,24459173.20251465,-4303936.958312988,-2472072.8397369385,-669952.5713920593,4030334.949493408,-7549544.334411621,-13777308.464050293,-28853309.631347656,-4254086.017608643,-21144241.333007812,-11970270.156860352,-3704353.8093566895,-2063946.24710083,-162968.75476837158,-50712.23899722099,-7837457.180023193,-1353126.1682510376,-984478.5928726196,16216001.510620117,-131024.59907531738,-681875.8845329285,576596.0812568665,8179661.750793457,-487199.72372055054,926691.8897628784,-69945.26088237762,308182.09052085876,900377.7503967285,1180157.6614379883,1942370.057106018,7358738.899230957,1423813.4622573853,1327369.4515228271,1049884.31930542,6404023.64730835,3787083.148956299,7497631.549835205,2299571.0372924805,1933046.9369888306
0.03,-3588794.708251953,3039273.977279663,7660993.0992126465,-2201111.7935180664,7581313.133239746,-25348463.05847168,-3809108.7341308594,-3568059.4444274902,5037086.963653564,6493320.465087891,5093537.330627441,5547788.143157959,94768.15909147263,1344690.442085266,-5771926.403045654,-14922372.817993164,234514.2960548401,-1425812.4828338623,4660583.972930908,6278752.326965332,-1773583.5313796997,-9364204.406738281,-22221.963852643967,27410112.380981445,-5794821.739196777,-3764638.900756836,-691727.7574539185,7468034.267425537,-4943377.97164917,-9997744.5602417,-24658344.268798828,637100.9945869446,-24840700.149536133,-17198600.76904297,-7244875.431060791,-4294787.406921387,-329187.15476989746,-1096581.3398361206,-6025861.2632751465,934706.8667411804,1633192.3007965088,11808139.80102539,-6569472.789764404,-7041074.275970459,-5267198.56262207,3507992.0291900635,-1908637.285232544,3081613.540649414,2226695.775985718,2641722.6791381836,-5435791.492462158,-4986762.523651123,-4292909.145355225,2745857.9540252686,3411006.450653076,3585600.1377105713,3142816.7819976807,3883208.0364227295,-1948780.6558609009,2887965.679168701,4340808.391571045,3976182.222366333
0.035,-3927466.1540985107,6351096.153259277,11648557.662963867,-3554671.287536621,11815989.49432373,-26308120.727539062,-4900957.5843811035,-4777419.567108154,5165146.350860596,8976934.432983398,8769076.347351074,9345909.118652344,506844.6397781372,1539388.656616211,-6622240.06652832,-17618089.67590332,232918.45619678497,-132797.79255390167,5534813.88092041,7230954.170227051,-412794.64960098267,-8273538.589477539,-49175.98515748978,28042634.963989258,-9239325.523376465,-6364163.398742676,-2215824.1271972656,8891856.19354248,-4948801.517486572,-9652204.513549805,-24317569.732666016,321153.461933136,-25955705.642700195,-20344757.080078125,-10473974.227905273,-6181877.613067627,-392915.12966156006,-2495712.7571105957,-6908174.991607666,-942269.5636749268,107916.19122028351,6024988.651275635,-12352656.364440918,-12558297.157287598,-9220253.944396973,-441217.95892715454,-3587714.672088623,895152.4496078491,278528.4221172333,604934.811592102,-11247026.443481445,-10795605.659484863,-9972484.588623047,-1300836.682319641,1300064.4445419312,1535337.209701538,1163542.7474975586,-2161425.828933716,-10100927.352905273,-1187608.7188720703,2053133.0108642578,1911087.155342102
0.04,-1285695.195198059,8859835.624694824,12560513.496398926,-3739160.5377197266,11500619.888305664,-18594978.33251953,-2748785.7341766357,-2700469.0170288086,4442763.805389404,8815906.524658203,8559832.572937012,8486320.495605469,-1705604.5532226562,-571214.1394615173,624382.8535079956,-14038933.753967285,2255818.8438415527,671900.2723693848,3782915.8306121826,5451544.284820557,-2416786.9091033936,-10431348.80065918,-1910188.4365081787,32662647.247314453,-6658927.440643311,-5343280.792236328,-2084243.2975769043,7974157.810211182,-6658440.589904785,-11298732.75756836,-25324687.957763672,-1665967.9412841797,-18987186.431884766,-16355281.829833984,-9174784.660339355,-5841571.807861328,-361772.17960357666,-3479575.3955841064,-8019487.380981445,-2981667.7570343018,-1643301.9638061523,8485339.164733887,-10464688.301086426,-11483522.415161133,-9227965.354919434,-1151155.1141738892,-4551724.433898926,-1143331.2892913818,-1618887.6628875732,-1458854.9137115479,-9531582.832336426,-9163665.771484375,-8133632.659912109,-2065110.206604004,-612929.4633865356,-487709.4626426697,-674000.9188652039,-3233682.632446289,-12283329.963684082,-2018988.847732544,49594.566226005554,-44036.25428676605
0.045,9410765.647888184,15825609.20715332,16458173.751831055,2632881.8798065186,11852981.567382812,-3209640.7413482666,5889547.824859619,5925236.225128174,7700586.795806885,10041008.949279785,8699249.267578125,7060891.151428223,-2275618.076324463,-1038588.6430740356,16084096.908569336,-3304222.1069335938,8329371.452331543,3163702.4879455566,2377673.387527466,4006372.4517822266,-4002119.541168213,-11028121.948242188,-2040117.7406311035,44498779.296875,3409168.243408203,656536.9367599487,1160958.6477279663,6731017.589569092,-8458391.189575195,-12874632.835388184,-25665836.334228516,-1784198.7609863281,-6364188.194274902,-6928462.505340576,-3404400.8255004883,-3129145.383834839,-194485.96239089966,-4254446.983337402,-8198538.780212402,-2506874.7997283936,-1009643.7931060791,20371114.73083496,-1594934.105873108,-4557974.815368652,-6465193.748474121,796747.0288276672,-5079473.01864624,-283828.7055492401,-746745.8844184875,-730730.1759719849,-837627.5300979614,-537690.0434494019,603234.3506813049,26883.527636528015,298387.736082077,373862.3857498169,185446.8584060669,3933293.8194274902,-6125359.058380127,51989.75279927254,1095121.5028762817,747350.27551651
0.05,19236644.744873047,21857259.75036621,20141012.19177246,9292067.527770996,12282036.781311035,7715389.251708984,13618414.878845215,13614258.766174316,11585291.862487793,11448998.45123291,8624267.578125,5127307.415008545,-2794963.836669922,-1583573.341369629,27990390.77758789,5386925.220489502,13625948.905944824,6387754.440307617,2041721.1055755615,3622549.295425415,-4778310.298919678,-11825139.045715332,-2387124.0615844727,55317565.91796875,11916405.67779541,6330979.824066162,4673822.87979126,6292896.270751953,-9942330.360412598,-14179069.519042969,-26625537.872314453,-2046960.8306884766,2667503.3569335938,939392.7454948425,2224895.95413208,205329.16486263275,190366.62578582764,-4980890.274047852,-8915226.936340332,-2181230.068206787,-756111.0258102417,31090887.06970215,6390391.826629639,2154567.003250122,-2755448.579788208,3410869.598388672,-5552625.65612793,311384.6182823181,-178853.04987430573,-175223.06740283966,7079101.085662842,7359796.524047852,8452480.31616211,2844727.7545928955,942738.6522293091,1075762.8679275513,661351.3827323914,12154245.376586914,1564286.8280410767,2937284.7080230713,1867101.3116836548,1286249.9952316284
0.055,17338056.564331055,18615194.32067871,16253108.978271484,6900670.528411865,8062643.051147461,5800929.069519043,12101414.680480957,12036411.28540039,9357142.448425293,8821990.013122559,4515295.505523682,161470.59202194214,-6958222.389221191,-5661297.32131958,27027265.548706055,4080005.168914795,12621140.480041504,7106725.215911865,886370.7184791565,2371715.307235718,-7476850.509643555,-17461252.212524414,-6417132.377624512,55643325.80566406,10847132.682800293,6076606.750488281,4870337.009429932,5943097.114562988,-11641304.016113281,-16350349.426269531,-30668214.797973633,-5846548.080444336,2454733.6101531982,2579008.8176727295,3813981.056213379,2068804.7409057617,644828.1407356262,-4958981.037139893,-11247256.2789917,-5074614.04800415,-3961791.0385131836,32616153.717041016,8006940.841674805,4471930.980682373,716455.9364318848,5709579.4677734375,-5412233.352661133,-2676743.507385254,-3259381.7710876465,-3146664.1426086426,8724064.826965332,9087364.196777344,10023406.982421875,5166181.564331055,-1968957.6625823975,-1844443.678855896,-2427173.137664795,13293418.884277344,3716943.5024261475,5329450.607299805,-1094693.1838989258,-1612542.0331954956
0.06,7753078.460693359,9163500.785827637,6875127.792358398,-1882755.0411224365,520106.7328453064,-2447486.162185669,4569613.456726074,4521722.316741943,2235298.6335754395,3060679.9125671387,-2260244.846343994,-5771351.8142700195,-12234214.782714844,-10620477.676391602,18656574.249267578,-3038951.873779297,7512670.040130615,4470942.497253418,-1755529.8805236816,-366825.72960853577,-11870754.24194336,-25118747.71118164,-11416041.374206543,48184398.65112305,4219254.016876221,1515824.0795135498,2264320.6119537354,5061607.360839844,-13037666.320800781,-18872920.989990234,-35989093.78051758,-10470640.182495117,-2303075.075149536,295057.0285320282,2335722.4464416504,1919988.3937835693,803379.4164657593,-3430146.9326019287,-13150271.41571045,-8402466.773986816,-7616464.614868164,29352855.682373047,6025988.1019592285,4016245.8419799805,2951948.404312134,7808490.753173828,-3845088.481903076,-6119987.010955811,-6892873.287200928,-6730961.322784424,6804639.3394470215,7344780.921936035,8098207.473754883,7126351.833343506,-5440050.6019592285,-5434851.64642334,-5929377.07901001,9146275.520324707,1646010.7564926147,7264659.881591797,-4620025.157928467,-4915976.047515869
0.065,4736803.05480957,5902897.357940674,3430178.642272949,-4493973.255157471,-1538487.5535964966,-4538955.6884765625,2165427.6847839355,2204240.322113037,-535289.3471717834,902146.1606025696,-4098308.563232422,-6030560.01663208,-11316653.25164795,-9505714.416503906,15179912.567138672,-5076482.772827148,5977178.09677124,1610990.8819198608,-3551496.744155884,-2188314.67628479,-12979007.720947266,-25233726.501464844,-10361963.272094727,44229690.55175781,2421958.9233398438,-595175.9219169617,693100.8696556091,4388736.724853516,-12388464.92767334,-19051315.307617188,-36545932.76977539,-9225467.681884766,-3031447.649002075,-652047.2168922424,1430053.2341003418,1002301.4545440674,525289.6547317505,-983589.0531539917,-11690299.034118652,-6586095.809936523,-5867934.703826904,29098541.259765625,6016832.8285217285,4304418.087005615,3171506.643295288,9344719.886779785,-1314500.331878662,-4203165.054321289,-5072015.285491943,-5075284.004211426,6832827.568054199,7457458.972930908,8069212.913513184,8607324.600219727,-3716260.4331970215,-3750348.3295440674,-4028350.830078125,8056347.846984863,1444178.4620285034,8663832.664489746,-2773870.7065582275,-2964398.6225128174
0.07,13080584.526062012,13937286.376953125,11322078.704833984,4304897.308349609,6445416.9273376465,1625191.9269561768,8970811.84387207,9046951.293945312,5948752.880096436,6126479.625701904,2932342.290878296,1479461.431503296,-3012139.5587921143,-1492940.902709961,19360986.709594727,1106747.8656768799,10888078.689575195,1825335.8602523804,-2326360.2256774902,-952101.7074584961,-7877814.769744873,-15192715.644836426,-2418298.7213134766,48364944.45800781,7916449.069976807,2545637.369155884,2129784.58404541,4736680.030822754,-9359009.742736816,-15867341.995239258,-30116495.13244629,-1600688.6959075928,1145104.5274734497,811757.9817771912,2241695.4040527344,605487.8234863281,117615.79662561417,436613.7385368347,-7594620.704650879,-75329.89978790283,824885.1299285889,30861881.256103516,8004144.668579102,5277352.809906006,1557392.0011520386,9063559.532165527,203620.13578414917,2307988.405227661,1632209.7778320312,1380899.0716934204,8788303.37524414,9246627.807617188,9796732.902526855,8430678.367614746,2623254.2991638184,2715180.1586151123,2542426.109313965,12355529.78515625,4063046.455383301,8468992.233276367,3688102.2453308105,3459711.5516662598
0.075,22122079.849243164,23894563.674926758,21707199.096679688,14881541.25213623,16903526.306152344,6397440.433502197,16895725.25024414,16948032.37915039,15158046.72241211,13929624.557495117,12379772.186279297,9686256.408691406,4013881.6833496094,4959486.00769043,22576831.817626953,7459070.682525635,16572523.11706543,4697622.299194336,691826.4627456665,2026633.2626342773,-1129240.7512664795,-5406282.901763916,3903871.2978363037,53262790.67993164,12567815.780639648,6363210.678100586,4369472.026824951,5594712.257385254,-6429951.6677856445,-12611422.538757324,-23122583.389282227,4097930.908203125,2727529.764175415,872954.1897773743,2436720.132827759,570205.03282547,-54512.664675712585,-674780.547618866,-5284021.854400635,3684917.688369751,4762070.655822754,28288463.592529297,7277785.778045654,4058698.1773376465,-785036.6830825806,6392477.512359619,-984889.0900611877,5703305.244445801,5307940.95993042,5050395.965576172,7959228.038787842,8151816.368103027,8717740.058898926,5813714.027404785,6086295.127868652,6267046.4515686035,6019361.972808838,15120668.411254883,4041942.596435547,5914143.085479736,6985435.009002686,6735197.5440979
0.08,21226152.420043945,24670587.53967285,23220983.505249023,15752303.123474121,19202054.977416992,2547102.928161621,17104682.92236328,17194227.21862793,17665382.385253906,17005931.854248047,14968541.145324707,10707795.143127441,2138212.4423980713,2786689.7583007812,18309507.369995117,6389201.1642456055,16811134.338378906,7379343.509674072,2565060.85395813,3829977.512359619,519906.4016342163,-6228504.180908203,1546907.0672988892,50703762.05444336,9696349.143981934,5760519.504547119,4512948.036193848,5996427.536010742,-6174234.867095947,-13213614.463806152,-23161128.997802734,1391452.0740509033,-2865816.831588745,-2737215.757369995,431991.9943809509,103305.61548471451,-13630.625791847706,-3640301.9428253174,-7411725.5210876465,38804.36345934868,1158827.6624679565,21540719.985961914,2636860.3706359863,404839.33687210083,-2542743.444442749,2919507.2650909424,-4253628.730773926,1668760.2996826172,1235664.963722229,1310234.3082427979,3220612.5259399414,3327035.1886749268,3952632.9040527344,2202952.3849487305,2299324.2740631104,2382088.8996124268,1960603.8331985474,10773776.054382324,-1356843.35231781,2346931.219100952,2823443.4127807617,2633200.4070281982
0.085,13782186.508178711,18038887.02392578,17231153.48815918,8629235.26763916,13721898.078918457,-5312238.2164001465,11547602.653503418,11745143.89038086,13254266.738891602,14936932.563781738,10676433.563232422,6253498.077392578,-4514628.887176514,-3708556.890487671,11033945.083618164,684602.5586128235,13115736.961364746,8677877.426147461,2723979.711532593,4008954.5249938965,-2673889.8754119873,-13646732.330322266,-5049584.865570068,43260623.931884766,3301619.7681427,2313112.97416687,3028399.4674682617,6148674.011230469,-7835715.293884277,-16603698.73046875,-28445682.525634766,-5053507.8048706055,-9936703.6819458,-6439272.880554199,-1539625.0486373901,-399810.3141784668,-19562.402740120888,-5950404.167175293,-11033396.72088623,-5887574.195861816,-4742959.499359131,18256021.49963379,-554977.0593643188,-1560012.5789642334,-2588771.8200683594,1520737.2903823853,-6841039.657592773,-4215520.38192749,-5004066.944122314,-4574776.172637939,19234.04075205326,197095.3345298767,912703.812122345,651247.7993965149,-3441979.40826416,-3440930.128097534,-4045408.248901367,3797482.967376709,-6688038.8259887695,786161.8995666504,-3104343.4143066406,-3219876.527786255
0.09,11181175.231933594,15248636.245727539,14941652.297973633,5087464.809417725,10764032.363891602,-7460239.410400391,9421104.431152344,9609737.396240234,10098782.539367676,13851837.158203125,8209218.0252075195,4964898.586273193,-5620953.08303833,-4549390.79284668,9621879.577636719,-1192856.788635254,12044797.897338867,9970246.315002441,3306319.47517395,4736160.2783203125,-4073486.328125,-15390657.424926758,-5843279.3617248535,41171859.74121094,2278388.500213623,1825002.4318695068,2840607.6431274414,7058203.69720459,-8367329.5974731445,-17639503.479003906,-30083209.991455078,-5558196.544647217,-9691944.122314453,-5012224.6742248535,-143190.9054517746,427253.5741329193,-109857.43999481201,-5692505.359649658,-11084643.363952637,-5682471.752166748,-4468905.925750732,22783317.56591797,2645528.3164978027,1599269.0324783325,-495492.3689365387,3516120.9106445312,-6558372.497558594,-3694795.3701019287,-4694722.1755981445,-4240859.031677246,3281341.314315796,3410370.111465454,4256369.590759277,2697707.414627075,-3039510.0116729736,-2860719.680786133,-3555262.327194214,2807997.226715088,-5327747.821807861,2862488.9850616455,-2506650.20942688,-2600186.586380005
0.095,17387126.922607422,21558195.114135742,21247455.596923828,10743695.259094238,15921413.42163086,-1357347.1307754517,14638350.486755371,14600251.197814941,13278316.497802734,17381332.397460938,12639392.852783203,10254595.756530762,1129025.1016616821,2253950.834274292,15917607.307434082,3409800.7678985596,15958322.525024414,12130775.451660156,5473003.387451172,7040592.670440674,-345738.023519516,-8466608.047485352,996804.2373657227,49111026.763916016,8605708.122253418,6068252.5634765625,5031154.632568359,8729582.786560059,-6660855.293273926,-14080918.312072754,-24553232.192993164,1321854.2337417603,-1823491.2157058716,1269852.876663208,4204439.163208008,2612058.639526367,-75236.80478334427,-3553505.4206848145,-6872431.755065918,1058304.1906356812,2242354.154586792,30418672.561645508,9691970.825195312,7586385.250091553,2472011.089324951,6948750.4959106445,-4167701.7211914062,3124561.309814453,2332174.062728882,2532876.491546631,10376336.097717285,10284116.744995117,11259067.53540039,6296903.610229492,3559792.0417785645,4005805.9692382812,3429245.2335357666,8683341.026306152,1023157.2389602661,6564562.797546387,4404821.872711182,4253341.6748046875
0.1,24820932.388305664,29736618.041992188,28376390.45715332,18434501.64794922,22825298.309326172,5765351.77230835,21031177.520751953,20749776.84020996,18620349.884033203,21775829.315185547,18725965.49987793,15940636.63482666,7592263.221740723,8601643.562316895,22995174.407958984,8589055.061340332,19975032.806396484,13401030.540466309,7420242.3095703125,8984309.196472168,4186947.822570801,-2108734.607696533,7243237.495422363,59816196.44165039,15297954.559326172,10291157.722473145,7143722.057342529,9880346.298217773,-4795802.116394043,-9745083.808898926,-18159723.28186035,7432223.320007324,5343099.117279053,6362270.832061768,7158015.727996826,3993166.923522949,132491.3054704666,-1928301.5727996826,-2822745.0847625732,6598224.639892578,7589941.024780273,33905265.80810547,13497154.235839844,10577007.293701172,3695505.380630493,8474316.596984863,-2406935.214996338,8432868.003845215,7987365.245819092,7998458.385467529,14197386.741638184,14000041.961669922,14984539.031982422,7860760.688781738,8818841.934204102,9232429.504394531,8948718.070983887,13804454.803466797,4538391.11328125,8173171.043395996,9723432.540893555,9434330.940246582
0.105,24480293.27392578,29827621.459960938,27218385.696411133,18042114.2578125,22727518.08166504,5347898.960113525,20466548.919677734,20196525.57373047,19041999.81689453,21522562.02697754,18739372.25341797,15359356.880187988,7251684.665679932,8136372.5662231445,23380712.509155273,7998530.387878418,18655368.80493164,11601217.269897461,7072974.681854248,8550981.521606445,4433706.283569336,-3160809.5169067383,6718178.272247314,62533569.3359375,15412581.443786621,9531408.309936523,6352442.264556885,9737908.363342285,-4696039.67666626,-9190636.63482666,-17462907.791137695,6879047.393798828,5519374.370574951,5527441.97845459,5534980.773925781,2707441.3299560547,258093.26767921448,-2029072.2846984863,-2550904.2739868164,5889828.681945801,6743936.061859131,31710842.13256836,11164527.893066406,8060241.69921875,1835789.0844345093,7062012.195587158,-2647435.6651306152,7580111.026763916,7240015.983581543,7271708.965301514,11888200.759887695,11878781.31866455,12687769.889831543,6359096.050262451,8145263.671875,8216582.298278809,8165575.981140137,12767445.56427002,1916917.6816940308,6540040.969848633,8843131.065368652,8414840.698242188
0.11,15992788.314819336,21318326.950073242,19416107.177734375,9013017.654418945,16313949.584960938,-3556302.785873413,12821697.235107422,12805227.279663086,13713981.628417969,17063377.380371094,12992715.835571289,10411194.801330566,3702607.1548461914,4482794.284820557,16798591.61376953,2336172.8191375732,13013468.742370605,7641832.8285217285,5327591.896057129,6821054.935455322,1696812.391281128,-6842923.164367676,3286109.9243164062,55808418.27392578,9863990.783691406,4863211.154937744,3252539.3962860107,9189792.63305664,-5408924.579620361,-11573990.821838379,-20342426.300048828,3560221.4336395264,1240448.4748840332,695577.085018158,1208559.7515106201,-140036.76176071167,121236.03373765945,-2622090.1012420654,-4399436.950683594,2801173.210144043,3789726.495742798,27974882.125854492,6834071.636199951,3568905.830383301,-1229997.0388412476,5073794.841766357,-3446265.22064209,4619453.430175781,4187222.957611084,4266093.730926514,7570374.488830566,7825037.002563477,8399784.088134766,4394215.106964111,5379323.959350586,5218319.892883301,5162160.396575928,9111046.79107666,-1814177.393913269,4364787.578582764,5914865.493774414,5486700.057983398
0.115,6844285.011291504,12870874.404907227,14204007.148742676,185425.71365833282,11576086.044311523,-13850580.215454102,5705922.603607178,5928427.696228027,8293866.157531738,13867802.619934082,8560956.954956055,8130727.767944336,4212126.731872559,4925490.856170654,9734106.063842773,-2435376.8825531006,8848316.192626953,5029845.714569092,4830555.9158325195,6491780.757904053,817905.843257904,-5557886.600494385,4099967.4797058105,48691596.98486328,5309055.328369141,1537274.2414474487,1215009.6893310547,9435829.162597656,-4972491.74118042,-12344695.091247559,-20302164.07775879,4439509.868621826,-840776.7415046692,-2274330.1391601562,-1156255.0067901611,-1556392.1928405762,-69584.13124084473,-2002403.0208587646,-4276432.514190674,3702015.3999328613,4999568.939208984,26949010.848999023,5857533.4548950195,2171227.45513916,-2314409.9712371826,5345254.898071289,-2834888.696670532,5656915.187835693,5232941.627502441,5227035.999298096,6531270.503997803,6832405.090332031,7356312.7517700195,4887963.29498291,6411790.84777832,6383994.102478027,6189817.428588867,9438741.683959961,-1060662.7464294434,4768335.819244385,7034175.872802734,6777952.671051025
0.12,3796342.8497314453,11609180.450439453,16185445.785522461,-1244318.0084228516,12530941.9631958,-18106237.411499023,5090546.131134033,5380888.938903809,7334699.1539001465,14738573.07434082,9295396.80480957,10849540.710449219,9325988.76953125,10096278.190612793,8239863.395690918,-2487253.9043426514,9232931.137084961,5604200.36315918,6013864.994049072,7829977.035522461,2807265.281677246,-148516.07382297516,9422978.401184082,49268707.275390625,6091673.851013184,2165972.7096557617,2094532.0129394531,10173966.407775879,-3709632.396697998,-9943293.571472168,-16115470.886230469,9703462.600708008,1838358.0446243286,-419829.1301727295,425371.1402416229,-306652.2479057312,24528.67478132248,-377677.94728279114,-1416408.0619812012,8597490.310668945,10136967.658996582,29554964.065551758,8833920.4788208,4868274.688720703,-537380.8741569519,8059360.504150391,-1039701.9386291504,10490315.437316895,10236248.016357422,10123305.320739746,9409134.864807129,9559424.40032959,10304236.41204834,7805952.072143555,11081701.278686523,11311290.740966797,11051558.494567871,14318785.667419434,3003591.299057007,7760285.377502441,11896495.819091797,11833953.857421875
0.125,6031531.810760498,15353343.00994873,20579374.313354492,2353223.5622406006,14933843.612670898,-16461191.177368164,8441641.807556152,8714808.464050293,9093102.45513916,16215059.280395508,11398718.83392334,13791695.594787598,13268519.401550293,14192838.668823242,11372982.9788208,-89908.48064422607,11028378.4866333,7005763.053894043,6174844.741821289,7979806.423187256,4113789.5584106445,2731389.5225524902,13403777.122497559,54857231.14013672,9862701.416015625,3953065.872192383,3819477.081298828,10007101.058959961,-3864536.0469818115,-7782886.505126953,-12720659.255981445,13619438.171386719,5882012.367248535,3469152.9273986816,3279263.734817505,1722419.6195602417,409226.50694847107,698003.1132698059,868444.6215629578,12085819.244384766,13742510.795593262,33580394.74487305,12402467.727661133,8490338.325500488,2189648.151397705,11297988.891601562,179475.44157505035,13890413.284301758,13744659.423828125,13657540.321350098,12988888.74053955,13040534.019470215,14063694.953918457,11003570.556640625,14380562.782287598,14660255.432128906,14386940.956115723,18531185.150146484,5629685.401916504,11083052.635192871,15235247.611999512,15246604.919433594
0.13,6594354.629516602,16097208.023071289,20136249.542236328,2949430.7041168213,13114583.015441895,-16100175.857543945,8418242.454528809,8720873.832702637,8542333.602905273,13764247.89428711,9450608.253479004,11994487.762451172,12211516.380310059,13199421.882629395,12091032.028198242,-371873.1999397278,9473967.552185059,5610723.495483398,3150539.3981933594,4857157.7072143555,2232798.0995178223,488622.7548122406,12356260.299682617,55936916.35131836,10924942.970275879,2861479.9976348877,3089473.009109497,8442692.756652832,-6359108.924865723,-9325563.430786133,-13960670.471191406,12616892.81463623,6291742.324829102,4375302.314758301,3586382.3890686035,2107094.0494537354,748461.6041183472,630449.2354393005,-252507.0607662201,10915814.399719238,12618919.372558594,35373302.4597168,13677367.210388184,9855710.02960205,3990720.9873199463,13659392.356872559,153140.72370529175,12801853.17993164,12558839.797973633,12557796.478271484,14427636.14654541,14573610.305786133,15617979.049682617,13106027.603149414,13350998.878479004,13521292.686462402,13098926.544189453,18400407.791137695,5480566.024780273,13302947.998046875,14084906.578063965,14085807.800292969
0.135,737151.9207954407,9847025.871276855,13460883.140563965,-2880252.3612976074,7193429.946899414,-22212087.631225586,2411225.0804901123,2782676.2199401855,4141868.5913085938,8320068.359375,3575468.5401916504,6229486.465454102,7801542.75894165,8685892.105102539,5511502.742767334,-5066524.982452393,4579041.004180908,1462471.36592865,-1404751.6584396362,307692.5277709961,-1486767.6496505737,-3679323.673248291,8015707.015991211,48368568.420410156,7028948.783874512,-1124659.1806411743,-259010.88118553162,6606120.586395264,-9518580.436706543,-13653804.779052734,-18467342.376708984,8423629.760742188,1243801.3553619385,519273.87714385986,824180.543422699,773592.5316810608,790444.4932937622,220631.10768795013,-3811422.824859619,6971873.2833862305,8567070.007324219,32675937.65258789,12351442.337036133,8597124.099731445,4740123.271942139,14987996.101379395,-208539.06869888306,8976571.083068848,8546880.722045898,8513717.651367188,13276959.419250488,13627284.049987793,14380917.5491333,14147943.496704102,9615471.839904785,9773468.017578125,9069331.169128418,15271146.774291992,4714198.112487793,14486413.00201416,10291001.319885254,10290304.183959961
0.14,-7953659.0576171875,1288244.366645813,5651167.392730713,-9864517.211914062,2051777.3628234863,-31082946.77734375,-4029125.690460205,-3633319.37789917,-29737.064614892006,5316550.731658936,-1212815.523147583,1293103.4564971924,3500114.679336548,4276871.204376221,-4454020.023345947,-10273719.787597656,1151180.1481246948,-1279624.342918396,-3609718.3227539062,-1775878.90625,-4632517.337799072,-6682956.695556641,3759230.613708496,38594894.40917969,2054490.089416504,-4033528.3279418945,-2888715.0287628174,5881668.567657471,-11153785.705566406,-16973167.419433594,-22482593.536376953,4340442.180633545,-6154608.726501465,-4769360.542297363,-1917676.9256591797,-405185.43124198914,612831.6521644592,-31449.444591999054,-6654827.59475708,3585152.1492004395,4820111.7515563965,27456375.122070312,9879473.686218262,6509361.267089844,4906786.918640137,15081517.219543457,-357919.842004776,5521729.469299316,5005014.419555664,4833109.378814697,10860092.163085938,11346059.799194336,11790623.664855957,14087986.946105957,6152157.306671143,6405797.004699707,5553789.6156311035,12175745.964050293,4178244.113922119,14535927.772521973,6931217.670440674,6905432.224273682
0.145,-11381834.983825684,-1743060.2312088013,2675887.3462677,-10712399.48272705,1447109.9376678467,-34435646.057128906,-4108073.2345581055,-3755185.604095459,872993.1116104126,7866036.891937256,-1115462.5415802002,705334.6633911133,1270815.4916763306,2058093.0709838867,-8821872.71118164,-10751233.100891113,2803472.5189208984,822944.9987411499,-1728064.1794204712,155744.82083320618,-6352023.601531982,-8066186.904907227,1437857.6278686523,35786460.876464844,1545171.2608337402,-2643827.438354492,-2016989.7079467773,6504791.736602783,-10724770.545959473,-16986810.6842041,-23686338.424682617,2119846.820831299,-10080448.150634766,-6472325.801849365,-1608179.5692443848,-197133.8838338852,401908.5168838501,-660223.0668067932,-6916093.349456787,2144654.5124053955,2965632.915496826,24778570.1751709,8153662.68157959,5458487.987518311,4348308.563232422,13373190.879821777,-983148.8132476807,3883579.730987549,3422363.042831421,3206434.488296509,9105726.24206543,9534253.120422363,9966241.836547852,12438214.302062988,4454895.973205566,4696074.00894165,4011610.984802246,10254822.731018066,2574339.1513824463,12807703.018188477,5328003.883361816,5183375.358581543
0.15,-7015224.933624268,2494258.403778076,5820324.420928955,-5308653.831481934,4658047.676086426,-29871442.794799805,1736218.9292907715,2013604.4025421143,6450410.842895508,13085097.312927246,2713274.9557495117,3983507.1563720703,1678241.1336898804,2471896.8868255615,-4195235.252380371,-5998678.207397461,7680324.554443359,6303959.846496582,2107406.3777923584,3868504.524230957,-6621666.431427002,-7545891.284942627,1621443.8676834106,41191806.79321289,6128957.271575928,1896586.537361145,1326395.5116271973,7695291.996002197,-9137396.812438965,-14582872.39074707,-21947071.075439453,2237293.243408203,-7338099.956512451,-3308343.8873291016,1405991.6734695435,757753.312587738,179481.6255569458,-1969849.4672775269,-5261853.6949157715,2385228.8722991943,3097700.834274292,26848976.135253906,8058682.441711426,5799918.174743652,2941633.939743042,10117256.164550781,-2531502.4852752686,4015923.500061035,3650411.605834961,3591998.338699341,8973033.905029297,9186338.424682617,9876220.703125,9421472.549438477,4559519.290924072,4642725.944519043,4288304.805755615,9036886.215209961,-337247.1332550049,9522539.138793945,5352385.520935059,5082242.965698242
0.155,-1249768.4955596924,7795833.110809326,10863170.623779297,-923449.2182731628,7998510.837554932,-23565120.697021484,6606646.537780762,6798151.016235352,11184761.047363281,15856396.675109863,6067566.394805908,7757909.297943115,3951431.2744140625,4634162.425994873,3039374.589920044,-901447.2365379333,10937256.813049316,10467284.202575684,4520333.766937256,6120249.271392822,-5390835.762023926,-4830354.690551758,3638251.304626465,47393882.751464844,10731970.78704834,5462879.180908203,3746211.7671966553,8618036.270141602,-7463622.093200684,-12135598.182678223,-18864631.65283203,4033288.9556884766,-1242921.233177185,611908.9126586914,3921427.7267456055,1134853.3630371094,-102824.00995492935,-3175995.111465454,-3614769.458770752,3345851.6597747803,4301589.488983154,29521017.07458496,8269795.4177856445,6071473.121643066,1300171.8521118164,6760818.004608154,-4081513.4048461914,4997025.012969971,4656322.002410889,4810341.835021973,9103454.58984375,9148292.541503906,10049990.6539917,6294820.308685303,5477147.579193115,5488079.071044922,5344647.407531738,7970574.378967285,-3142661.8099212646,6189754.486083984,6122185.707092285,5885725.498199463
0.16,-820171.8330383301,8136632.919311523,12784200.668334961,-2901551.2466430664,8751223.56414795,-21583410.263061523,5981275.55847168,6088460.445404053,10840587.615966797,14809106.826782227,6309162.139892578,9011703.491210938,5687624.454498291,6287704.944610596,5191443.44329834,108655.02804517746,10398266.792297363,10734331.130981445,4361343.860626221,5928496.360778809,-3429626.226425171,-2013793.2300567627,5173768.520355225,47958019.2565918,10909625.053405762,5431760.787963867,3475347.7573394775,8879809.379577637,-6430507.659912109,-11287855.14831543,-16987054.8248291,5364758.491516113,1768158.5550308228,639755.6662559509,3599643.7072753906,598197.4005699158,-320344.12026405334,-3343170.404434204,-3271065.2351379395,3599735.736846924,4830473.899841309,27645586.013793945,6773021.697998047,4756556.987762451,322540.1043891907,4867101.669311523,-4367921.352386475,5295704.364776611,4891426.086425781,5081465.721130371,7454330.4443359375,7563162.326812744,8416458.129882812,4402689.9337768555,5586997.032165527,5743747.234344482,5615915.298461914,6911221.027374268,-5019172.668457031,4372572.898864746,6234209.060668945,6171213.626861572
0.165,-3835389.8525238037,5385695.457458496,11576379.776000977,-7801519.870758057,7919727.325439453,-22421897.888183594,2908277.988433838,2958819.86618042,7379930.019378662,13233404.159545898,4967565.059661865,8216202.735900879,5361072.063446045,6070048.809051514,3124006.986618042,-1954402.208328247,8353660.583496094,8960378.646850586,3279749.631881714,4910774.707794189,-1995182.3949813843,-1923508.644104004,4709955.215454102,44925376.892089844,8184119.22454834,3090957.4031829834,1933663.4874343872,8541839.599609375,-6273930.549621582,-11805741.310119629,-17429676.055908203,4871987.819671631,-121864.62432146072,-2550837.993621826,1614279.866218567,-15307.067893445492,-264358.3416938782,-2376766.2048339844,-3686076.4026641846,2711312.0555877686,4036272.0489501953,22850240.70739746,4274031.162261963,2691684.2460632324,537564.0392303467,5193817.138671875,-3175039.052963257,4503883.361816406,4015535.831451416,4025719.64263916,4844238.758087158,5182456.970214844,5840380.1918029785,4515354.633331299,4584900.379180908,4920708.656311035,4765303.611755371,6345703.125,-5772798.06137085,4737877.368927002,5393775.939941406,5422713.279724121
0.17,-3166546.8215942383,6320848.9418029785,12283508.30078125,-8077943.801879883,9102627.754211426,-21013162.61291504,3133496.2844848633,3150212.7647399902,6170328.140258789,14531698.226928711,5885808.944702148,9249605.178833008,5291248.321533203,6124326.705932617,3680536.2701416016,-2825052.499771118,7987406.253814697,8256564.140319824,3467521.905899048,5100646.018981934,-701147.2582817078,-3190383.6727142334,4476014.614105225,44818122.86376953,7311147.689819336,1561930.1795959473,1471150.0406265259,8066448.211669922,-6387188.911437988,-11759680.74798584,-17852884.29260254,4698994.6365356445,-2331802.6065826416,-3990887.16506958,1060978.0550003052,163737.41626739502,27362.847700715065,-779217.2431945801,-2941260.33782959,2614385.6048583984,4008791.923522949,21898696.899414062,4112513.542175293,2568832.3974609375,1928646.6836929321,7434979.9156188965,-1281046.6289520264,4654779.91104126,4118080.1391601562,3953700.304031372,4723142.623901367,5194619.178771973,5750887.870788574,6570866.107940674,4695261.9552612305,5015291.213989258,4924052.715301514,7393396.377563477,-4272125.244140625,6943632.125854492,5632450.580596924,5547547.817230225
0.175,2468291.0442352295,12646327.018737793,17967557.907104492,-2389958.8584899902,13771795.272827148,-17427530.28869629,7130295.753479004,7082464.694976807,8950479.507446289,18008697.509765625,10370083.808898926,14639959.335327148,8971168.518066406,9618557.929992676,8690174.102783203,-1100229.263305664,9469941.139221191,8877485.275268555,5206112.861633301,6716339.111328125,2163390.3980255127,-1017565.3696060181,7863780.498504639,49099071.50268555,9548213.005065918,2085510.015487671,2536123.514175415,8011870.384216309,-5811378.479003906,-9521657.943725586,-15076541.900634766,7981932.163238525,-1070234.4179153442,-1452262.6399993896,2978755.9509277344,1043596.5061187744,240601.59921646118,720026.433467865,-197113.499045372,5277073.860168457,6912327.289581299,26942258.834838867,7316101.551055908,5130722.999572754,3690656.6619873047,10033805.847167969,235903.5164117813,7582559.585571289,7015039.443969727,6926141.262054443,8036785.125732422,8409536.361694336,9035724.639892578,9169839.859008789,7742456.436157227,7904993.057250977,7939784.526824951,10214472.770690918,-143201.97701454163,9490921.974182129,8659491.539001465,8399134.635925293
0.18,5967911.243438721,17914321.899414062,24473600.387573242,2313128.2329559326,18284946.44165039,-16893167.49572754,9687652.587890625,9536524.772644043,11671114.921569824,19747402.19116211,14747760.772705078,21140462.87536621,15126490.592956543,15338109.016418457,12085168.838500977,245335.653424263,10298679.35180664,8486494.064331055,6512168.407440186,7845549.1065979,6008405.2085876465,5542701.721191406,13676718.711853027,52419040.67993164,11452185.63079834,3102404.3560028076,3535984.754562378,8335964.202880859,-4749909.8777771,-6214848.518371582,-9985563.278198242,13451502.799987793,1147650.957107544,1483474.4930267334,5147151.470184326,1810532.2122573853,182962.00037002563,1189954.8768997192,2547133.684158325,9053543.090820312,10979868.88885498,32136898.040771484,10233063.697814941,7564436.912536621,4558905.124664307,11022031.784057617,471314.1918182373,11337160.110473633,10735946.655273438,10931092.262268066,10997174.263000488,11162144.660949707,11941500.663757324,10255855.560302734,11581061.363220215,11672336.57836914,11783434.867858887,12707299.23248291,3628766.0598754883,10456820.487976074,12403307.914733887,12112075.805664062
0.185,1526484.6086502075,15789013.862609863,24994251.251220703,-359432.6674938202,17477476.119995117,-21825429.916381836,6841037.273406982,6642689.7048950195,9792587.280273438,17114122.39074707,14094565.391540527,22506902.69470215,18252014.16015625,18266912.46032715,8890947.341918945,-1564000.2489089966,8620472.90802002,5738065.242767334,5087011.814117432,6274507.522583008,7132172.584533691,10884090.423583984,16727874.755859375,50499816.89453125,10232565.879821777,2662320.375442505,2891579.3895721436,8163265.228271484,-4724215.030670166,-5017663.478851318,-7145215.98815918,16192016.6015625,-2582.730958238244,885428.7266731262,5168037.891387939,1943826.43699646,39176.76582932472,433918.92313957214,2627666.473388672,10352801.322937012,12335849.76196289,32083126.068115234,9685954.093933105,7424278.259277344,4383316.993713379,10459952.354431152,-400156.6767692566,12291301.727294922,11723797.798156738,12085704.803466797,10484996.795654297,10515316.9631958,11439981.460571289,9789683.34197998,12517971.992492676,12691383.361816406,12766506.19506836,12945375.442504883,3823653.6979675293,9909453.392028809,13274061.20300293,13086852.073669434
0.19,-7676650.524139404,8048178.672790527,18930057.525634766,-8529882.431030273,11258805.274963379,-28586208.34350586,429840.23690223694,317473.8883972168,3784303.1883239746,11611452.102661133,8320918.083190918,17330297.470092773,16311061.85913086,16694318.771362305,1844372.9877471924,-5635303.020477295,5119763.8511657715,1953780.2934646606,787619.948387146,1920468.807220459,3656284.3322753906,10035312.65258789,15243268.966674805,45622863.76953125,7213367.938995361,623425.0068664551,608253.8962364197,6720616.340637207,-6354615.211486816,-7084325.790405273,-8682357.788085938,14740934.371948242,-3594704.1511535645,-1915167.6893234253,3425438.165664673,1652864.0985488892,83924.39782619476,168215.96026420593,681240.4990196228,9307834.62524414,11046212.196350098,29349411.010742188,8142978.668212891,6465024.471282959,4842527.866363525,11238502.502441406,-435340.67273139954,10935263.633728027,10544676.780700684,10736618.041992188,9113861.083984375,9153898.239135742,10145110.130310059,10731952.667236328,11203000.06866455,11453844.07043457,11408408.164978027,12530889.511108398,2420927.7629852295,10765793.800354004,11940719.604492188,11801045.417785645
0.195,-14132733.345031738,1721748.70967865,12865955.352783203,-15156888.008117676,5452986.240386963,-33077766.41845703,-4900651.931762695,-4871696.472167969,-1915538.5494232178,7199181.079864502,2819824.695587158,11439586.639404297,13972911.834716797,15005228.042602539,-3784197.8073120117,-9469305.992126465,1841881.1559677124,-860739.7675514221,-3862655.8780670166,-2632577.1808624268,-807265.8181190491,5620096.683502197,13695263.862609863,42156391.14379883,4902536.869049072,-1826399.564743042,-2028632.8792572021,4493066.787719727,-7907048.225402832,-9551951.40838623,-11316598.892211914,13513929.36706543,-5137799.263000488,-3101254.70161438,1879843.5926437378,1235542.0589447021,276180.9229850769,2592772.0069885254,302508.1753730774,10114633.560180664,11524578.094482422,29492378.23486328,9863449.096679688,7766363.620758057,7033020.01953125,15345516.204833984,2359459.400177002,11762889.862060547,11605392.456054688,11487562.17956543,11056902.885437012,11257349.014282227,12138053.894042969,15095863.342285156,12228898.048400879,12427450.180053711,12251971.244812012,14643511.772155762,4240504.264831543,15015714.645385742,12989932.0602417,12735945.701599121
0.2,-15278908.729553223,361100.435256958,12262668.60961914,-16742063.522338867,5068439.483642578,-35827720.642089844,-7161208.152770996,-7081404.685974121,-4167754.650115967,6277630.32913208,2252933.7406158447,10705800.05645752,15665962.219238281,17039712.90588379,-7801436.424255371,-12413230.895996094,41492.003947496414,-2322793.960571289,-6007576.942443848,-4541120.529174805,-1333949.4466781616,3981025.9342193604,15927590.370178223,39953094.482421875,3192778.5873413086,-3917676.6872406006,-3841664.5526885986,2996222.0191955566,-7378341.6748046875,-9208999.633789062,-11303764.343261719,15969097.137451172,-4032308.578491211,-2836390.495300293,887054.3241500854,429813.5042190552,337805.1519393921,6965328.216552734,2936272.8595733643,14250406.265258789,15505832.67211914,31629577.63671875,13237367.630004883,10047065.734863281,8821655.2734375,19840999.603271484,6886082.172393799,16115905.76171875,16047956.466674805,15851443.29071045,14434862.13684082,14903213.500976562,15489256.858825684,19733406.06689453,16777156.829833984,16873495.10192871,16625007.629394531,18432098.388671875,8500826.835632324,19621673.583984375,17601074.21875,17178144.454956055
0.205,-14126331.329345703,1870989.3226623535,15653663.635253906,-15504423.141479492,8760199.546813965,-38734695.43457031,-7499416.351318359,-7471046.924591064,-3385931.0150146484,8011285.781860352,5486726.2840271,13884202.95715332,18814617.156982422,19984146.118164062,-12536108.016967773,-14948871.612548828,-285458.86278152466,-2995459.3181610107,-5141544.342041016,-3477790.594100952,1590914.6070480347,6234059.810638428,18979261.39831543,36404308.3190918,904828.0119895935,-5531279.563903809,-4436346.530914307,3187982.5592041016,-5584443.092346191,-7109672.069549561,-9826031.684875488,18904138.565063477,-4222794.055938721,-4492875.576019287,-621273.934841156,-902440.9055709839,172976.98557376862,9275880.813598633,5322844.505310059,17023479.461669922,18391254.425048828,30089992.52319336,12359618.186950684,8998345.375061035,7196075.916290283,19500349.044799805,9064976.692199707,18994459.15222168,18803190.231323242,18807279.586791992,13301134.10949707,13964976.31072998,14288213.729858398,19247276.306152344,19636850.357055664,19732336.044311523,19485900.87890625,18807249.069213867,8408313.751220703,19262535.095214844,20507604.598999023,20033676.147460938
0.21,-12866788.864135742,3668671.3695526123,18385795.59326172,-14181388.854980469,11570609.092712402,-40435844.42138672,-6936886.310577393,-6941648.483276367,-1360140.6812667847,10266838.073730469,8086178.779602051,15396322.250366211,17972335.815429688,18702684.40246582,-16264537.811279297,-16301095.962524414,387561.172246933,-2705092.430114746,-3023034.8110198975,-1413420.31955719,3053441.5245056152,7550998.210906982,17626792.907714844,32230644.22607422,-1073955.4166793823,-6387177.94418335,-3955051.6605377197,4465641.021728516,-5258702.754974365,-6975916.385650635,-10513656.616210938,17293025.970458984,-7537626.74331665,-8279788.017272949,-2366474.8668670654,-1884921.7891693115,-18413.154408335686,6932979.106903076,4004769.3252563477,14009222.984313965,15647968.292236328,24260442.73376465,6376619.338989258,4325469.017028809,3145462.989807129,13864933.967590332,6519032.955169678,15939003.944396973,15550019.264221191,15728023.529052734,7098597.049713135,7685089.111328125,8026215.553283691,13363625.526428223,16379673.00415039,16580034.255981445,16378646.850585938,13511507.987976074,1485316.8725967407,13549944.877624512,17205493.927001953,16836957.931518555
0.215,-10676556.587219238,5826685.428619385,19155315.399169922,-12682511.329650879,11684087.753295898,-39012371.06323242,-5429538.726806641,-5400864.601135254,876226.7231941223,12183172.225952148,8475881.576538086,13774754.524230957,13593285.56060791,14070097.923278809,-15510381.698608398,-15559015.274047852,1397901.2966156006,-1122104.8831939697,-1117933.8693618774,196721.73261642456,1325744.867324829,5284033.298492432,12827097.89276123,30242195.12939453,-1318426.251411438,-6335274.696350098,-2839534.5211029053,5561594.486236572,-6934476.852416992,-9320129.39453125,-13095376.968383789,12434146.881103516,-11161314.010620117,-10476585.388183594,-2683423.2807159424,-1497808.4564208984,-48125.4979968071,2460096.597671509,597195.6253051758,8147579.193115234,9996688.842773438,20067642.211914062,1546221.375465393,967634.7374916077,1090734.1241836548,8501134.872436523,1933488.9650344849,10063467.979431152,9554943.084716797,9702803.611755371,2295410.15625,2618181.4670562744,3202944.278717041,7967661.8576049805,10354561.805725098,10619454.383850098,10459504.127502441,6992248.058319092,-5384768.962860107,8206252.098083496,11068542.48046875,10848896.980285645
0.22,-7529429.912567139,8971281.051635742,20630447.387695312,-10472512.245178223,12189034.461975098,-37351493.83544922,-3930760.145187378,-3890711.545944214,2828657.627105713,14406934.73815918,9457363.12866211,13618142.127990723,11942111.96899414,12395458.221435547,-12800815.58227539,-14485777.854919434,1719414.234161377,577917.3970222473,890112.4596595764,1917492.5088882446,636794.9843406677,3388130.1879882812,10985881.805419922,29252052.307128906,-1371202.5880813599,-6299460.411071777,-1860402.226448059,6109826.08795166,-7801084.995269775,-10255614.280700684,-13225127.220153809,10721094.131469727,-13125634.19342041,-9956173.89678955,-1715860.6052398682,-382158.69665145874,45831.05444908142,492570.161819458,-249259.44209098816,6334342.002868652,8199349.403381348,20365833.282470703,1884223.222732544,1639766.4546966553,2473424.9114990234,7799759.387969971,-104476.29541158676,8263448.715209961,7728897.571563721,7829867.839813232,2737615.8237457275,2961574.7928619385,3696520.5669403076,7426374.435424805,8594104.766845703,8796901.70288086,8644373.893737793,4557291.030883789,-5477181.911468506,7616825.103759766,9241088.8671875,9106061.935424805
0.225,-5751312.255859375,12528374.671936035,25171091.079711914,-8892163.276672363,16289920.806884766,-40980022.43041992,-4646782.398223877,-4665105.34286499,3953592.06199646,17374641.41845703,13718944.549560547,18684730.529785156,16363616.943359375,16735471.725463867,-15443835.258483887,-16295211.791992188,527556.8962097168,341177.64234542847,3618389.60647583,4575495.719909668,4793919.086456299,6730426.31149292,15146682.739257812,24919244.76623535,-4311602.592468262,-7620885.372161865,-1753093.8386917114,6718198.776245117,-5695148.944854736,-7132657.527923584,-8809871.673583984,14838504.791259766,-15809070.587158203,-10783092.498779297,-2082525.4917144775,-484286.21888160706,137874.91619586945,1869129.5385360718,2635589.361190796,10226906.776428223,12023766.51763916,20246129.989624023,3169957.160949707,2540214.776992798,3324417.1142578125,9559329.03289795,1160911.7984771729,12017242.431640625,11511681.55670166,11742344.856262207,3949512.9585266113,4387516.498565674,5023077.011108398,9215362.548828125,12455253.601074219,12589852.333068848,12399818.420410156,5422283.172607422,-2101318.597793579,9401953.69720459,13135190.0100708,13024044.99053955
0.23,-6573678.970336914,15777139.663696289,31687107.08618164,-9191619.873046875,22559494.018554688,-50166683.197021484,-8048835.754394531,-8104743.957519531,4031345.3674316406,19994310.37902832,19646047.592163086,26095764.16015625,22703609.466552734,22774324.417114258,-25048278.80859375,-21154762.268066406,-1809463.7393951416,-2227577.6863098145,5945492.267608643,7023540.019989014,11046955.108642578,13659641.26586914,20986143.112182617,17247890.47241211,-9713582.992553711,-10129177.09350586,-2457598.6862182617,7520473.480224609,-2585110.902786255,-2747143.268585205,-3412605.047225952,20300514.221191406,-21264429.092407227,-15606417.655944824,-4843856.334686279,-2265526.294708252,189822.13735580444,3135165.4529571533,5539217.948913574,14595132.827758789,16462911.605834961,15511208.534240723,386801.6004562378,-160999.25339221954,550789.4158363342,9347223.281860352,2314074.993133545,16122041.702270508,15702068.328857422,16098381.042480469,979085.1473808289,1652835.2499008179,2140902.9960632324,8789725.303649902,16514461.517333984,16775913.23852539,16508747.100830078,5137727.737426758,-2856562.614440918,9042400.360107422,17292207.717895508,17198308.94470215
0.235,-8780505.180358887,17591606.14013672,35773979.18701172,-10788968.086242676,25640155.792236328,-58688983.91723633,-11761037.826538086,-11768122.673034668,2959239.0060424805,19954412.46032715,22332334.518432617,29165508.270263672,24705318.450927734,24489435.19592285,-34374664.306640625,-25617725.372314453,-4134205.3413391113,-5460828.78112793,5540089.130401611,6785817.1463012695,13090201.377868652,17347606.658935547,22605697.631835938,11811650.276184082,-13475952.1484375,-12095105.171203613,-3217157.1254730225,7492324.352264404,-2256780.3859710693,-1894767.4036026,-1968861.8183135986,21573846.8170166,-26592262.268066406,-20456768.035888672,-7135899.066925049,-3590097.9042053223,194951.593875885,1874835.9680175781,5270994.663238525,14843294.143676758,16909116.744995117,10530121.803283691,-3349316.8354034424,-3299721.0025787354,-2501819.133758545,7691099.643707275,1022359.8480224609,16286182.403564453,15986751.556396484,16342866.897583008,-2806607.961654663,-2192077.63671875,-1658578.1574249268,6946953.773498535,16444614.41040039,17024976.73034668,16676763.534545898,2967374.563217163,-7197740.55480957,7208431.720733643,17358125.686645508,17266653.060913086
0.24,-12130234.718322754,14899255.752563477,32487583.16040039,-13274020.195007324,21356863.021850586,-62121849.060058594,-13879047.393798828,-13832569.122314453,116081.52836561203,15607996.940612793,18292646.408081055,24646976.470947266,21089065.551757812,20964511.87133789,-37452976.22680664,-27454418.182373047,-6064486.503601074,-8052362.442016602,1556059.718132019,2942845.582962036,8839968.68133545,13697488.784790039,19246126.174926758,11308196.067810059,-13578610.42022705,-12611794.471740723,-3766493.797302246,5832082.748413086,-5288025.856018066,-5298121.929168701,-5285872.936248779,18392782.21130371,-27715932.846069336,-20142608.642578125,-6138942.718505859,-2598040.5807495117,108633.66723060608,-82488.96151781082,3103307.4855804443,12308702.46887207,14388711.929321289,12034517.288208008,-1236719.4890975952,-1120067.5964355469,-594648.003578186,8978496.551513672,-880075.3355026245,13992914.199829102,13761053.085327148,13918927.192687988,-587751.6865730286,-215254.36639785767,507735.2523803711,8302660.942077637,13963767.051696777,14778664.588928223,14395557.403564453,2533543.586730957,-7108052.2537231445,8465237.617492676,15032552.719116211,14875910.758972168
0.245,-18250030.517578125,5606557.846069336,21342077.255249023,-17665105.81970215,11317893.028259277,-63440055.84716797,-15542994.499206543,-15518603.324890137,-4443632.125854492,8445264.81628418,9211545.944213867,15849458.694458008,15674860.000610352,16041044.235229492,-37654808.044433594,-28464092.254638672,-8105578.422546387,-10143197.059631348,-3733158.826828003,-2235966.444015503,2644992.8283691406,5862648.487091064,14724946.022033691,11083104.133605957,-12831647.872924805,-12746836.66229248,-4708330.154418945,3585555.7918548584,-8237475.395202637,-9213780.403137207,-10017088.890075684,14531851.768493652,-25726036.071777344,-16325231.552124023,-3717748.8803863525,-655253.3507347107,-60135.75941324234,87647.2145318985,2076135.8737945557,10860137.939453125,12570938.110351562,18131345.748901367,5862863.063812256,5113634.5863342285,4944810.390472412,13856392.860412598,-625686.1090660095,12834191.32232666,12573633.193969727,12624849.319458008,6549307.823181152,6829232.215881348,7672368.52645874,13376723.289489746,12912233.352661133,13631093.978881836,13260814.666748047,5277129.173278809,-196479.9463748932,13465529.441833496,14045476.913452148,13791986.465454102
0.25,-25774326.32446289,-5530813.694000244,9539608.001708984,-23332134.246826172,2458833.4560394287,-67490036.01074219,-18362907.40966797,-18351549.14855957,-8135999.67956543,3375439.8822784424,1260421.5145111084,9160043.716430664,12259998.321533203,13114945.411682129,-41412467.95654297,-30882249.83215332,-9992197.99041748,-11473011.016845703,-6503297.805786133,-4950353.622436523,-119652.8971195221,325425.74405670166,12189733.505249023,6448666.572570801,-14314806.938171387,-13586906.433105469,-6149534.225463867,2791328.191757202,-8026805.877685547,-10439821.243286133,-12901213.645935059,12496715.545654297,-25742595.672607422,-15624005.317687988,-4146100.5210876465,-702553.0338287354,-183834.969997406,1792624.4735717773,2541079.7595977783,11118049.621582031,12335562.705993652,19763692.85583496,8972954.750061035,7451685.905456543,6952071.189880371,16922204.971313477,1148596.8828201294,13090899.467468262,12765405.654907227,12886538.5055542,9546915.054321289,9913999.557495117,10750332.832336426,16536685.943603516,13482462.882995605,13891282.081604004,13516216.278076172,7193102.3597717285,4875474.92980957,16680458.068847656,14467967.03338623,14218884.468078613
0.255,-28746259.689331055,-8959885.597229004,6818317.413330078,-26316459.65576172,869316.9355392456,-73295501.70898438,-21125228.881835938,-20999744.415283203,-7740365.505218506,4576522.8271484375,-174234.16674137115,8200033.187866211,11152709.007263184,12086433.410644531,-48135662.07885742,-33602066.04003906,-10492796.897888184,-10694042.205810547,-4910465.717315674,-3386587.381362915,1341027.1406173706,-149611.90521717072,11285267.82989502,52048.48200082779,-17095397.94921875,-14547576.904296875,-6899859.428405762,3817853.4507751465,-5508328.914642334,-9549582.481384277,-13537885.665893555,11373845.100402832,-30312707.901000977,-20634561.53869629,-8039334.297180176,-3163571.834564209,-153565.25778770447,1969296.5745925903,2370685.577392578,10259662.628173828,11318277.359008789,12595611.572265625,2524296.283721924,1607359.766960144,1957424.8790740967,13473687.171936035,1358307.4808120728,12006559.371948242,11620940.208435059,11858865.737915039,3020108.699798584,3377694.3683624268,4202610.015869141,13090894.69909668,12525748.252868652,12768020.629882812,12323846.817016602,3457424.6406555176,-1070404.052734375,13297785.758972168,13237855.911254883,13131634.712219238
0.26,-24027351.37939453,-1757009.3870162964,14480469.703674316,-24232938.766479492,5378882.40814209,-76153526.30615234,-21777055.740356445,-21472993.850708008,-4188862.3237609863,10252892.49420166,4002672.6722717285,10892883.30078125,10008478.164672852,10617753.982543945,-52018699.645996094,-34580322.265625,-9796426.773071289,-8098550.796508789,-1144150.1379013062,281817.4362182617,3401221.0369110107,1179564.8336410522,9666021.347045898,-2551040.8878326416,-18896734.2376709,-14876453.399658203,-6153108.1199646,4573721.885681152,-4015969.2764282227,-9113361.358642578,-13800704.002380371,8986433.029174805,-36990104.67529297,-27214879.989624023,-11713550.567626953,-5446836.948394775,-11936.360970139503,-360903.38230133057,451524.555683136,6276391.02935791,7598924.63684082,2045218.9445495605,-8765156.745910645,-7656788.349151611,-5037659.168243408,5885586.261749268,-983081.2811851501,7926324.844360352,7442492.485046387,7738681.316375732,-8182849.884033203,-8031188.96484375,-7153959.75112915,5562869.071960449,8170990.943908691,8524888.038635254,8014337.539672852,-5887691.020965576,-16170606.61315918,5643901.348114014,8743655.20477295,8751093.864440918
0.265,-17609983.444213867,6823365.211486816,22421899.795532227,-21148225.784301758,8573380.470275879,-75645675.65917969,-21575868.606567383,-21193384.170532227,-2861715.793609619,13531923.294067383,7197178.840637207,11898494.720458984,6887257.099151611,7140231.132507324,-51630947.11303711,-35022636.41357422,-10400738.716125488,-7114779.949188232,510777.41384506226,1803077.220916748,2503463.5066986084,-488403.5885334015,6005270.957946777,-1521996.8557357788,-20467437.744140625,-15556260.108947754,-5270898.342132568,3141433.2389831543,-5352863.788604736,-10433363.914489746,-15704977.035522461,4738691.329956055,-42141681.67114258,-30925695.419311523,-12718338.012695312,-5694465.160369873,116506.71064853668,-2638220.5486297607,-2014303.9226531982,587754.487991333,2200500.249862671,-4438422.203063965,-16387071.60949707,-13101831.436157227,-7079287.528991699,999540.6866073608,-3294906.6162109375,2402782.201766968,1785780.906677246,2080491.304397583,-15682879.447937012,-15673315.048217773,-14762552.261352539,788930.7737350464,2253683.8054656982,2741400.4802703857,2288409.471511841,-15965310.096740723,-30059249.877929688,566553.5926818848,2914935.827255249,2838116.407394409
0.27,-18142431.259155273,6070830.821990967,20683570.861816406,-23026515.96069336,5322757.244110107,-76163787.84179688,-23643930.435180664,-23304321.2890625,-6867298.126220703,10348116.874694824,4511049.270629883,8378276.824951172,2494038.8202667236,2678979.6352386475,-51380241.39404297,-37551425.93383789,-13735157.012939453,-10304284.09576416,-1744540.3337478638,-603439.9271011353,-1294404.9835205078,-5627457.141876221,1536941.5283203125,-1633229.9709320068,-23759248.733520508,-17775255.20324707,-6169846.534729004,546379.5065879822,-8174297.332763672,-12674673.080444336,-19427944.18334961,370372.8914260864,-44361816.40625,-31924636.840820312,-12657996.17767334,-4957471.3706970215,160976.29070281982,-2223773.47946167,-3423382.9975128174,-3462956.190109253,-1923020.2436447144,-5388854.98046875,-17405136.108398438,-13132545.471191406,-3516286.849975586,2325601.33934021,-2904335.2603912354,-1451418.8766479492,-2121976.852416992,-1898282.1702957153,-16708482.74230957,-16538709.64050293,-15707098.960876465,2160746.3359832764,-1666656.9709777832,-1281586.2894058228,-1556118.2498931885,-21580751.419067383,-35620304.107666016,1670254.3497085571,-893314.3615722656,-1167740.9410476685
0.275,-25535619.735717773,-2864554.6436309814,11443998.336791992,-29182474.13635254,-1269874.2151260376,-79585166.93115234,-27664014.81628418,-27374137.87841797,-12386701.583862305,4528447.62802124,-1476603.2695770264,3227201.223373413,-306407.06419944763,81121.61606550217,-53820552.825927734,-41198204.040527344,-17292070.388793945,-15119299.88861084,-5084033.966064453,-4051882.266998291,-4699281.215667725,-9868686.67602539,-958284.2588424683,-4353152.275085449,-27475290.298461914,-20351638.793945312,-8301898.002624512,-285477.1912097931,-9781403.541564941,-14037215.232849121,-22629119.873046875,-1565036.7736816406,-44089496.61254883,-32272720.336914062,-13575882.911682129,-4919502.735137939,120954.31238412857,309608.22105407715,-3369602.680206299,-3788825.9887695312,-2618554.5921325684,-3866833.9252471924,-14895438.194274902,-11068209.648132324,657664.1201972961,6880772.590637207,-377344.2506790161,-1784448.6236572266,-2367797.1363067627,-2290128.707885742,-14284026.145935059,-13774601.936340332,-13112449.645996094,6713087.558746338,-1702553.7490844727,-1541205.4061889648,-1689967.7515029907,-21077018.73779297,-34824562.072753906,6137555.122375488,-990019.5002555847,-1334958.1956863403
0.28,-31527503.967285156,-9824503.898620605,5119497.776031494,-33101600.646972656,-4332879.543304443,-82594451.90429688,-29806608.200073242,-29543411.254882812,-13784854.888916016,2440396.785736084,-4283259.391784668,1591036.2005233765,456958.20450782776,1068958.044052124,-56466259.00268555,-42228958.12988281,-17677211.76147461,-16782508.850097656,-5529473.781585693,-4454526.424407959,-4741573.333740234,-9358805.656433105,30622.968450188637,-6492346.286773682,-28498989.10522461,-21041822.43347168,-9248444.557189941,1727131.6051483154,-8768164.63470459,-13263511.657714844,-22395799.63684082,-196917.04213619232,-42543148.040771484,-32183601.37939453,-14635233.879089355,-5332771.778106689,35003.308206796646,2340076.9233703613,-2238403.558731079,-1292465.4483795166,-405757.69543647766,-2377285.2420806885,-12432093.620300293,-9508682.250976562,1745406.985282898,9492577.55279541,1658362.627029419,542907.4764251709,82437.03097105026,34347.58633375168,-11849520.683288574,-11136059.761047363,-10612010.00213623,9400506.019592285,908893.7640190125,1014684.6771240234,798304.0809631348,-17279027.938842773,-34143165.588378906,8887947.082519531,1468295.4549789429,1230292.558670044
0.285,-31301366.806030273,-9702463.150024414,6503711.700439453,-31886280.059814453,-2005291.7003631592,-82633895.87402344,-28603736.877441406,-28417182.92236328,-11409953.117370605,4394529.342651367,-1898021.4595794678,4594456.672668457,3596001.8634796143,4270398.6167907715,-57314197.5402832,-40049133.30078125,-15642174.72076416,-14836476.32598877,-3053443.9086914062,-1770850.8968353271,-1769768.1188583374,-5109208.583831787,3086943.6264038086,-6523912.9066467285,-27075399.39880371,-20094181.060791016,-8423786.163330078,4364748.954772949,-5988317.012786865,-10615229.606628418,-18440973.28186035,2736401.081085205,-41592914.58129883,-31224699.020385742,-14299788.475036621,-5107254.0283203125,-21638.27233016491,2659474.6112823486,-404507.75623321533,1295118.5703277588,2200149.5361328125,-1969442.60597229,-11407280.921936035,-8647655.487060547,678545.4750061035,8379641.532897949,2013833.5227966309,2963179.349899292,2546992.301940918,2502207.9944610596,-10827970.504760742,-10180926.322937012,-9644967.079162598,8402105.331420898,3358590.1260375977,3578162.908554077,3194092.5121307373,-15082668.30444336,-37253223.41918945,8027997.016906738,3836890.697479248,3676424.980163574
0.29,-28323213.577270508,-6711624.1455078125,10780979.15649414,-29370458.602905273,1498191.8334960938,-81722023.0102539,-26970788.955688477,-26881778.717041016,-10085097.312927246,5425740.718841553,1536991.000175476,8432517.051696777,6211429.119110107,6794454.097747803,-58238574.98168945,-38237125.396728516,-14903646.469116211,-13303243.637084961,-1360429.286956787,119160.2423787117,1360062.0031356812,-1029401.6599655151,5462292.194366455,-7017063.140869141,-26519111.63330078,-19972087.860107422,-7920454.025268555,4951188.087463379,-3480973.482131958,-7703838.348388672,-13734548.568725586,4743393.421173096,-42671112.060546875,-30699556.350708008,-13478756.90460205,-4584267.616271973,11545.691639184952,2367618.3223724365,1647125.9593963623,2106547.1172332764,3166224.956512451,-3766442.060470581,-12318853.378295898,-8674803.733825684,-117909.11108255386,5623939.990997314,1800830.364227295,3651294.708251953,3223115.2057647705,3265796.899795532,-11850498.19946289,-11402617.454528809,-10705086.708068848,5569890.975952148,3952508.9263916016,4179325.1037597656,3752320.2896118164,-17269725.799560547,-43019874.572753906,5403357.50579834,4376401.424407959,4130943.2983398438
0.295,-26257133.48388672,-4735387.325286865,13080413.818359375,-28301479.33959961,3004342.555999756,-81586227.41699219,-26722269.05822754,-26606388.092041016,-10784815.788269043,3913878.6792755127,2551004.648208618,9916731.834411621,6935102.462768555,7354541.778564453,-60345287.32299805,-38537860.87036133,-16066984.176635742,-14027373.313903809,-2439476.0131835938,-967354.416847229,2794534.206390381,985743.2246208191,5908452.033996582,-9567775.72631836,-27545742.03491211,-21239248.275756836,-8893808.364868164,3561102.1518707275,-2641982.7938079834,-6058114.051818848,-11348972.32055664,4974127.292633057,-44961677.55126953,-32031776.428222656,-13967066.764831543,-4916496.753692627,69130.71870803833,2548550.1289367676,3051551.103591919,1346041.7985916138,2429415.464401245,-7896687.984466553,-15318358.421325684,-10451405.52520752,-347558.02154541016,3455426.2161254883,2060687.3035430908,2785268.0683135986,2326855.6594848633,2417315.4830932617,-15063121.795654297,-14740306.854248047,-13890128.135681152,3052499.771118164,3007512.5694274902,3053951.7402648926,2756996.3932037354,-22275129.318237305,-48685642.24243164,3099905.490875244,3275299.310684204,2935071.2299346924
0.3,-22893375.396728516,-1418434.500694275,15006684.303283691,-25430828.094482422,4311958.789825439,-79397819.51904297,-25106281.280517578,-24831920.623779297,-9202746.391296387,4115754.1275024414,2997319.9367523193,10248050.689697266,6587987.899780273,6794666.767120361,-60361904.14428711,-37837787.62817383,-15490947.723388672,-13880708.694458008,-3815387.487411499,-2537014.4844055176,3187202.9304504395,1939964.5328521729,5121333.122253418,-11321516.036987305,-27033397.674560547,-21422744.750976562,-9468084.335327148,2338799.476623535,-3293665.1706695557,-5903842.449188232,-11546043.395996094,4181423.1872558594,-46018104.553222656,-34080368.04199219,-15208950.04272461,-5885195.255279541,16949.31648671627,2634430.170059204,3055683.374404907,-60855.25080561638,897190.3324127197,-12004423.141479492,-19205461.502075195,-13610926.628112793,-1234041.0947799683,1952342.15259552,2194400.7873535156,1347921.7290878296,769806.8022727966,866574.227809906,-19117488.861083984,-18763711.92932129,-17947319.03076172,1196527.123451233,1389423.8471984863,1352056.2648773193,1147814.5122528076,-26370626.44958496,-53069522.857666016,1278419.2562103271,1503152.7280807495,1241910.0999832153
0.305,-16225376.12915039,4943408.489227295,18981767.654418945,-18280393.600463867,7632229.328155518,-72721717.83447266,-19938467.025756836,-19580652.236938477,-3708988.666534424,8489407.539367676,5906736.373901367,11762666.702270508,6155542.850494385,6120791.435241699,-55465717.31567383,-33599575.04272461,-11409949.30267334,-10417762.756347656,-2707656.145095825,-1637536.883354187,3526535.749435425,2497037.172317505,4100783.8249206543,-8867280.960083008,-23697917.938232422,-19094018.936157227,-7901896.4767456055,2241179.4662475586,-4311905.384063721,-6550429.821014404,-12668568.61114502,3168473.958969116,-44681808.47167969,-34443092.346191406,-15224723.815917969,-6140176.773071289,-127518.1919336319,1782233.9534759521,1797536.015510559,-1693995.9526062012,-809631.34765625,-13362358.093261719,-21705320.358276367,-16065437.316894531,-2835790.8725738525,648966.0739898682,1423695.9218978882,-178903.59461307526,-980609.4765663147,-840429.7828674316,-21660459.518432617,-21191541.67175293,-20566825.86669922,-124295.1825261116,-481422.42431640625,-283803.16495895386,-616841.733455658,-27326978.68347168,-56177459.716796875,-283546.3881492615,-275358.4086894989,-374106.58597946167
0.31,-10694266.319274902,9688535.690307617,22248975.75378418,-11497131.34765625,11101155.281066895,-65349906.92138672,-14680117.6071167,-14438256.26373291,709710.1807594299,12651383.399963379,10099514.961242676,13614339.828491211,5853359.699249268,5661762.237548828,-48660835.26611328,-28700899.124145508,-7425071.716308594,-6471088.886260986,-572628.5576820374,369411.97514533997,3264749.28855896,1897254.1093826294,3479028.7017822266,-2959078.311920166,-20807868.95751953,-16433992.385864258,-5719270.706176758,1968202.9485702515,-4893712.043762207,-7446730.136871338,-13592272.758483887,2514346.122741699,-42104896.545410156,-32590839.385986328,-13835732.460021973,-5346659.183502197,-174218.19269657135,708760.8575820923,432728.26075553894,-2828141.689300537,-1864360.2132797241,-11858340.2633667,-21262279.510498047,-15929591.178894043,-3488364.2196655273,554882.5263977051,526759.922504425,-1163707.8523635864,-2092934.6084594727,-1914443.4928894043,-21188302.993774414,-20657394.409179688,-20148008.346557617,91880.35130500793,-1696095.585823059,-1155199.0509033203,-1731157.5412750244,-25333824.157714844,-57147758.48388672,-382770.299911499,-1172680.2587509155,-1240967.869758606
0.315,-11520654.678344727,8232345.5810546875,21198270.797729492,-10965956.687927246,11856766.700744629,-63328346.252441406,-14225242.614746094,-14134366.989135742,-452199.8465061188,11693542.48046875,12300475.120544434,13599361.419677734,6289029.121398926,6137919.4259643555,-45528583.52661133,-27449985.50415039,-7447431.0874938965,-6021146.774291992,-768401.5035629272,103942.52091646194,2042648.3154296875,654122.5910186768,4193613.052368164,2576687.0975494385,-21035615.921020508,-15913097.381591797,-5407001.972198486,345791.90611839294,-4935115.337371826,-8065700.531005859,-13886596.6796875,3295386.31439209,-39672325.134277344,-29898321.1517334,-12569087.028503418,-4496408.939361572,-50055.32130599022,879299.8194694519,375199.67555999756,-1808951.0202407837,-742708.683013916,-9285444.259643555,-18126699.447631836,-13149883.270263672,-1910662.1742248535,2844862.222671509,861065.7453536987,-120917.4245595932,-894413.0539894104,-798401.2365341187,-17991920.471191406,-17523862.838745117,-16911554.33654785,2667549.8485565186,-492863.32726478577,123512.06690073013,-545426.8455505371,-21646726.608276367,-54804088.5925293,2116349.935531616,232488.82591724396,79884.3502998352
0.32,-16127607.345581055,3822047.9488372803,17892406.463623047,-14698861.122131348,11019067.764282227,-66513069.15283203,-17530027.389526367,-17404727.935791016,-4276951.789855957,7884545.803070068,12634138.107299805,12692492.485046387,8483539.581298828,8500590.324401855,-46892696.380615234,-29073993.682861328,-9967521.667480469,-8084281.921386719,-2981575.9658813477,-2099213.8385772705,1692497.6110458374,1259880.6619644165,6949125.289916992,5035342.216491699,-21971982.955932617,-16505477.905273438,-6392373.085021973,-1653572.5593566895,-4475662.2314453125,-7363534.927368164,-12641985.893249512,6234698.295593262,-37424224.853515625,-27185255.05065918,-11730311.393737793,-4026423.931121826,58969.300240278244,2400940.6566619873,2238285.541534424,2030286.3121032715,3086193.084716797,-6416691.780090332,-13814788.818359375,-9173609.733581543,1122771.8591690063,6327173.709869385,2342846.155166626,3606215.476989746,3130293.846130371,3073643.922805786,-13574863.43383789,-13229961.395263672,-12429757.118225098,6137859.82131958,3604158.878326416,3986381.769180298,3457903.1467437744,-17888628.005981445,-50381790.16113281,5787381.649017334,4192038.5360717773,4065682.888031006
0.325,-17312711.715698242,3084615.2305603027,17089168.548583984,-15602770.805358887,11722480.773925781,-68541206.35986328,-18862337.112426758,-18556798.934936523,-4870635.032653809,7153139.114379883,13880377.769470215,13842002.868652344,11731910.705566406,11843880.653381348,-47917064.66674805,-29036153.79333496,-10558898.92578125,-8440412.521362305,-3487159.252166748,-2439278.3641815186,3881360.0540161133,4196521.282196045,10441741.943359375,4945560.932159424,-19733983.993530273,-15553858.757019043,-5972852.2300720215,-2245675.3253936768,-3621570.825576782,-4913289.0701293945,-9525856.971740723,9848647.117614746,-34733791.35131836,-23904895.782470703,-9877263.069152832,-3104169.3687438965,-2142.4139849841595,3975930.92918396,5217850.208282471,6428724.765777588,7438382.625579834,-2401016.9506073,-9754507.064819336,-5507166.385650635,3828612.3275756836,8379253.387451172,3685532.569885254,7932213.306427002,7567106.7237854,7485174.655914307,-9417963.981628418,-9131871.223449707,-8251564.025878906,7980365.753173828,8096609.115600586,8227416.9921875,7898252.487182617,-15654383.659362793,-47240310.66894531,7836380.481719971,8390171.05102539,8462073.32611084
0.33,-13255017.280578613,6635840.892791748,19003015.518188477,-11766194.343566895,13582404.136657715,-64960533.142089844,-15717967.987060547,-15299366.95098877,-2008529.4246673584,10002008.438110352,16033245.086669922,16555830.001831055,13282612.800598145,13362834.930419922,-44128215.78979492,-25664340.97290039,-8242959.022521973,-5941156.387329102,-931262.5527381897,381323.367357254,6631247.520446777,5743374.824523926,11906082.153320312,5254407.4058532715,-14649980.545043945,-13023274.421691895,-3625875.949859619,-1307227.373123169,-2976289.987564087,-2300290.34614563,-6611844.062805176,11295551.300048828,-31282165.52734375,-19709709.16748047,-6507864.475250244,-1259436.9649887085,-75569.47320699692,4862469.673156738,7713449.001312256,8235327.72064209,9316129.684448242,3265433.5498809814,-6214039.8025512695,-2606653.4519195557,5569540.977478027,8514858.24584961,4402747.15423584,9849324.226379395,9312768.936157227,9391098.022460938,-5904745.101928711,-5581515.312194824,-4700532.43637085,7991827.011108398,9908725.73852539,9964529.037475586,9719266.891479492,-14919341.087341309,-46538372.03979492,7865946.292877197,10079778.671264648,10302027.702331543
0.335,-8732411.38458252,9684514.045715332,19988016.12854004,-8080812.454223633,13354394.912719727,-57865509.033203125,-11444273.948669434,-11056170.463562012,-429527.07409858704,11452594.757080078,16027631.759643555,16899173.736572266,11809828.758239746,11910328.86505127,-36334365.84472656,-21838850.021362305,-5941890.239715576,-3278514.862060547,1639735.6986999512,3086686.849594116,6388903.1410217285,2959130.28717041,10582018.852233887,8730710.02960205,-10347388.26751709,-11318647.384643555,-1712741.732597351,-291754.5437812805,-3226699.5906829834,-1675113.7971878052,-6509153.366088867,9964622.497558594,-27187505.7220459,-15606896.40045166,-3449110.507965088,419855.2370071411,59611.36892437935,5559289.455413818,8771225.929260254,7395994.663238525,8635651.588439941,9347496.032714844,-2702194.4522857666,-136360.95821857452,6917383.193969727,8803151.13067627,5174530.029296875,9259099.960327148,8488526.344299316,8743297.576904297,-2525307.1784973145,-2154347.8965759277,-1222759.2468261719,8319424.629211426,9222781.18133545,9308563.232421875,9047716.14074707,-13632836.34185791,-45574802.39868164,8155496.597290039,9520058.631896973,9671297.073364258
0.34,-7468000.888824463,9916364.669799805,18963541.03088379,-8070814.13269043,10853861.808776855,-52553951.263427734,-9876296.043395996,-9540978.43170166,-1881266.474723816,9606961.250305176,13398015.022277832,13886215.209960938,9869310.37902832,10163702.964782715,-29740142.822265625,-20361894.607543945,-5524577.617645264,-2062990.665435791,1619430.0651550293,2915527.34375,3538896.083831787,-917216.3605690002,9222751.61743164,14523973.46496582,-8873389.24407959,-11526381.492614746,-1785872.3402023315,-50994.02368068695,-4045129.7760009766,-2775832.414627075,-8427246.09375,8691981.315612793,-23576723.098754883,-13297599.792480469,-2784944.772720337,541336.3575935364,271509.17053222656,6293606.281280518,8743193.626403809,6978046.417236328,8286942.481994629,13418065.071105957,279134.3927383423,1631978.988647461,7788424.491882324,10116921.424865723,6103753.089904785,9060152.053833008,8198789.596557617,8498929.023742676,426203.3700942993,797206.699848175,1748238.9211654663,9650858.879089355,9038569.450378418,9186958.312988281,8904741.287231445,-10692627.906799316,-42389900.20751953,9614292.14477539,9532981.872558594,9511379.24194336
0.345,-9045046.80633545,8858206.748962402,18084522.247314453,-10057822.227478027,9786485.67199707,-52789455.41381836,-11236359.596252441,-10872750.282287598,-3256828.0696868896,8416072.845458984,11852945.327758789,11817712.783813477,10861507.415771484,11358366.966247559,-29514554.977416992,-21120885.848999023,-6014949.321746826,-1162666.0823822021,507040.97747802734,1470829.3676376343,2440184.8316192627,62264.44989442825,10665612.22076416,17423627.853393555,-9736979.484558105,-12445739.74609375,-2746894.121170044,-56002.456694841385,-4265001.7738342285,-3131970.4055786133,-8587945.938110352,10143458.366394043,-22911859.5123291,-13829957.962036133,-4566851.1390686035,-835066.1993026733,209414.2585992813,6225346.565246582,8422071.45690918,8844172.477722168,10071903.228759766,13474878.311157227,772661.3283157349,1366987.8244400024,7063219.07043457,10396162.033081055,6098402.500152588,10962381.362915039,10141838.073730469,10410598.754882812,1127154.9463272095,1522650.2418518066,2238121.747970581,9803354.263305664,10858397.483825684,11174547.19543457,10862511.63482666,-8297417.640686035,-39587825.775146484,10006094.932556152,11468434.33380127,11383913.99383545
0.35,-12467616.081237793,7047815.799713135,17931968.688964844,-11783714.294433594,11773813.247680664,-58504489.89868164,-13726943.016052246,-13287850.379943848,-2676263.5707855225,10629181.861877441,13572763.442993164,13946785.926818848,14245665.550231934,14732935.905456543,-35935565.94848633,-22788444.51904297,-6463179.111480713,-183582.44001865387,827766.1800384521,1495685.10055542,5017234.325408936,5997786.998748779,13881828.308105469,13239219.665527344,-12215043.067932129,-13140141.487121582,-3224290.132522583,184349.6710062027,-3533202.886581421,-1645208.8356018066,-5590210.437774658,13166074.752807617,-26650793.075561523,-16568412.780761719,-7084497.928619385,-2384656.4292907715,-152963.45949172974,4950304.03137207,8020450.592041016,11215733.528137207,12339365.005493164,9866130.828857422,-1978850.9607315063,-1333398.699760437,4742029.666900635,8212276.458740234,4675737.8578186035,13153280.258178711,12420892.715454102,12697548.866271973,-1329314.2318725586,-785562.27684021,-527081.0723304749,7502007.961273193,12817796.70715332,13385494.232177734,12988190.650939941,-8991909.02709961,-40423473.3581543,7780721.187591553,13459980.964660645,13424803.733825684
0.355,-16101495.742797852,4663031.101226807,17543560.028076172,-12712662.696838379,13905137.062072754,-64207633.97216797,-15285056.114196777,-14813048.362731934,-2070065.0215148926,13442738.53302002,15962742.805480957,17419269.561767578,16137115.478515625,16466135.025024414,-42287475.5859375,-23906732.5592041,-7014674.663543701,-541282.7730178833,2126492.2618865967,2627975.2254486084,7833005.428314209,10332651.138305664,15306370.735168457,5721211.4334106445,-15227891.92199707,-13896396.63696289,-3430150.270462036,279514.1935348511,-2877968.0728912354,-42906.079441308975,-2733722.20993042,14410184.860229492,-31876321.79260254,-19033229.82788086,-8515292.167663574,-3056340.456008911,-409762.1440887451,3650576.35307312,7470782.279968262,11501506.805419922,12613589.2868042,6015094.28024292,-5207586.765289307,-4145053.8635253906,2949702.501296997,5769448.757171631,3142929.0771484375,13183555.603027344,12562265.396118164,12892052.65045166,-4424331.6650390625,-3664171.2188720703,-3707545.518875122,5155723.571777344,12762133.598327637,13413606.643676758,12939530.372619629,-11390126.22833252,-43053131.103515625,5238764.28604126,13394500.732421875,13373531.341552734
0.36,-14507041.931152344,6035090.446472168,18816732.40661621,-10725855.827331543,14121560.096740723,-61013656.61621094,-13186811.447143555,-12787487.983703613,-2285938.262939453,13956519.12689209,16502378.463745117,17833362.579345703,14674499.51171875,14933405.876159668,-39591846.46606445,-22147045.135498047,-6712028.503417969,-2024048.5668182373,2609621.047973633,3032658.100128174,7504659.652709961,8744106.29272461,13674592.018127441,4654127.12097168,-15981111.526489258,-14384222.984313965,-3713843.1072235107,29150.033369660378,-3071982.8605651855,76017.63308048248,-3286696.195602417,12889737.129211426,-32702259.063720703,-18643039.70336914,-8105257.987976074,-2915526.3900756836,-274577.6176452637,3567634.5825195312,7146601.676940918,9859812.73651123,11028611.183166504,5859197.616577148,-5290003.299713135,-4208700.180053711,3214915.2755737305,5781421.184539795,2891171.69380188,11437135.696411133,10915348.052978516,11287862.777709961,-4561419.486999512,-3718148.946762085,-3628479.480743408,5394953.727722168,11255841.255187988,11655859.94720459,11249972.343444824,-11753848.0758667,-43036643.981933594,5229716.3009643555,11836695.671081543,11771458.625793457
0.365,-3446884.870529175,15405039.78729248,24535142.89855957,-2981400.728225708,14725939.750671387,-45640483.85620117,-6010617.256164551,-5808213.233947754,-609789.1330718994,14307014.465332031,16973373.413085938,15918228.149414062,12263997.077941895,12574653.625488281,-26132944.107055664,-16109254.837036133,-3687321.662902832,-1910059.4520568848,2693395.6146240234,3083709.716796875,5584666.2521362305,4651543.140411377,11392658.233642578,14726251.602172852,-12349155.42602539,-13236840.24810791,-3280563.8313293457,144384.53316688538,-3509986.8774414062,-482966.21441841125,-5885600.566864014,10918137.550354004,-26554634.09423828,-15225573.539733887,-6445381.641387939,-2615246.295928955,-332.3487180750817,4034408.0924987793,7321555.614471436,8429607.391357422,9661395.072937012,9978311.538696289,-2391010.284423828,-1923509.7169876099,3985857.9635620117,7056676.387786865,3319053.888320923,10108782.768249512,9602066.040039062,9999499.320983887,-1722603.7979125977,-1045549.1542816162,-561767.041683197,6734306.335449219,10241659.164428711,10269041.061401367,10074833.869934082,-9177417.755126953,-40290527.34375,6536823.272705078,10716452.598571777,10689547.538757324
0.37,10295783.042907715,27118389.129638672,31141672.134399414,7269775.390625,17418315.887451172,-27465476.989746094,2470409.631729126,2413964.9868011475,3890039.4439697266,17196422.576904297,19333744.049072266,15455851.554870605,11615693.092346191,11912697.792053223,-10999938.011169434,-8826531.410217285,1157655.0006866455,568814.0988349915,3819926.2619018555,4211872.577667236,5102368.354797363,3372412.919998169,10755180.358886719,28763792.037963867,-6610792.636871338,-10408051.490783691,-1779923.0813980103,1033382.1773529053,-3519851.9229888916,-541569.4117546082,-7050481.31942749,10443975.448608398,-17594060.89782715,-11167793.273925781,-4875197.887420654,-2504051.923751831,-34440.82289934158,3416122.1981048584,7215789.794921875,8068133.354187012,9356968.879699707,15331789.016723633,102172.32257127762,-328520.11919021606,2927498.1021881104,6436356.544494629,2777328.4912109375,9840615.272521973,9270290.37475586,9687484.741210938,799534.022808075,1202276.2298583984,1938954.3533325195,5935648.9181518555,10056029.319763184,9943096.160888672,9900428.771972656,-6118158.81729126,-38637290.954589844,5906500.339508057,10385254.859924316,10551842.68951416
0.375,13234271.049499512,29266983.032226562,30883184.4329834,11232321.739196777,18976032.257080078,-20244142.532348633,5592942.714691162,5359044.551849365,6874442.100524902,19957334.518432617,20931299.209594727,16562242.50793457,11923954.010009766,12083764.07623291,-4887069.225311279,-5755348.205566406,3879402.3990631104,2174370.765686035,5100910.663604736,5505169.868469238,5244867.324829102,4412619.113922119,10914958.000183105,35328334.80834961,-3523496.389389038,-7921918.3921813965,-559147.6559638977,1769855.8568954468,-3714796.304702759,-895667.552947998,-6532737.255096436,10497094.15435791,-12324374.198913574,-8681134.223937988,-4191610.336303711,-2377187.728881836,-395842.5223827362,1671080.7085037231,5720935.821533203,7597819.805145264,8915966.033935547,18863637.924194336,600388.1692886353,-632150.9480476379,807745.9335327148,4147200.584411621,1150712.1324539185,9258667.945861816,8648993.492126465,9053968.42956543,1304620.9812164307,1589463.9492034912,2272027.4925231934,3517286.0622406006,9389366.149902344,9416716.575622559,9276481.628417969,-4339316.844940186,-38840835.57128906,3600864.4104003906,9593344.688415527,9968337.059020996
0.38,4442574.501037598,21652296.06628418,24786722.18322754,6796665.668487549,16897748.947143555,-24922340.393066406,2714626.5506744385,2459608.554840088,5073292.255401611,18652746.200561523,19076400.756835938,16315507.888793945,10880950.927734375,10926403.045654297,-7918921.47064209,-7521395.206451416,2956238.269805908,788037.5385284424,4653113.36517334,5086851.119995117,3600522.041320801,3683772.8023529053,9845714.569091797,31915307.998657227,-4291605.472564697,-7093654.632568359,-662080.705165863,1368818.998336792,-4858286.380767822,-2694184.0648651123,-7006419.658660889,9214565.27709961,-12895085.334777832,-7857611.656188965,-3996865.2725219727,-1963958.3826065063,-657209.6943855286,473435.75954437256,3132801.5327453613,5927115.917205811,7211631.774902344,19649459.838867188,532079.9350738525,-1114197.2541809082,460238.0096912384,3477280.378341675,30489.63099718094,7413908.958435059,6829243.6599731445,7172470.569610596,1107677.1020889282,1506190.4191970825,1996458.7688446045,3040450.096130371,7506354.331970215,7712764.263153076,7282375.335693359,-4036857.1281433105,-37781272.888183594,3008651.0181427,7706874.847412109,8091200.828552246
0.385,1770973.563194275,21136360.16845703,26124755.859375,4417178.630828857,16286239.624023438,-27371061.325073242,1783284.306526184,1558372.139930725,3029158.353805542,16013797.760009766,17973260.8795166,15420898.4375,9010972.97668457,8980772.972106934,-10446161.270141602,-8195823.669433594,2291737.5564575195,-394224.6735095978,3679916.1434173584,4244054.317474365,1813573.718070984,1283294.677734375,7946477.41317749,26681013.107299805,-5359003.067016602,-6658617.01965332,-853702.6047706604,488847.2557067871,-6036917.209625244,-4714017.868041992,-9108920.097351074,7074416.160583496,-16202827.453613281,-7936570.167541504,-3809469.223022461,-1568760.9910964966,-529277.2054672241,646121.2038993835,1138167.8581237793,3579938.6501312256,4826944.351196289,17337217.330932617,143152.44555473328,-1169173.3598709106,1920028.805732727,4993728.6376953125,238367.49792099,5116603.851318359,4546995.162963867,4831891.059875488,524147.6893424988,1057125.6875991821,1440941.4529800415,4926751.136779785,5184489.2501831055,5449684.619903564,4795700.0732421875,-6362941.265106201,-35354038.23852539,4646854.400634766,5543608.665466309,5703812.599182129
0.39,20186241.149902344,40808631.896972656,43984214.782714844,14164390.563964844,24333961.486816406,-16831693.649291992,9243444.442749023,8971616.744995117,7919901.371002197,18882417.678833008,24430253.982543945,18387052.536010742,9306095.123291016,9024655.34210205,-5800213.813781738,-3276301.145553589,5989210.605621338,2606051.6834259033,5481531.143188477,6314238.07144165,3939637.6609802246,1826062.3216629028,7715948.104858398,27244417.190551758,-3790118.69430542,-5054368.495941162,545259.3564987183,578080.2965164185,-5535435.676574707,-4641372.203826904,-10163553.237915039,6489695.072174072,-18309907.913208008,-8824162.483215332,-4134982.5859069824,-1913227.3197174072,-226729.43770885468,959650.6357192993,760541.7370796204,1975715.0411605835,3314508.6765289307,11775854.110717773,-2648713.8271331787,-2874875.783920288,1787198.4243392944,5152329.444885254,597968.6975479126,3745857.4771881104,3141725.540161133,3448677.3014068604,-2357282.4001312256,-1903970.0031280518,-1474660.2773666382,5239626.407623291,3677206.7546844482,3916443.8247680664,3306575.7751464844,-12146449.089050293,-35877029.41894531,4804682.731628418,4198591.232299805,4118868.350982666
0.395,49490768.43261719,69540039.0625,67897666.93115234,30716777.801513672,38308887.48168945,-284169.9719429016,20550853.729248047,20211793.899536133,18633373.260498047,27476320.266723633,36538818.359375,25569284.439086914,12574827.194213867,11830593.10913086,2273632.764816284,3802557.2299957275,12102031.707763672,7796713.829040527,10034287.452697754,11110411.643981934,9458145.141601562,6848503.112792969,10010511.39831543,31885927.200317383,-909800.8871078491,-3155514.4786834717,2746789.6938323975,1684235.4536056519,-3317281.484603882,-2514446.973800659,-8386086.463928223,8404618.263244629,-17827781.677246094,-10205910.682678223,-5460458.755493164,-3143718.719482422,-139966.7263031006,155308.38072299957,1286699.4142532349,1927348.3753204346,3482534.646987915,5566384.315490723,-7445431.709289551,-6707778.453826904,-1588020.2054977417,2002481.22215271,-184457.40640163422,3751686.8114471436,3133255.958557129,3551935.4343414307,-7058929.443359375,-6859626.770019531,-6292887.6876831055,1912666.3208007812,3576350.212097168,3723858.118057251,3387603.759765625,-17613958.35876465,-40124500.2746582,1524598.5984802246,4011547.565460205,3927115.4403686523
0.4,64275146.484375,82691879.27246094,77495033.26416016,39070220.947265625,45992382.04956055,7353050.708770752,25536094.665527344,25240516.662597656,25731874.465942383,33353397.369384766,43323257.44628906,30233541.48864746,15463545.799255371,14421173.095703125,6371647.357940674,6440475.4638671875,14881830.215454102,9313726.425170898,13092417.71697998,14136957.168579102,12639712.3336792,11314924.240112305,12291784.286499023,33933551.78833008,441416.97883605957,-3047118.1869506836,3397382.974624634,2467400.074005127,-1324766.0398483276,-823737.1444702148,-5815263.271331787,10605710.02960205,-15792639.73236084,-10744885.444641113,-6847248.077392578,-4361496.448516846,-307758.00347328186,-1120082.8552246094,1554541.7070388794,2847969.2935943604,4535361.289978027,3476346.969604492,-9770222.663879395,-9200053.215026855,-5243673.324584961,-1423436.164855957,-1576718.3303833008,4396073.818206787,3823627.9487609863,4364328.384399414,-9181902.885437012,-9149516.105651855,-8459986.686706543,-1732712.745666504,4376348.972320557,4334424.4956970215,4284067.630767822,-16934741.973876953,-42235477.447509766,-1949867.0101165771,4473084.926605225,4603157.520294189
0.405,54134754.1809082,71206390.38085938,66113311.767578125,33637706.7565918,40205116.271972656,2473721.742630005,21353857.040405273,21144937.51525879,23330635.07080078,30371297.83630371,38071437.83569336,26761648.178100586,14052567.481994629,13197200.775146484,5227198.123931885,3722498.1784820557,12352910.041809082,5779597.282409668,11917769.432067871,12635848.999023438,9907272.338867188,9741381.645202637,11192312.240600586,31538085.9375,-300890.9225463867,-4866985.321044922,2101229.9060821533,2312682.867050171,-1322929.02469635,-1467170.9537506104,-5766620.15914917,9835858.345031738,-14244128.227233887,-9823964.11895752,-6879317.283630371,-4546045.780181885,-415967.82207489014,-1539032.9360961914,1164983.630180359,2881624.698638916,4456896.3050842285,6593091.96472168,-7440450.191497803,-7851886.749267578,-5731007.099151611,-1794655.9190750122,-2229806.423187256,4129032.1350097656,3588897.228240967,4149134.635925293,-6710341.930389404,-6603401.660919189,-5914641.380310059,-2100673.198699951,4399572.849273682,4190443.515777588,4245604.038238525,-11079348.56414795,-38799724.57885742,-2169207.811355591,4256792.5453186035,4521934.986114502
0.41,33155075.073242188,49723659.51538086,46572414.39819336,23325284.957885742,27237388.610839844,-5678980.827331543,14501862.525939941,14226502.418518066,15836835.861206055,22498529.4342041,26541299.81994629,18048227.310180664,8270251.274108887,7855496.406555176,3064393.0435180664,231131.00230693817,8103594.779968262,1986367.5832748413,8674955.368041992,9075846.672058105,3885001.6593933105,2861935.85395813,6183140.277862549,28871528.62548828,-1959144.4730758667,-6713704.586029053,937230.1697731018,1952105.5221557617,-3431067.943572998,-4201624.870300293,-8998126.029968262,5242528.915405273,-14834080.696105957,-8970123.291015625,-5787226.20010376,-3745661.2586975098,-289886.86203956604,-1334182.0240020752,-12496.965937316418,393037.94503211975,1716745.0189590454,9838609.69543457,-4806517.601013184,-5513049.602508545,-3692040.9202575684,-458175.4505634308,-2150830.7456970215,1634317.7556991577,1063797.5931167603,1484019.39868927,-4138209.819793701,-3834120.512008667,-3285830.497741699,-634057.7006340027,1959725.7375717163,1824906.4683914185,1788053.8702011108,-8533644.676208496,-35306552.88696289,-669251.3227462769,1975777.1492004395,2082505.464553833
0.415,18956579.208374023,35594970.703125,33366306.30493164,17445011.138916016,17867137.908935547,-9820736.8850708,10713047.981262207,10254732.131958008,10726554.870605469,17382303.23791504,18671693.801879883,11341926.574707031,1951184.0343475342,1738387.3462677002,2233916.759490967,-1420420.76587677,5613153.457641602,1532475.8291244507,6472856.044769287,6882483.959197998,-1133167.8628921509,-3860991.7163848877,326223.1647968292,28952663.42163086,-3764930.486679077,-7360700.607299805,1249568.7007904053,1737530.7083129883,-6572940.349578857,-7661049.365997314,-13236423.49243164,-422659.87396240234,-17023344.039916992,-9502599.716186523,-5025928.020477295,-2792803.0490875244,-152289.61408138275,-1743549.3469238281,-2073311.5673065186,-3706355.571746826,-2557042.8371429443,8951238.632202148,-6212217.330932617,-5911781.787872314,-1837327.9571533203,-410997.6887702942,-2428477.7641296387,-2283566.951751709,-2871820.9266662598,-2679018.974304199,-5799973.964691162,-5378387.928009033,-4957892.417907715,-571687.1023178101,-2186896.800994873,-2033625.841140747,-2217966.5565490723,-13452565.19317627,-37326900.482177734,-698683.9175224304,-1781115.174293518,-1942866.9214248657
0.42,13644734.382629395,30555881.50024414,27895854.949951172,15287706.37512207,15059127.807617188,-11735959.05303955,8998165.130615234,8539404.86907959,9250361.442565918,16414297.103881836,16890289.306640625,9553909.301757812,-740651.0710716248,-1053830.9812545776,1381561.9945526123,-2933199.882507324,4432960.510253906,2113546.60987854,5080965.995788574,5793601.512908936,-3975260.7345581055,-6395322.322845459,-2258053.5411834717,29984256.744384766,-5064129.829406738,-7306096.55380249,1891137.5999450684,851509.7498893738,-9202570.915222168,-10130908.966064453,-15381346.702575684,-2924861.6695404053,-17666889.190673828,-9675900.45928955,-4732215.881347656,-2002442.3599243164,-271956.02655410767,-2521889.4481658936,-3879836.320877075,-5655973.434448242,-4552281.856536865,7402860.641479492,-8232374.19128418,-6982466.697692871,-265649.9445438385,-533135.0564956665,-2975716.5908813477,-4174344.062805176,-4693250.1792907715,-4652493.000030518,-8062497.138977051,-7643627.643585205,-7157800.197601318,-805003.8814544678,-4222221.851348877,-3887842.893600464,-4121552.9441833496,-18053195.95336914,-39718704.22363281,-1075399.7564315796,-3623737.096786499,-3802873.8498687744
0.425,9806739.807128906,26975255.966186523,24275573.73046875,12611114.501953125,14744752.883911133,-14362694.74029541,6925045.967102051,6753909.111022949,7941574.0966796875,15716941.833496094,16978103.637695312,10313541.412353516,1443155.6463241577,1128161.5495681763,-90090.23010730743,-5291689.872741699,3072047.233581543,287840.96240997314,3034861.5646362305,4017053.6041259766,-5044634.819030762,-4875969.409942627,201446.5630054474,29604116.439819336,-4666632.175445557,-7124838.352203369,1389690.0415420532,-985681.5338134766,-9721447.944641113,-9794908.52355957,-13814033.508300781,-248459.1156244278,-14280155.181884766,-6851873.874664307,-3513278.2459259033,-989249.050617218,-546508.9678764343,-1797366.3806915283,-3142201.1852264404,-2472599.0295410156,-1401311.0399246216,11373367.309570312,-4341556.072235107,-3738480.0910949707,2824379.9209594727,2763415.813446045,-2184366.7030334473,-1102496.2663650513,-1525328.6361694336,-1464589.4765853882,-4160969.2573547363,-3765042.0665740967,-3076020.4792022705,2432373.285293579,-968722.2242355347,-747307.7178001404,-919747.1141815186,-12581329.345703125,-33098182.678222656,2109584.331512451,-504958.3911895752,-413281.50033950806
0.43,5200283.050537109,22365858.07800293,21114883.422851562,10442702.293395996,14378001.21307373,-15740660.667419434,5763490.676879883,5852776.050567627,5759942.054748535,13936421.394348145,16545644.760131836,11335186.958312988,6192669.868469238,6177507.400512695,-551312.1485710144,-6459689.140319824,2217842.3404693604,-2710489.03465271,1418134.8085403442,2409378.76701355,-3773194.5514678955,-1678169.3696975708,5528043.270111084,28839550.018310547,-2704066.038131714,-6570974.826812744,182839.15519714355,-2354722.738265991,-7655457.496643066,-6430294.513702393,-9704975.128173828,5318252.5634765625,-8975641.250610352,-2242566.3471221924,-1242281.6753387451,147750.3925561905,-654373.4073638916,1072257.8763961792,664581.4776420593,4006385.326385498,4969482.898712158,19332500.457763672,4143381.5956115723,3052412.748336792,6660788.536071777,8831948.280334473,573847.4726676941,5308022.499084473,4879608.631134033,5065632.343292236,4612221.717834473,5009909.629821777,5749968.528747559,8542592.04864502,5732201.57623291,5738909.721374512,5600296.0205078125,488943.3681964874,-19180446.62475586,8367529.86907959,6004385.948181152,6318596.363067627
0.435,2824627.161026001,19662179.946899414,20704805.374145508,11355119.705200195,14713757.514953613,-14659850.120544434,6753472.328186035,6763270.854949951,4654232.025146484,13332921.028137207,16713979.721069336,12340031.623840332,9600171.089172363,9876714.706420898,-30389.61999118328,-5871101.856231689,2656358.9572906494,-3400760.4122161865,2136081.6955566406,2987121.343612671,-577215.9099578857,857180.8934211731,9359831.809997559,28994998.931884766,-2054965.7344818115,-5915409.564971924,-578040.7190322876,-1941933.6318969727,-4714832.782745361,-2756565.3324127197,-6478951.930999756,9115986.824035645,-7159595.012664795,-603815.1979446411,-188924.640417099,381963.43183517456,-555386.0068321228,4005727.2911071777,4556631.565093994,8395674.705505371,9179598.808288574,22629018.783569336,8314567.565917969,6517269.611358643,7798617.362976074,12223870.277404785,3442966.2227630615,9777447.700500488,9192459.106445312,9486283.302307129,9134683.609008789,9491183.280944824,9965556.144714355,11956808.090209961,10248387.336730957,10195993.423461914,9942289.352416992,9029794.692993164,-10663711.547851562,12052600.860595703,10502177.238464355,10779678.344726562
0.44,1985786.6764068604,18634754.180908203,21441562.65258789,12368546.485900879,15056436.538696289,-15411451.33972168,6775638.103485107,6512060.642242432,4563412.666320801,14061995.506286621,17104858.3984375,12549489.02130127,9303951.263427734,9533917.427062988,-1473113.8944625854,-6910609.722137451,2458042.621612549,-2014150.857925415,3872226.4766693115,4666525.840759277,1330777.0490646362,1300788.6409759521,9037320.137023926,28159530.639648438,-5564948.081970215,-6531589.984893799,-1153655.0521850586,-609660.9830856323,-3510185.0032806396,-2055706.262588501,-6727104.663848877,8554448.127746582,-11159542.083740234,-4147471.4279174805,-2033554.5539855957,-914657.5927734375,-557274.6992111206,4620553.016662598,5144718.647003174,7638375.759124756,8209886.55090332,17409524.91760254,3859235.7635498047,3176551.580429077,5129747.39074707,9926362.037658691,4183754.4441223145,9139775.276184082,8319991.111755371,8670627.59399414,4873691.082000732,5104870.796203613,5215057.849884033,9642129.898071289,9360123.634338379,9384130.477905273,8932914.733886719,6966310.977935791,-14363864.89868164,9892282.485961914,9695379.257202148,9878584.861755371
0.445,-1111440.3009414673,16068464.279174805,19154970.169067383,8961479.187011719,13017153.7399292,-21043437.957763672,2784416.675567627,2422203.302383423,3067687.0346069336,13045394.897460938,15290329.933166504,10660305.02319336,6457197.189331055,6456915.378570557,-5679244.9951171875,-11651026.725769043,-423769.474029541,-1967679.500579834,3382218.599319458,4197407.7224731445,-493877.112865448,-320111.0064983368,5997470.378875732,24813680.64880371,-11844844.818115234,-8782664.29901123,-2394702.196121216,-283725.1126766205,-4784419.059753418,-4213500.9765625,-9279604.9118042,5492642.402648926,-16702089.309692383,-8981859.20715332,-4973533.630371094,-2718307.2566986084,-811544.9547767639,3226665.735244751,2926326.9901275635,4259333.610534668,4673489.093780518,10610114.097595215,-2725649.833679199,-1867572.7844238281,2072461.6050720215,5690653.8009643555,3016146.659851074,5825106.143951416,4843072.414398193,5226409.435272217,-1718942.403793335,-1619043.5886383057,-1605079.7700881958,5498341.083526611,5738163.948059082,5829427.242279053,5293761.253356934,896890.8786773682,-22133419.036865234,5641580.104827881,6126535.892486572,6396545.886993408
0.45,-5378574.848175049,12848981.857299805,14681049.346923828,3650461.435317993,9320570.945739746,-26268819.80895996,-2005053.0433654785,-2253910.0646972656,261671.45371437073,9551960.945129395,11699162.483215332,7776134.014129639,4303775.310516357,4290943.145751953,-8103608.131408691,-16160013.198852539,-3967300.8918762207,-4119867.8016662598,570107.7580451965,1260853.1713485718,-3841262.102127075,-2459335.5655670166,3865948.9154815674,22760381.6986084,-15995872.497558594,-10511440.27709961,-3524176.1207580566,-1256512.16506958,-6796407.699584961,-5994592.666625977,-10617723.46496582,3708175.1823425293,-17423006.057739258,-9442489.624023438,-5561913.49029541,-3245318.4127807617,-1022838.5925292969,2098405.599594116,1412465.6915664673,2723036.527633667,3186820.9838867188,11080908.77532959,-2946277.141571045,-1855475.4257202148,2210255.6228637695,4935446.262359619,2032623.291015625,4326835.632324219,3401541.4714813232,3777283.191680908,-2080168.0088043213,-2014636.9934082031,-1756717.0858383179,4968847.274780273,4135627.269744873,4303078.651428223,3870636.224746704,-54416.02319478989,-22475162.506103516,4882455.825805664,4604245.662689209,4998816.013336182
0.455,-5609355.449676514,13142437.934875488,13215262.413024902,3274642.4674987793,7789931.297302246,-23720067.977905273,-1787169.5756912231,-1996767.282485962,-605035.9010696411,7142921.924591064,10042590.141296387,6844111.442565918,4669187.545776367,4942332.744598389,-4303644.180297852,-15217257.499694824,-4090328.2165527344,-5725014.209747314,-1146932.3635101318,-776685.5955123901,-4604805.946350098,-3298383.951187134,4432531.356811523,27026498.794555664,-15158450.12664795,-9474008.560180664,-2831437.110900879,-2132784.366607666,-7675036.907196045,-5442101.001739502,-9163148.880004883,4605607.032775879,-12187627.792358398,-4815282.821655273,-3039838.3140563965,-2029872.6558685303,-859219.3126678467,2356055.498123169,2287514.6865844727,4073078.155517578,4819923.400878906,18564210.891723633,3024099.111557007,2951195.9552764893,4790363.788604736,7838476.657867432,2245456.6955566406,5703979.015350342,5057476.043701172,5362133.979797363,3690876.245498657,3813886.1656188965,4367239.952087402,7988468.170166016,5704054.355621338,6021839.141845703,5725440.979003906,4851388.931274414,-15177910.804748535,7808142.66204834,6336135.8642578125,6608906.269073486
0.46,-1637212.9917144775,16363235.473632812,15786813.735961914,8247708.320617676,9467514.038085938,-15225584.983825684,2944648.504257202,2614496.946334839,1430210.2327346802,8111917.495727539,11588558.197021484,8386944.770812988,6413332.462310791,6963535.308837891,3007859.706878662,-10096002.578735352,-720189.9290084839,-5482227.325439453,7047.027815133333,165199.33938980103,-2335850.715637207,-2243898.630142212,6289287.090301514,35191112.51831055,-11714204.788208008,-6753758.907318115,-576776.5045166016,-2279888.62991333,-7328539.3714904785,-3871272.325515747,-6726177.69241333,6367600.440979004,-6159339.427947998,154511.31761074066,-181170.2996492386,-415513.8432979584,-462170.89891433716,2973427.0572662354,3700557.7087402344,5795280.456542969,6797245.979309082,25067029.95300293,8131253.242492676,6740705.0132751465,6369254.112243652,10075418.472290039,2639584.3029022217,7374964.714050293,7023027.420043945,7256914.138793945,8621918.678283691,8804514.88494873,9428475.379943848,10042734.146118164,7730448.7228393555,8133351.3259887695,7836383.34274292,9671249.389648438,-9278192.520141602,9965632.438659668,8453039.169311523,8443862.915039062
0.465,331959.0389728546,16782068.252563477,17434299.46899414,11429404.258728027,11057121.276855469,-10268939.018249512,5581733.226776123,5240860.462188721,2967931.5090179443,9867646.217346191,13202615.737915039,9812376.976013184,7490250.110626221,8034342.7658081055,6322988.510131836,-7298242.092132568,1642017.2452926636,-5737160.205841064,1763135.7908248901,2124950.408935547,-76952.5021314621,4567.793570458889,7295564.1746521,38500846.86279297,-10055917.739868164,-5790394.7830200195,727261.483669281,-2662156.581878662,-6688230.037689209,-3080375.4329681396,-5466216.564178467,6945458.41217041,-4718677.997589111,1004323.9593505859,291629.0760040283,131621.06275558472,-275656.3723087311,2753450.870513916,3606780.0521850586,5909909.725189209,6850753.7841796875,24871541.97692871,7945680.141448975,6076530.456542969,5560757.637023926,9036725.997924805,2162133.9321136475,7334176.063537598,7072590.351104736,7316436.767578125,8370357.513427734,8568448.066711426,9073320.388793945,8712672.233581543,7923912.525177002,8155971.527099609,7782578.945159912,10083416.938781738,-10275724.411010742,8763765.335083008,8490950.584411621,8413401.60369873
0.47,-2470635.8909606934,12850091.934204102,15476811.408996582,9159306.526184082,10707961.082458496,-13003558.158874512,3199597.8355407715,3113691.568374634,1736831.545829773,9509522.438049316,12821874.618530273,9870658.874511719,7470665.454864502,7751600.742340088,2860668.659210205,-9525553.703308105,413400.8288383484,-7902181.625366211,1784903.1686782837,2639883.9950561523,560330.3909301758,2311763.048171997,7077392.578125,33500263.214111328,-11276826.858520508,-7748188.9724731445,-276522.7258205414,-3822168.5886383057,-6196869.850158691,-2804620.2659606934,-5324902.534484863,6383399.963378906,-8075749.397277832,-1888353.1093597412,-1176040.768623352,-343594.5212841034,-441474.050283432,1968743.2050704956,2566689.4912719727,4999094.009399414,5662742.614746094,19575208.66394043,4370237.827301025,2966413.2595062256,4220812.3207092285,6561642.169952393,1301627.7551651,6259502.410888672,5909189.224243164,6196139.812469482,4833914.279937744,5045236.110687256,5450843.811035156,6202551.84173584,6777290.821075439,6681078.910827637,6343588.352203369,6502649.307250977,-15091993.33190918,6260967.254638672,7058533.668518066,7202667.236328125
0.475,-4264214.515686035,11030130.386352539,14358496.66595459,7186881.065368652,11446724.891662598,-16886547.088623047,1031941.7715072632,1203486.2041473389,771923.0055809021,8921871.185302734,13182422.637939453,10909158.706665039,7463310.718536377,7400412.082672119,-1899518.7282562256,-12150616.645812988,-1286707.5204849243,-9010912.895202637,1398344.5167541504,2585978.0311584473,1120661.2586975098,3822994.4705963135,6713713.645935059,27357069.01550293,-12563422.203063965,-9811067.581176758,-1712481.3795089722,-4570503.711700439,-5675348.75869751,-1967503.9052963257,-5180079.460144043,5964870.929718018,-12402854.919433594,-4703662.872314453,-2060070.0378417969,-687668.8599586487,-647116.482257843,1634908.91456604,2282240.629196167,4355258.941650391,4933519.8402404785,14283737.182617188,1289406.8956375122,949933.7673187256,4406850.814819336,5627614.974975586,1150090.6944274902,5568568.706512451,5142383.098602295,5394681.930541992,1797549.7245788574,2057083.1298828125,2455405.7121276855,5545728.2066345215,5834043.502807617,5567115.306854248,5375596.046447754,1579068.660736084,-18195703.506469727,5523808.95614624,5992088.317871094,6279562.473297119
0.48,714373.4693527222,16698772.430419922,18837602.615356445,11927767.753601074,16180835.723876953,-14606319.427490234,4533403.396606445,4651923.656463623,3969489.097595215,11748622.89428711,17291767.120361328,14894502.639770508,8250372.886657715,7882444.381713867,-1716274.0230560303,-10219215.393066406,525579.8101425171,-5875325.679779053,3195775.270462036,4310198.3070373535,2971003.293991089,4440960.884094238,6969952.10647583,28254341.12548828,-11382390.022277832,-9022927.284240723,-1069634.3183517456,-3764946.222305298,-4958459.854125977,-700192.391872406,-4730406.284332275,6281976.222991943,-14530234.336853027,-4701052.188873291,-1026535.3918075562,-249258.08608531952,-592105.5674552917,2037277.6985168457,3026043.41506958,4121309.280395508,4958906.173706055,12185101.509094238,316115.1111125946,1183505.5351257324,5918444.633483887,6576595.306396484,1794628.381729126,5431745.529174805,4982277.393341064,5144074.9168396,831609.5471382141,1131521.8210220337,1509409.6660614014,6763636.112213135,5539210.319519043,5377134.323120117,5219129.56237793,-1992365.837097168,-17716581.344604492,6665209.770202637,5819489.479064941,5908610.3439331055
0.485,9027578.353881836,25530654.907226562,26153427.124023438,20490755.081176758,22345312.118530273,-8128944.396972656,11178576.469421387,11032418.251037598,9766041.75567627,17111509.323120117,22973793.029785156,19660938.262939453,9505384.44519043,8935075.759887695,2696755.4092407227,-5267084.59854126,4727863.788604736,-550748.2290267944,6630024.9099731445,7468427.658081055,5086627.006530762,5053490.63873291,7754435.5392456055,34674461.364746094,-8507799.14855957,-6114746.09375,1285310.3876113892,-2344912.29057312,-4043895.721435547,229058.68291854858,-4128075.59967041,6998164.176940918,-13923200.607299805,-2395267.7249908447,880856.454372406,496551.2156486511,-360046.95296287537,2519926.3095855713,3796283.721923828,3943163.1565093994,5065677.642822266,13165490.15045166,994161.4270210266,2658759.355545044,7091960.906982422,7406289.577484131,2318374.1569519043,5389750.003814697,4846558.570861816,4995620.250701904,1550625.3242492676,1805910.4681015015,2095284.9388122559,7582825.660705566,5511538.028717041,5538542.747497559,5207698.822021484,-2339687.3474121094,-15146515.846252441,7445031.642913818,5951129.43649292,5736672.401428223
0.49,12203189.849853516,28488674.16381836,29245159.149169922,24192447.662353516,24759824.752807617,-4957939.147949219,13969019.889831543,13702722.549438477,12694289.207458496,20008705.139160156,25191268.920898438,21363533.02001953,10532455.444335938,9925975.799560547,5844866.752624512,-2507273.6740112305,6878899.574279785,1713189.1250610352,8366820.335388184,9064410.209655762,5910890.102386475,6573719.024658203,8720059.394836426,38705635.07080078,-6504259.10949707,-4065590.3816223145,2703275.680541992,-2256489.5153045654,-3095917.4633026123,732051.4917373657,-3159920.2156066895,7740473.747253418,-11298889.16015625,-41555.4903447628,1934050.440788269,800000.3099441528,-225262.3438835144,2321662.664413452,3955322.265625,3998286.008834839,5130839.824676514,15222308.158874512,2331427.3357391357,4027922.1534729004,6868614.673614502,6571128.845214844,1968414.545059204,5457785.606384277,4794126.987457275,5018637.657165527,2993286.371231079,3107030.8685302734,3347887.5160217285,6537466.049194336,5639067.649841309,5738571.1669921875,5259466.648101807,294285.47620773315,-12573145.866394043,6431588.649749756,6076407.432556152,5830310.344696045
0.495,7960535.049438477,23252637.86315918,25909652.709960938,20001417.16003418,22149988.174438477,-7253853.797912598,10995855.331420898,10869596.481323242,10404728.889465332,17778755.18798828,22443935.39428711,19235275.268554688,10872003.555297852,10403409.004211426,5312521.457672119,-3448578.8345336914,5620027.0652771,-596564.2929077148,6623445.987701416,7403773.307800293,5359272.9568481445,8319081.3064575195,9450906.753540039,37341373.443603516,-6405685.901641846,-3982648.8494873047,1894007.8020095825,-3744158.5063934326,-2685498.2376098633,951409.6975326538,-2178621.0536956787,8272628.7841796875,-7559269.905090332,968764.1859054565,1739559.7696304321,598722.1002578735,-272823.2741355896,1312904.8347473145,3579073.429107666,4429947.853088379,5446062.088012695,16406106.948852539,3339071.035385132,4531916.618347168,5682631.015777588,4611628.532409668,852541.8043136597,5721895.694732666,5158438.205718994,5387216.091156006,4075854.778289795,4031985.7597351074,4359285.831451416,4412693.500518799,5966274.261474609,6004402.160644531,5652653.694152832,3326428.6518096924,-11277160.64453125,4457317.82913208,6269339.561462402,6238929.748535156
0.5,2367712.0208740234,16166896.82006836,20676836.013793945,13698378.562927246,17829652.786254883,-9838242.530822754,7223788.738250732,7283315.181732178,6012103.080749512,13155420.303344727,17936552.047729492,15770583.152770996,10229933.738708496,9974829.67376709,3954414.8445129395,-4745172.500610352,3990044.593811035,-3570812.225341797,3271883.010864258,4205820.083618164,4078674.793243408,8261531.829833984,9310369.491577148,34939212.799072266,-6980369.567871094,-4313932.8956604,397879.83894348145,-5044335.36529541,-3475499.8683929443,484511.43503189087,-2541303.3962249756,8151972.770690918,-4190156.936645508,1083273.2915878296,1412236.5713119507,485893.8157558441,-345086.09771728516,155068.38262081146,2879927.396774292,4670405.387878418,5734734.058380127,16432830.810546875,3603156.328201294,4382761.9552612305,4924103.736877441,3347247.838973999,-259885.93697547913,5777765.274047852,5545323.848724365,5643484.592437744,4316562.652587891,4200669.765472412,4655681.133270264,3116480.827331543,6173480.987548828,6059380.054473877,6008279.323577881,4261963.844299316,-11160948.753356934,3345782.2799682617,6346616.744995117,6446429.252624512
0.505,1086694.9558258057,13276811.599731445,17937095.642089844,11787488.93737793,14772680.282592773,-8459479.331970215,7189882.278442383,7298154.830932617,3607161.7603302,10381582.260131836,14947456.359863281,13106249.809265137,8576389.31274414,8474165.916442871,4810752.391815186,-3638900.0415802,4567893.505096436,-3460736.9899749756,1392763.7338638306,2408313.274383545,2399382.8296661377,5542646.408081055,7928060.531616211,35505062.103271484,-6641042.709350586,-3632308.9599609375,300357.9080104828,-4832064.151763916,-5235666.275024414,-782217.9198265076,-4744858.741760254,7041399.955749512,-2721350.1930236816,1629424.9296188354,2192275.7625579834,1019095.0632095337,-278329.461812973,-222838.92333507538,2183046.817779541,4167791.8434143066,5362696.647644043,16664602.279663086,3824588.7756347656,4664206.981658936,5721957.683563232,3897242.784500122,-582972.5861549377,5312134.742736816,5249660.491943359,5261433.6013793945,4483589.649200439,4426371.5744018555,4881814.479827881,3688395.0233459473,5887050.151824951,5556531.90612793,5652922.1534729,2999067.0680999756,-10847449.30267334,3927818.775177002,5985507.965087891,6010243.892669678
