time,Fp1,Fpz,Fp2,AF3,AF4,F7,F5,F3,F1,Fz,F2,F4,F6,F8,FT7,FC5,FC3,FC1,FCz,FC2,FC4,FC6,FT8,T7,C5,C3,C1,Cz,C2,C4,C6,T8,TP7,CP5,CP3,CP1,CPz,CP2,CP4,CP6,TP8,P7,P5,P3,P1,Pz,P2,P4,P6,P8,PO7,PO5,PO3,POz,PO4,PO6,PO8,CB1,O1,Oz,O2,CB2
0.0,-732201.2186050415,-88193.76677274704,134397.02987670898,-750336.7066383362,-1224309.4444274902,-2188978.910446167,510443.15099716187,2005295.753479004,595678.6870956421,-451660.1860523224,-1141076.683998108,-680293.3216094971,-701404.2735099792,-673520.1478004456,-359128.9222240448,3823983.4308624268,1098642.2300338745,197086.96007728577,-1124441.385269165,-1243777.6327133179,-1172587.7523422241,-662045.5980300903,-1093038.3205413818,-1187673.568725586,-1888781.0707092285,995981.752872467,-1034746.0508346558,-1179423.6898422241,-302312.2549057007,-41915.62905907631,871911.883354187,-1453045.6066131592,-803960.382938385,-1546567.7976608276,819496.9296455383,1266609.787940979,-71678.81727218628,51300.74545741081,-54979.439824819565,760508.0604553223,1558971.881866455,424209.4159126282,-974565.0291442871,-952057.8384399414,1804324.2692947388,-624030.351638794,425843.08981895447,766333.3415985107,-1700163.2452011108,755861.8783950806,444209.486246109,753431.7970275879,1043193.5787200928,-565482.497215271,-388736.2778186798,-447205.0368785858,-1558837.7714157104,740082.5619697571,292042.61302948,-912250.5784034729,-354187.7567768097,-353219.9263572693
0.005,-12019555.09185791,-6629858.493804932,-8465471.267700195,1817142.2481536865,-30081502.91442871,-14064737.319946289,6974886.894226074,6633432.865142822,2085552.2155761719,-4103994.369506836,-21359901.428222656,-23020679.473876953,-23313543.31970215,-22525421.142578125,-4397186.756134033,4740891.456604004,6248091.220855713,-288500.99444389343,-7008431.434631348,-8507509.231567383,-7528163.909912109,-22818189.62097168,-21163846.969604492,-13006505.966186523,6378933.906555176,4826126.0986328125,282225.2810001373,-897026.4196395874,-4207911.491394043,-12388103.485107422,-6525794.506072998,-14662755.966186523,-2042322.8740692139,5077813.148498535,-112348.33300113678,1421984.4341278076,-1029255.0325393677,-11505311.965942383,-12735443.115234375,-21532386.779785156,-22167022.705078125,-3488337.993621826,-5942000.389099121,-5024481.296539307,-2850348.711013794,-5906912.803649902,-12633854.866027832,-22007957.458496094,-27617605.209350586,-26123861.31286621,-11616987.228393555,-8939112.663269043,-9777636.528015137,-4811313.152313232,-18506713.8671875,-18841453.552246094,-35232765.197753906,-8801874.160766602,-10566074.37133789,-10048567.771911621,-17748111.724853516,-18105716.705322266
0.01,-19379587.173461914,-12152201.652526855,-15320311.546325684,295095.0264930725,-44064346.31347656,-20120719.90966797,9629673.957824707,7920336.2464904785,407700.47903060913,-7051397.800445557,-30868984.22241211,-33620922.08862305,-34193305.96923828,-33083793.64013672,-7820052.146911621,5182327.2705078125,5079986.572265625,-2120774.269104004,-10195584.297180176,-12186181.06842041,-10856576.919555664,-33417400.360107422,-29098707.19909668,-19134042.739868164,6412322.998046875,3132009.0293884277,-1553267.5981521606,-1603188.9915466309,-6605711.460113525,-17342922.21069336,-11451439.85748291,-20932722.091674805,-3635893.1064605713,3185941.696166992,-4571151.7333984375,-416260.2424621582,-1469302.1774291992,-16120916.366577148,-17754201.889038086,-30873014.450073242,-31389081.954956055,-7701817.035675049,-11789178.848266602,-10809450.149536133,-5964983.940124512,-7727495.6703186035,-16889978.408813477,-29597122.192382812,-37513416.2902832,-37405033.111572266,-18876625.061035156,-15743028.64074707,-15636425.018310547,-6169541.358947754,-25328433.990478516,-25797309.87548828,-48145065.30761719,-13446002.960205078,-15995038.986206055,-13731574.058532715,-24147874.83215332,-24720872.87902832
0.015,-20963748.931884766,-15224144.93560791,-19476186.752319336,-3247525.215148926,-44158149.71923828,-16449777.603149414,11447654.724121094,8208232.879638672,-3235491.7526245117,-8762546.53930664,-30936203.002929688,-33896774.29199219,-34693248.7487793,-33692157.74536133,-6211901.664733887,9422438.621520996,1217436.3136291504,-3843116.7602539062,-10755408.28704834,-12564143.180847168,-11340758.323669434,-33859436.03515625,-27311309.814453125,-16864679.33654785,3328530.0731658936,-390921.53310775757,-4298600.673675537,-2572931.5280914307,-7686911.582946777,-15348455.429077148,-14014519.691467285,-21649377.822875977,-1511161.9234085083,-1516639.3518447876,-7847188.472747803,-1688500.8811950684,-1355368.4949874878,-14265310.287475586,-15639353.75213623,-28627946.853637695,-28552892.684936523,-8046515.464782715,-13857471.466064453,-13361177.444458008,-5705987.453460693,-5981309.413909912,-13332684.516906738,-23335313.79699707,-32760135.650634766,-34186946.868896484,-18190462.112426758,-16399896.621704102,-14693651.19934082,-4515495.300292969,-21500730.514526367,-21947183.60900879,-42260467.529296875,-11644131.660461426,-14371659.278869629,-11692895.889282227,-20241081.23779297,-20874616.622924805
0.02,-17885593.41430664,-15859639.167785645,-22080940.24658203,-4720592.975616455,-42840438.84277344,-4569501.876831055,16795404.4342041,11273223.876953125,-5584737.777709961,-9646836.280822754,-31083509.44519043,-34307369.232177734,-35209068.298339844,-34341129.302978516,3408262.4912261963,20813142.776489258,1964893.2218551636,-3230686.4261627197,-10987536.430358887,-12790632.247924805,-11586050.033569336,-34406471.252441406,-27262178.421020508,-8114311.218261719,6824277.877807617,867997.6463317871,-4078361.988067627,-2650229.9308776855,-9007026.672363281,-12986184.120178223,-16307617.1875,-23350889.205932617,7723447.799682617,1285691.3805007935,-4483319.282531738,514980.37576675415,-1093403.8162231445,-12157710.075378418,-13257228.85131836,-26149728.775024414,-26690475.463867188,-1960295.31955719,-8891562.461853027,-8540386.199951172,-2819059.6103668213,-3601167.4404144287,-9950879.096984863,-17145572.662353516,-27469867.706298828,-29607683.181762695,-11895394.325256348,-11660025.596618652,-10406084.060668945,-2319818.0198669434,-16664083.480834961,-17090579.986572266,-35420970.91674805,-6665845.87097168,-9366326.332092285,-8357005.1193237305,-15476728.439331055,-16124448.776245117
0.025,-13013370.513916016,-15891941.07055664,-25080352.783203125,-4239731.311798096,-46701698.303222656,8068619.728088379,23320257.18688965,15628104.209899902,-5664795.398712158,-10414469.718933105,-35566577.91137695,-39566631.31713867,-40472412.109375,-39459770.20263672,16082647.323608398,34179367.06542969,6724617.958068848,-773019.3734169006,-12229488.372802734,-14433131.217956543,-12926584.243774414,-39606327.056884766,-33004199.981689453,1711500.883102417,15046877.86102295,5501693.7255859375,-1845923.0661392212,-2163880.1097869873,-11118774.4140625,-14211812.019348145,-19088096.618652344,-27942052.841186523,19461027.145385742,9275596.618652344,1216163.6352539062,3533045.0534820557,-1040099.024772644,-13438367.84362793,-14638910.293579102,-28977697.372436523,-30520261.764526367,4886429.786682129,-2890818.1190490723,-2148706.4361572266,-1400827.169418335,-2814276.695251465,-10782739.639282227,-19190237.045288086,-29420557.022094727,-30907188.415527344,-7283234.119415283,-7776237.010955811,-8687718.391418457,-1516868.233680725,-16440200.805664062,-17029085.159301758,-36848262.786865234,-3632856.3690185547,-6545168.399810791,-7344046.115875244,-15307724.952697754,-16029323.57788086
0.03,-8744513.511657715,-15933000.564575195,-27783901.21459961,-3864065.170288086,-50003253.93676758,13846640.586853027,25180461.883544922,16768815.994262695,-4431610.107421875,-10208269.119262695,-38973453.521728516,-43908046.72241211,-44762836.45629883,-43476158.142089844,22720708.8470459,40069473.26660156,8836424.827575684,1079810.7385635376,-13157321.92993164,-15601233.48236084,-13792881.01196289,-43735904.693603516,-37650653.83911133,7210087.299346924,17519943.237304688,6731250.762939453,-1668904.185295105,-2095413.2080078125,-12172386.169433594,-16052658.081054688,-20271358.489990234,-30585096.35925293,24424871.44470215,11115432.739257812,831175.8637428284,2313775.5393981934,-1149401.6647338867,-15170783.042907715,-16620834.350585938,-31699363.708496094,-32786724.090576172,4746672.630310059,-4133316.0400390625,-3058327.1980285645,-3694226.9802093506,-2671226.978302002,-11955675.12512207,-23470577.239990234,-32558288.57421875,-33173400.87890625,-8648353.576660156,-9227532.386779785,-11108094.215393066,-1265887.8564834595,-17172994.61364746,-18068187.713623047,-39517009.73510742,-4142511.8446350098,-7528586.387634277,-7822031.497955322,-16089464.18762207,-16948221.20666504
0.035,-6162838.459014893,-13884850.50201416,-26947700.50048828,-2611114.025115967,-45856685.638427734,11376830.101013184,22051099.77722168,14233158.111572266,-2206406.593322754,-7159123.420715332,-35729045.86791992,-41400886.53564453,-42155834.19799805,-40828441.61987305,19972175.59814453,36243850.70800781,6474108.695983887,1552778.4824371338,-11695521.354675293,-13864995.956420898,-12097329.139709473,-41069236.755371094,-35662200.927734375,6509496.212005615,11568958.282470703,3415873.2891082764,-3872686.6245269775,-2021092.8916931152,-10005361.557006836,-14106528.282165527,-18048395.15686035,-27924034.118652344,19723184.58557129,4328953.742980957,-4895337.5816345215,-2787225.9616851807,-1175693.7503814697,-13169634.819030762,-14658183.097839355,-28729812.622070312,-28748485.565185547,-1439205.8849334717,-10840125.08392334,-9837815.284729004,-6398982.524871826,-1415783.0476760864,-9261862.754821777,-21191707.611083984,-29156242.37060547,-30656373.977661133,-12258663.177490234,-12717811.584472656,-13301106.452941895,-4538.755863904953,-14363740.921020508,-15452312.469482422,-36195285.79711914,-5320987.701416016,-9037730.21697998,-7331879.138946533,-13400069.236755371,-14361999.51171875
0.04,-5493281.364440918,-8761107.444763184,-21847520.82824707,1138073.3251571655,-37224567.41333008,5342723.369598389,19143190.383911133,11811336.517333984,631392.240524292,-1891076.922416687,-28669511.795043945,-34979118.34716797,-35604557.037353516,-34536548.61450195,12935326.57623291,30076379.776000977,4431701.66015625,2145941.972732544,-7995824.337005615,-9784238.815307617,-8270939.826965332,-34673652.64892578,-30909803.39050293,2171118.4978485107,5766182.899475098,892776.608467102,-4591407.299041748,-683512.7472877502,-5441115.856170654,-9610500.33569336,-14365388.870239258,-23702051.162719727,12362538.33770752,-1598575.1152038574,-7202007.77053833,-6255055.904388428,-1108430.8624267578,-8725546.836853027,-10062354.08782959,-23444784.16442871,-24569169.998168945,-5684079.647064209,-13557909.01184082,-12686188.697814941,-5654125.213623047,-305852.3237705231,-5316854.476928711,-14419087.409973145,-22169059.75341797,-26413749.69482422,-12591425.895690918,-12770298.00415039,-12032407.760620117,1021278.6197662354,-11019963.264465332,-12015247.344970703,-31831068.03894043,-4901240.825653076,-8477836.608886719,-6601433.753967285,-10202953.338623047,-11129324.913024902
0.045,-5973464.012145996,-3563482.5229644775,-16483861.923217773,5152874.46975708,-32287540.435791016,942939.1026496887,19507255.55419922,11709828.37677002,2326776.0276794434,1856013.6556625366,-24611219.40612793,-31473592.75817871,-32019622.802734375,-31196771.6217041,8500411.987304688,28748174.6673584,5663209.438323975,3648440.8378601074,-4478648.662567139,-6272545.337677002,-4852240.085601807,-31282779.693603516,-29453699.111938477,-1154989.7193908691,6667826.175689697,1428620.5768585205,-2280200.242996216,1640792.2506332397,-1877334.5947265625,-7851890.563964844,-12801458.358764648,-23018718.719482422,10338932.991027832,-196957.67760276794,-3020650.1483917236,-5394293.785095215,-1183926.4631271362,-7003344.0589904785,-8223071.098327637,-22584350.5859375,-26976533.889770508,-4361158.37097168,-9077668.190002441,-8069776.53503418,-3598181.0092926025,-2441935.0624084473,-5722006.320953369,-12683053.016662598,-20321968.07861328,-26465839.385986328,-10571766.85333252,-10399251.937866211,-10471785.545349121,-1173756.2417984009,-13127298.355102539,-13866978.645324707,-34418857.57446289,-4571181.774139404,-7762269.973754883,-8611275.672912598,-12351426.124572754,-13107474.327087402
0.05,-5504203.796386719,-1450843.095779419,-14393469.81048584,6543833.7326049805,-32659492.49267578,87959.38640832901,21535057.067871094,12713033.676147461,2171394.8249816895,2121998.5485076904,-24671171.188354492,-31617630.004882812,-32184226.989746094,-31336921.69189453,8989687.9196167,31457229.614257812,7606031.41784668,4816852.09274292,-2898069.6201324463,-4924369.335174561,-3352903.366088867,-31437704.08630371,-30181154.251098633,-670739.2930984497,10775754.928588867,1015735.7454299927,-329885.18476486206,3117633.104324341,-1294870.8534240723,-10615509.033203125,-13441129.684448242,-24567045.211791992,13698081.016540527,3741747.6177215576,892538.7263298035,-3636695.384979248,-1487342.357635498,-9758952.140808105,-10890931.129455566,-26119539.260864258,-32146217.346191406,-1795632.9584121704,-4307330.60836792,-3152401.2088775635,-5636115.074157715,-7651812.553405762,-10587452.88848877,-18818288.803100586,-25072984.69543457,-29835372.924804688,-11074324.607849121,-10895544.052124023,-13090243.339538574,-6401868.82019043,-19762002.94494629,-20330139.16015625,-41295455.93261719,-6450732.231140137,-9581685.066223145,-13183821.678161621,-18884231.567382812,-19463731.76574707
0.055,-2239139.3184661865,-922463.6554718018,-13771052.360534668,7253919.60144043,-32191547.393798828,1790480.2560806274,23641805.64880371,13855281.829833984,2759520.2922821045,2107749.9389648438,-23895183.563232422,-30353488.92211914,-30970975.875854492,-29962444.305419922,12005959.510803223,33107788.0859375,7931530.952453613,4775359.630584717,-2427525.9971618652,-4431382.179260254,-2730900.526046753,-30062311.17248535,-27850065.231323242,2093125.1049041748,12198696.13647461,-2888593.1968688965,-1590574.2645263672,2988546.133041382,-2254789.352416992,-13888503.074645996,-12879769.325256348,-23272146.224975586,16648553.848266602,3580907.8216552734,-1009646.2965011597,-4776615.619659424,-1767393.2313919067,-13103039.741516113,-14016396.522521973,-28296133.041381836,-31797853.469848633,-2158526.659011841,-5213328.3615112305,-4246381.759643555,-12038587.57019043,-11341129.302978516,-14275040.626525879,-25209592.819213867,-29196006.774902344,-30659158.70666504,-14458174.705505371,-14806011.199951172,-18121076.583862305,-10121460.914611816,-23541742.3248291,-24087039.947509766,-43043361.66381836,-8808522.22442627,-12394928.932189941,-15895058.631896973,-22515605.926513672,-23030269.622802734
0.06,2140205.6217193604,1111372.470855713,-11692514.419555664,10394186.973571777,-27498245.239257812,3854092.597961426,26041563.034057617,15582722.663879395,6178358.07800293,5353383.0642700195,-20082630.157470703,-26156961.44104004,-26757732.391357422,-25738580.70373535,13760936.737060547,31890949.249267578,8083086.013793945,4775423.526763916,-1513652.0862579346,-3206301.9275665283,-1585637.2117996216,-25805147.171020508,-22594041.82434082,3171212.1963500977,11172020.91217041,-6704506.874084473,-3959540.605545044,2462888.479232788,-2783635.8547210693,-13879919.052124023,-10200065.612792969,-19220893.85986328,16189579.010009766,456081.9864273071,-5260571.9566345215,-7720242.977142334,-1757733.3450317383,-13259435.653686523,-13920472.145080566,-27023962.020874023,-26288909.912109375,-3672661.304473877,-8688332.557678223,-8059108.734130859,-16917282.104492188,-10071914.672851562,-13334371.566772461,-25022186.279296875,-27769765.853881836,-27990825.653076172,-16105163.57421875,-17110691.07055664,-19704788.208007812,-8863840.103149414,-20961032.86743164,-21501581.1920166,-37782497.40600586,-8415277.481079102,-12440625.190734863,-13881703.37677002,-19801771.16394043,-20354202.270507812
0.065,3360859.3940734863,3256480.2169799805,-10079100.608825684,13493135.452270508,-23526264.190673828,4537506.103515625,28034379.959106445,17351528.16772461,9702473.640441895,9510322.570800781,-17510984.420776367,-23881105.422973633,-24408311.84387207,-23557474.13635254,12616367.34008789,30248332.977294922,9675783.157348633,6394998.073577881,-464191.4367675781,-1953868.03150177,-510621.42848968506,-23591161.727905273,-20121709.8236084,1509875.1783370972,11567516.326904297,-6199316.501617432,-3608833.3129882812,2622833.728790283,-3087351.083755493,-11721100.807189941,-8870516.777038574,-17860677.71911621,15263378.143310547,-464490.1156425476,-5672162.5328063965,-8870544.43359375,-1494142.770767212,-11184988.975524902,-11852461.814880371,-26032384.872436523,-23338094.71130371,-2833514.451980591,-8517938.613891602,-7954838.275909424,-15938106.536865234,-5908803.462982178,-10343765.258789062,-20723535.537719727,-24006393.432617188,-26659229.278564453,-13813110.3515625,-15086005.210876465,-16098865.509033203,-4608868.12210083,-16571023.941040039,-17025316.23840332,-32824291.229248047,-5470858.573913574,-9293076.515197754,-9767710.68572998,-15241166.114807129,-15868052.48260498
0.07,634512.7820968628,1968913.0783081055,-12234678.268432617,12357770.919799805,-25299806.594848633,4532790.660858154,28292467.11730957,17977079.391479492,9615118.026733398,9530777.931213379,-19523143.768310547,-26306234.35974121,-26786186.21826172,-26053037.643432617,11199878.692626953,30427370.071411133,11952020.645141602,9272518.157958984,-562059.6408843994,-2111886.978149414,-782092.034816742,-26023998.260498047,-22351711.27319336,1273934.245109558,14780496.597290039,-2062749.8626708984,-158989.68279361725,3117259.2639923096,-3747170.4483032227,-10227460.861206055,-10523736.953735352,-20298206.329345703,17580656.051635742,2246346.7121124268,-1814428.9255142212,-6998878.479003906,-1193064.3320083618,-9639987.94555664,-10550523.75793457,-27214900.970458984,-24830341.339111328,182319.07486915588,-4236957.550048828,-3487868.309020996,-11034404.754638672,-2993980.4077148438,-8729902.267456055,-18249452.590942383,-22306579.58984375,-28186950.68359375,-10510119.438171387,-11478359.22241211,-11130038.261413574,-1524914.8607254028,-15092124.938964844,-15423737.525939941,-32258247.37548828,-2826464.4145965576,-5926595.211029053,-7477630.138397217,-13554026.60369873,-14285786.628723145
0.075,-1016285.6578826904,-1260342.001914978,-15678319.931030273,9504048.347473145,-29269083.02307129,6247382.640838623,27943185.806274414,18343217.849731445,7669477.939605713,5871798.992156982,-22306451.79748535,-28623012.54272461,-29112329.483032227,-28305274.963378906,13657433.50982666,31916591.64428711,14096515.655517578,11663853.645324707,-1423208.3559036255,-3018294.095993042,-1752093.3151245117,-28154981.61315918,-23989353.17993164,6416386.604309082,19307844.161987305,2319496.1547851562,3578057.7659606934,3558186.0542297363,-3432767.391204834,-9191474.914550781,-10955446.243286133,-20063617.706298828,22148160.934448242,6178382.396697998,2416402.1015167236,-3671434.4024658203,-985126.4953613281,-8644829.750061035,-9627473.831176758,-26983659.744262695,-23914024.353027344,2695694.4465637207,-197257.75718688965,580434.9184036255,-6488622.188568115,-1891908.2880020142,-7864078.044891357,-17937448.501586914,-21391530.990600586,-27771751.403808594,-9257633.209228516,-9387046.813964844,-8236834.526062012,-333649.06907081604,-14829347.610473633,-15108434.677124023,-31455343.24645996,-1632436.5139007568,-4194321.155548096,-6744386.672973633,-13229193.687438965,-14088848.114013672
0.08,1403491.1394119263,-1957269.1917419434,-15575749.397277832,10052203.178405762,-28985790.252685547,9266557.693481445,28457366.943359375,19518535.614013672,7981087.207794189,3602003.335952759,-20962709.426879883,-26138322.830200195,-26669351.57775879,-25710853.576660156,18802902.221679688,32475891.11328125,15714966.773986816,12131373.405456543,-1685681.4622879028,-3139727.1156311035,-1928115.963935852,-25481449.127197266,-21201730.728149414,13253347.396850586,22764371.871948242,4685883.522033691,5132884.979248047,4300631.523132324,-1311422.4672317505,-7091559.410095215,-6883823.871612549,-13616269.1116333,24334682.46459961,8728406.90612793,4505459.785461426,-848297.5363731384,-905080.7952880859,-6830996.036529541,-7532950.878143311,-23067506.790161133,-17559446.334838867,2902288.1984710693,892056.0479164124,1388502.1209716797,-4018513.6795043945,-352123.3797073364,-5856178.760528564,-16232324.600219727,-18323457.717895508,-23087554.931640625,-10023054.122924805,-8976955.41381836,-7674200.057983398,1114712.119102478,-12637313.842773438,-13005861.282348633,-26814720.153808594,-1485999.8226165771,-3883810.9970092773,-5029121.875762939,-11290397.644042969,-12184165.000915527
0.085,1540939.3310546875,-2359892.3683166504,-14865386.009216309,10262638.092041016,-26948843.002319336,8459101.676940918,26880060.19592285,18536016.4642334,8203804.969787598,2854168.176651001,-18878217.697143555,-23578590.393066406,-24172157.287597656,-23162504.196166992,18981670.379638672,30117719.650268555,14192475.318908691,9914015.769958496,-2422444.8204040527,-3795762.062072754,-2522586.3456726074,-23013149.26147461,-18909721.37451172,12697627.067565918,22261278.15246582,3575673.3417510986,3677304.267883301,4791404.724121094,-214289.0989780426,-5268053.05480957,-3273162.603378296,-8424818.03894043,21652755.737304688,7923349.380493164,4181016.445159912,57464.76724743843,-989150.34532547,-5267329.692840576,-5729895.59173584,-19798633.575439453,-13565449.714660645,398029.088973999,-22845.09502351284,188980.3409576416,-3310247.6596832275,1788443.4461593628,-3962041.6164398193,-13135913.848876953,-15116958.618164062,-19974914.55078125,-11985692.977905273,-10013145.446777344,-9316579.818725586,3078899.621963501,-10781503.677368164,-11381942.749023438,-23361989.974975586,-3582907.4382781982,-5460741.5199279785,-2905049.8008728027,-9868469.23828125,-10601236.343383789
0.09,-8766003.608703613,-10589050.29296875,-22073982.23876953,924588.5014533997,-32451400.756835938,515965.1041030884,19171285.62927246,11449159.622192383,1346017.9567337036,-2737031.6982269287,-23952594.757080078,-29337295.532226562,-29978448.86779785,-29047992.706298828,10015508.651733398,24927057.26623535,6882118.225097656,5073688.03024292,-6630249.500274658,-8203022.003173828,-6672864.91394043,-29055707.931518555,-24035158.157348633,2365826.6067504883,16767137.52746582,-1434495.0914382935,-375779.06250953674,3195395.2312469482,-3465898.036956787,-6343563.556671143,-7269861.698150635,-13398297.309875488,17219354.6295166,3501311.3021850586,2014665.6036376953,-1609364.8672103882,-1195824.8615264893,-6204594.135284424,-6884571.075439453,-21928836.822509766,-19032630.920410156,-3571268.081665039,-741368.1745529175,-527021.1100578308,-4056428.909301758,2276113.271713257,-4583346.366882324,-12177670.4788208,-15905241.966247559,-24120033.264160156,-14601842.880249023,-12591224.670410156,-13164445.877075195,3484020.471572876,-13230358.123779297,-14089969.635009766,-26837102.89001465,-8892989.158630371,-9365677.833557129,-3259187.936782837,-12571567.53540039,-13081624.984741211
0.095,-24705865.85998535,-26251668.93005371,-36259677.88696289,-15223735.809326172,-45873374.938964844,-8596055.030822754,9262177.467346191,1781888.1273269653,-11466366.7678833,-14537031.173706055,-35071533.203125,-41046981.81152344,-41622772.216796875,-40800754.54711914,8047.053590416908,20126516.342163086,-2197949.6479034424,-219121.42634391785,-13644997.596740723,-15448912.620544434,-13643085.479736328,-40851078.033447266,-33525653.839111328,-7207704.544067383,11052778.244018555,-6515929.222106934,-4712700.366973877,-439904.00433540344,-8779819.48852539,-9166174.88861084,-15995730.40008545,-23967395.782470703,16882749.557495117,-206952.49736309052,381241.70899391174,-4538299.560546875,-1331707.5967788696,-8604362.487792969,-9728214.263916016,-26417419.43359375,-27702325.82092285,-5006597.518920898,545979.4998168945,950099.2298126221,-5116789.3409729,1082078.5760879517,-6525628.566741943,-13923597.33581543,-19403203.9642334,-31046045.303344727,-15290220.260620117,-13924699.783325195,-16147035.598754883,2348531.96144104,-17443538.665771484,-18393993.377685547,-33036914.825439453,-13175597.190856934,-12192159.652709961,-5445796.966552734,-16672515.869140625,-17159688.94958496
0.1,-29737514.49584961,-35048927.307128906,-42894378.662109375,-21094230.65185547,-53519233.70361328,-8086900.71105957,7914586.067199707,-209142.7594423294,-17860851.287841797,-22560798.64501953,-39897144.31762695,-45137023.92578125,-45516819.00024414,-44728302.001953125,1797320.84274292,20319435.119628906,-3641700.506210327,-1910701.6324996948,-17241199.493408203,-18917528.15246582,-17077308.654785156,-44705963.134765625,-35734657.287597656,-3469900.131225586,12938405.990600586,-5002361.297607422,-5561336.994171143,-2449656.7249298096,-9664451.599121094,-9345345.497131348,-18022872.924804688,-25453897.47619629,23145765.30456543,3364076.3759613037,2932327.2705078125,-5769986.629486084,-1264591.3362503052,-8593365.669250488,-9772932.052612305,-25939218.521118164,-26972002.029418945,282164.7822856903,4662175.65536499,5157266.139984131,-4065580.368041992,1614407.1817398071,-6079990.386962891,-14754259.10949707,-19713264.46533203,-31041076.66015625,-10428536.415100098,-9380217.552185059,-13407212.257385254,2970870.7332611084,-16288934.707641602,-17069732.666015625,-32359092.712402344,-9442610.740661621,-8429919.242858887,-4692439.556121826,-15219908.714294434,-15897542.953491211
0.105,-16489562.98828125,-26073482.513427734,-32076290.130615234,-7920727.729797363,-44692855.83496094,3929485.082626343,18547657.012939453,9267729.759216309,-9801401.138305664,-17640422.821044922,-30757127.76184082,-34601108.55102539,-34855266.57104492,-33992107.39135742,16106336.59362793,26701534.271240234,5167045.116424561,1972508.5496902466,-12945547.103881836,-14198906.898498535,-12553353.309631348,-33963008.880615234,-25533252.716064453,12248245.239257812,23031417.846679688,3902335.1669311523,-1730676.6510009766,181513.9353275299,-4424999.237060547,-5552194.118499756,-9178271.293640137,-12753294.944763184,32614864.349365234,14079098.70147705,9609485.626220703,-4097182.273864746,-1135173.5591888428,-5050328.731536865,-5751749.515533447,-19486055.374145508,-15502426.147460938,10725472.450256348,10258375.16784668,10623867.988586426,-253737.15162277222,5717291.355133057,-2566593.647003174,-12700727.462768555,-14781304.359436035,-22774652.4810791,-899157.1068763733,540009.3793869019,-5168572.902679443,7113251.686096191,-8348450.660705566,-8831076.622009277,-23288173.67553711,2391829.252243042,1798110.1274490356,1134328.4845352173,-7074027.538299561,-7867029.190063477
0.11,1270609.6172332764,-8837913.513183594,-14017633.438110352,9617457.389831543,-27826795.57800293,16273817.06237793,30482242.584228516,20526887.893676758,3903854.3701171875,-5419792.175292969,-16555622.100830078,-19978061.67602539,-20399997.71118164,-19410755.157470703,29121683.12072754,35010047.912597656,14477945.327758789,8177515.029907227,-5069111.8240356445,-6036797.523498535,-4564428.806304932,-19477060.317993164,-12119973.182678223,25323451.99584961,31758317.947387695,11808780.670166016,2897660.493850708,5055405.616760254,603424.5491027832,-1621472.4779129028,736850.6789207458,1890576.958656311,39739398.95629883,22735307.693481445,14798501.014709473,-1944692.0156478882,-1142141.2229537964,-1424190.1636123657,-1635731.57787323,-13689999.5803833,-5078261.375427246,18971088.409423828,14328734.397888184,14423038.482666016,3342131.3762664795,10482712.745666504,732582.2114944458,-10015440.940856934,-9074275.970458984,-15041053.771972656,7164036.750793457,8711696.62475586,1911447.1673965454,11928558.349609375,-335763.0968093872,-596082.9257965088,-14153654.098510742,13428359.031677246,11039323.806762695,7904936.790466309,1004302.1440505981,335339.87402915955
0.115,5492348.670959473,-2616582.155227661,-7015145.778656006,11864050.86517334,-20508129.119873047,17960577.0111084,31856422.424316406,22100997.924804688,8515954.971313477,379488.11054229736,-11821954.727172852,-16040618.896484375,-16817537.307739258,-15774164.199829102,29540542.602539062,39873767.8527832,14204054.832458496,11423195.838928223,-1863685.4887008667,-2861834.0492248535,-1431691.288948059,-15857306.480407715,-7600212.097167969,25614419.93713379,30946996.688842773,11278000.831604004,3785922.5273132324,7106226.444244385,-375345.49832344055,-1018654.8233032227,1322310.9245300293,5136250.4959106445,42227722.16796875,22021167.755126953,14024977.684020996,-2026504.2781829834,-1206537.7235412598,-780508.3990097046,-960938.6920928955,-13187862.396240234,-4089508.056640625,20237285.614013672,15429131.507873535,15251801.490783691,3705325.126647949,12145452.499389648,1500635.7431411743,-8950881.958007812,-6780041.217803955,-14222091.674804688,9481495.85723877,9956750.869750977,2988071.918487549,13717115.40222168,2275427.3414611816,2103528.2611846924,-11190648.078918457,16554559.707641602,13439657.211303711,10625335.693359375,3680051.565170288,3141098.976135254
0.12,-2857967.8535461426,-11185031.89086914,-13740131.378173828,899798.4528541565,-26339414.596557617,11329430.58013916,24826181.411743164,15644604.682922363,2898656.129837036,-3280293.7030792236,-17688491.821289062,-22610942.840576172,-23540502.548217773,-22593793.869018555,21552614.212036133,40487064.361572266,7328508.8539123535,10639275.550842285,-4558816.909790039,-5651049.613952637,-4268904.685974121,-22551649.09362793,-12264942.169189453,18298721.313476562,24529205.322265625,5917476.654052734,1705775.1417160034,5616256.237030029,-4591806.411743164,-2441373.109817505,-4710747.241973877,-842795.7892417908,41539505.00488281,15977433.204650879,10041555.404663086,-3524648.1895446777,-1105950.117111206,-1957548.3798980713,-2413957.118988037,-15251248.359680176,-7732463.359832764,17458086.013793945,14897840.49987793,14595071.792602539,1752006.4115524292,10979123.11553955,1035496.711730957,-8924942.016601562,-6821336.269378662,-16876808.166503906,8131504.058837891,7158001.899719238,843415.4987335205,12659657.47833252,1665817.2607421875,1496600.9855270386,-11752554.893493652,14801767.349243164,11641325.950622559,9593917.846679688,3180986.8812561035,2492105.007171631
0.125,-7695936.20300293,-19583726.88293457,-20253273.010253906,-4687422.752380371,-32218627.9296875,6792054.176330566,20699348.44970703,12034188.270568848,-1214401.4835357666,-6318309.307098389,-22552444.458007812,-27401052.474975586,-28095443.725585938,-27313566.207885742,16041997.909545898,39990886.68823242,4359439.373016357,9416131.973266602,-6563962.459564209,-7616032.123565674,-6354747.772216797,-27205228.805541992,-17144989.013671875,13639125.82397461,21927257.537841797,4408161.640167236,891860.9619140625,4734740.257263184,-5578444.957733154,-3253194.808959961,-7909166.8128967285,-4984730.243682861,38847415.924072266,12950317.3828125,8207094.192504883,-3959375.3814697266,-892874.2408752441,-2714123.487472534,-3317986.7267608643,-16242841.720581055,-8657119.750976562,15020138.74053955,13590486.526489258,13418455.123901367,219749.74870681763,9543122.291564941,699625.9093284607,-9673845.291137695,-6997398.376464844,-17954378.128051758,6285792.827606201,5094935.417175293,-24948.99369776249,11156881.332397461,1586330.1753997803,1310685.157775879,-11966995.239257812,14366946.22039795,10841122.6272583,8013247.489929199,3135067.7013397217,2145411.491394043
0.13,-2991096.258163452,-17372179.03137207,-18303062.438964844,881991.8036460876,-29504974.365234375,7178015.70892334,22528282.165527344,14476307.86895752,1486527.919769287,-2881363.3918762207,-20892799.377441406,-25882347.106933594,-26238790.51208496,-25510862.350463867,14107743.263244629,40117473.60229492,7056244.373321533,9959463.119506836,-4348370.552062988,-5386366.844177246,-4152649.8794555664,-25539863.58642578,-18744134.9029541,11501970.291137695,23632635.11657715,6948041.915893555,1753332.018852234,6442892.551422119,-3592404.60395813,-4676260.471343994,-7665307.998657227,-5646912.097930908,33087638.85498047,12247160.911560059,8009489.059448242,-3695808.8874816895,-870714.545249939,-4311573.505401611,-4861060.619354248,-18410787.58239746,-9991697.311401367,11055564.880371094,9768431.663513184,9922883.987426758,-1268822.9084014893,7382477.283477783,-1465170.2642440796,-13734463.691711426,-9210460.662841797,-20272684.09729004,2084177.9708862305,1988773.1075286865,-1664934.8735809326,8767552.375793457,-536006.5698623657,-1074020.9817886353,-14898236.274719238,13324131.01196289,9330776.21459961,5377408.981323242,866155.9224128723,-156740.85915088654
0.135,-1062013.5068893433,-13250617.027282715,-16917547.22595215,2258599.9965667725,-26556802.74963379,4946449.279785156,21559638.97705078,14280829.429626465,2141913.414001465,-860443.8304901123,-21090991.973876953,-27409553.52783203,-27714599.609375,-26877456.665039062,7626294.136047363,39521461.486816406,6466952.800750732,9899695.39642334,-3093664.6461486816,-4321980.4763793945,-2897426.8436431885,-27086286.544799805,-22991804.122924805,3460831.1653137207,21162109.375,5428426.742553711,-130199.19395446777,7156044.960021973,-5418591.499328613,-10071094.512939453,-12189595.222473145,-11847214.698791504,24219709.396362305,5665037.631988525,4471492.290496826,-5416592.121124268,-1121357.5601577759,-9819026.947021484,-10403322.219848633,-25830778.121948242,-19903446.197509766,1263378.620147705,2609512.8059387207,3034616.470336914,-5670882.701873779,1142172.6942062378,-8090443.6111450195,-22910150.5279541,-16587919.235229492,-29672767.639160156,-7727723.598480225,-7099158.28704834,-9566392.89855957,2341179.370880127,-9970255.851745605,-10808802.604675293,-25509120.94116211,4592935.085296631,1150634.0503692627,-2312005.043029785,-8822004.318237305,-9471482.276916504
0.14,-12285809.516906738,-19966547.0123291,-26635606.76574707,-12140638.35144043,-34142959.59472656,-4325499.534606934,12168707.847595215,5344724.178314209,-7113549.709320068,-8634716.987609863,-30639062.881469727,-38715385.43701172,-39248367.30957031,-38304485.32104492,-5439563.751220703,37708663.94042969,-2185568.09425354,6799576.759338379,-8125358.581542969,-9605242.729187012,-7919459.819793701,-38515785.217285156,-33160182.95288086,-11606780.052185059,11323389.053344727,-2839285.135269165,-6582038.402557373,3553303.2417297363,-13785840.98815918,-18814300.537109375,-23697559.356689453,-26259056.091308594,16360826.49230957,-7986083.984375,-2726080.6560516357,-9204832.077026367,-1368603.4679412842,-18513040.54260254,-19335332.8704834,-36254905.700683594,-36446140.28930664,-11396926.879882812,-4147083.7593078613,-3725668.19190979,-12846087.455749512,-9154959.678649902,-17442152.02331543,-33996490.478515625,-27017286.30065918,-43640392.3034668,-19943534.85107422,-20087757.110595703,-22356031.41784668,-7949551.105499268,-24630475.997924805,-25593484.87854004,-40501377.10571289,-10628114.700317383,-12429823.875427246,-14951615.333557129,-23660295.486450195,-23880435.943603516
0.145,-28292341.232299805,-33950954.43725586,-41754138.9465332,-30843233.108520508,-47318954.46777344,-13399397.850036621,2021740.436553955,-5152861.11831665,-19495729.446411133,-20561073.303222656,-42517578.125,-51201587.67700195,-51902908.32519531,-51031745.91064453,-15308041.5725708,37464218.13964844,-11441502.571105957,2841185.8081817627,-15770674.705505371,-17332721.710205078,-15520528.793334961,-51104175.56762695,-41692707.06176758,-22667213.439941406,2560084.819793701,-9788298.606872559,-12774188.995361328,-1754368.0667877197,-22557598.114013672,-25267734.52758789,-32774288.177490234,-37324527.740478516,14867647.171020508,-18220415.115356445,-7337157.249450684,-11549485.206604004,-1425567.9845809937,-24968103.408813477,-25948970.794677734,-41984668.73168945,-46637920.37963867,-17413124.084472656,-5460407.257080078,-5285354.137420654,-17769529.342651367,-17115346.908569336,-23498908.99658203,-40707225.79956055,-33509044.647216797,-51649223.32763672,-26160089.49279785,-27673810.958862305,-30535337.448120117,-15777673.721313477,-34268280.029296875,-35160282.135009766,-49370445.251464844,-20444358.825683594,-20911067.962646484,-24872749.32861328,-33281867.98095703,-33425148.010253906
0.15,-33959945.67871094,-40381843.56689453,-47511936.18774414,-34737895.96557617,-51641277.31323242,-12947674.751281738,1960748.4340667725,-6262809.753417969,-22561985.01586914,-24322370.529174805,-44081516.26586914,-51882503.509521484,-52515407.56225586,-51837341.30859375,-13049133.30078125,41382041.931152344,-12532873.153686523,1949445.128440857,-18161193.84765625,-19663862.228393555,-17852125.16784668,-51794006.34765625,-39404132.84301758,-20411592.483520508,3560493.7076568604,-8194736.480712891,-13396896.362304688,-3845572.7100372314,-24623384.475708008,-24719179.153442383,-30718507.766723633,-33386791.229248047,20212594.985961914,-16197822.570800781,-5205138.683319092,-10341316.223144531,-1465260.8633041382,-24574409.48486328,-25357681.274414062,-38733825.68359375,-42015628.814697266,-12476890.563964844,-1302163.83934021,-1417569.2796707153,-16160385.131835938,-15940273.28491211,-21680187.225341797,-39459571.838378906,-31411813.735961914,-47482334.13696289,-22618204.11682129,-24588983.5357666,-27375236.51123047,-14505475.997924805,-31357522.96447754,-32187149.047851562,-46085853.576660156,-16411243.438720703,-16799352.645874023,-24034631.729125977,-30212257.385253906,-30617084.503173828
0.155,-28529510.498046875,-34561519.622802734,-40696949.00512695,-23265029.907226562,-43654273.986816406,-4886082.172393799,10849596.02355957,1376339.316368103,-15676170.349121094,-18569406.509399414,-34707897.1862793,-41181648.25439453,-41681243.896484375,-41078460.693359375,-2781162.977218628,47695991.51611328,-7685348.5107421875,3841718.4352874756,-14404739.379882812,-15845909.118652344,-14075538.635253906,-40965965.270996094,-28269142.150878906,-9417473.793029785,11504559.516906738,-1873230.5765151978,-9758290.29083252,-2501981.496810913,-20434854.50744629,-18275733.947753906,-20777912.139892578,-18246549.606323242,27007095.336914062,-6340325.355529785,150280.11798858643,-7975461.959838867,-1650814.7716522217,-18235404.96826172,-18588689.80407715,-29898736.95373535,-28495052.337646484,-3177844.285964966,3519963.7413024902,3194456.100463867,-9813059.80682373,-6410125.255584717,-13396576.881408691,-31774475.09765625,-22862514.49584961,-36082134.24682617,-14583691.596984863,-15975269.317626953,-17019493.103027344,-4972918.510437012,-19384181.97631836,-20264053.344726562,-35383869.17114258,-4390573.024749756,-5146944.999694824,-13362054.824829102,-18118749.618530273,-18755353.927612305
0.16,-23859991.0736084,-26922170.639038086,-32730884.552001953,-12847228.050231934,-34593193.05419922,506495.1777458191,17668050.76599121,7103738.784790039,-9563928.604125977,-13505703.926086426,-25643619.537353516,-31165979.385375977,-31657978.057861328,-30908140.182495117,4283450.126647949,51858573.91357422,-5212407.112121582,4622409.820556641,-10791520.118713379,-12107032.775878906,-10493076.32446289,-30730270.385742188,-18678140.64025879,-1143846.5118408203,16880792.61779785,896320.9986686707,-7170320.987701416,-1565526.9622802734,-15574704.17022705,-10909444.808959961,-12367631.912231445,-5792411.804199219,30095033.645629883,517407.23848342896,3182080.2688598633,-7700287.818908691,-1781553.864479065,-10787863.731384277,-10839762.687683105,-21532180.786132812,-17725130.081176758,1889576.4350891113,5788053.035736084,5313079.357147217,-4386698.246002197,3380002.26020813,-4482158.660888672,-21916879.653930664,-13625524.520874023,-26402362.823486328,-9146512.985229492,-9956772.804260254,-8971059.799194336,4766000.747680664,-8177131.652832031,-9060722.351074219,-26058303.833007812,3471256.732940674,3126319.169998169,-2222208.9767456055,-6970751.2855529785,-7564885.139465332
0.165,-25529809.951782227,-26621133.80432129,-32659275.05493164,-13000534.057617188,-33674041.748046875,-1280056.357383728,16613582.611083984,5265853.404998779,-10375298.500061035,-14793000.221252441,-23972221.37451172,-28848583.221435547,-29380331.03942871,-28438676.834106445,4016875.743865967,51686756.1340332,-6842733.860015869,2881398.916244507,-10725022.315979004,-11744880.676269531,-10474614.143371582,-28286561.965942383,-16205265.045166016,628022.7303504944,16084501.266479492,-955190.0029182434,-7456331.729888916,-2445246.696472168,-13092803.001403809,-6566626.54876709,-9136212.348937988,-2925080.0609588623,29612108.23059082,910349.96509552,3368467.092514038,-9212206.840515137,-1610287.6663208008,-6389591.217041016,-6429885.8642578125,-16707117.080688477,-14124323.844909668,2017439.842224121,6651886.463165283,6060554.981231689,-3329027.8911590576,6042685.031890869,-133176.89299583435,-14392205.238342285,-8010206.22253418,-22104305.267333984,-7547238.349914551,-8353141.784667969,-7638673.782348633,7364017.486572266,-3868121.862411499,-4572904.586791992,-22019710.540771484,3260178.804397583,3871096.8494415283,1006348.0138778687,-2839451.789855957,-3256288.0516052246
0.17,-26622165.67993164,-29455289.840698242,-35703136.4440918,-15992111.206054688,-36530246.73461914,-4292549.610137939,13356213.569641113,1560784.4591140747,-12587451.934814453,-16115182.876586914,-25144742.965698242,-29696344.37561035,-30153228.759765625,-29209993.362426758,1924058.3181381226,49326915.7409668,-7187350.273132324,1660241.8422698975,-10680476.188659668,-11411908.149719238,-10463438.987731934,-29257505.416870117,-17104354.858398438,1262592.7925109863,13400121.688842773,-2462192.7738189697,-8059330.940246582,-2559457.778930664,-12119083.404541016,-6316569.3283081055,-8325572.0138549805,-4706590.175628662,28926189.422607422,-376948.89307022095,3132879.9724578857,-10201461.791992188,-1316459.1789245605,-6332118.988037109,-6506916.522979736,-15840931.89239502,-14529946.327209473,1740766.2868499756,7320094.585418701,6687014.579772949,-5809936.046600342,1222786.3073349,-1635223.9847183228,-12828577.041625977,-7441793.441772461,-21728225.708007812,-7110631.942749023,-8202495.574951172,-10418337.82196045,2497624.158859253,-5693833.827972412,-6200663.089752197,-21918066.024780273,476099.3421077728,1281969.3088531494,-3949471.4736938477,-4759655.475616455,-5138320.446014404
0.175,-20873054.50439453,-26448583.602905273,-32586914.0625,-11734696.388244629,-34138313.29345703,-1927399.5161056519,15318534.851074219,3234093.189239502,-9312306.40411377,-10610997.200012207,-22868423.461914062,-27961160.65979004,-28283105.850219727,-27525867.462158203,3372101.306915283,48523441.314697266,-4009160.5186462402,3589020.252227783,-7498369.216918945,-8229188.919067383,-7279778.480529785,-27788318.634033203,-16533435.821533203,4500306.129455566,12674071.311950684,-2088631.1531066895,-7493767.261505127,-491942.3758983612,-12140639.305114746,-9445804.595947266,-8476668.357849121,-4886330.604553223,29658679.962158203,-106088.12421560287,2260936.0218048096,-10437441.8258667,-1309416.1748886108,-9728833.198547363,-10004504.203796387,-18820508.95690918,-16242088.317871094,2291375.160217285,5945271.015167236,5368728.6376953125,-9471982.0022583,-5814976.692199707,-6755454.063415527,-18060911.178588867,-11271644.592285156,-23780784.606933594,-7361226.0818481445,-8816528.3203125,-13718152.046203613,-4505955.696105957,-10183476.448059082,-10734792.709350586,-23940563.201904297,-334084.74922180176,-599659.6813201904,-11192778.587341309,-9175930.02319336,-9674660.682678223
0.18,-12338613.510131836,-17520750.045776367,-23455337.524414062,-2355555.0575256348,-26346254.348754883,4583660.60256958,21773958.206176758,9213297.843933105,-2504607.915878296,-2057186.3651275635,-18659484.86328125,-25125272.750854492,-25438585.28137207,-24843679.428100586,7527762.889862061,51093933.10546875,-1549582.2429656982,7115324.974060059,-4078525.0663757324,-5017498.970031738,-3802506.923675537,-25092014.31274414,-14927009.582519531,7673692.226409912,13222794.532775879,-2866309.642791748,-7375553.131103516,1337777.9722213745,-14087419.509887695,-13944702.1484375,-10909481.048583984,-3553283.929824829,31062562.942504883,41019.78242397308,-878229.9160957336,-11465465.545654297,-1622020.8406448364,-14226700.782775879,-14534835.815429688,-23784246.44470215,-19046733.856201172,1461697.4592208862,1303692.2216415405,807003.6172866821,-12555972.0993042,-9641810.417175293,-11693556.785583496,-25986900.329589844,-16620546.340942383,-26982139.587402344,-9718120.574951172,-11814520.835876465,-16245361.328125,-8197206.497192383,-14283989.906311035,-15086329.460144043,-26756572.723388672,-15903.135761618614,-1811114.1920089722,-14976400.375366211,-13189850.807189941,-13731981.27746582
0.185,-8183869.361877441,-10058688.163757324,-16080146.789550781,3601876.2588500977,-20277460.0982666,9992280.960083008,26917472.83935547,13508176.803588867,1243740.0817871094,884197.8907585144,-17327663.42163086,-24714004.516601562,-25149322.509765625,-24569303.512573242,11637953.758239746,55563728.33251953,-2672502.9945373535,9075755.11932373,-4620551.586151123,-5603065.490722656,-4236887.454986572,-24597606.658935547,-14227118.492126465,8630694.389343262,14009683.609008789,-5017978.668212891,-8576135.635375977,675930.3212165833,-17111478.805541992,-16449174.880981445,-14308639.526367188,-2565586.3285064697,32942867.279052734,-387091.57705307007,-4198609.352111816,-13076210.975646973,-1853950.1428604126,-16488458.633422852,-16770971.298217773,-26104040.145874023,-20823673.248291016,330706.80499076843,-3156279.0870666504,-3655248.4035491943,-13307008.743286133,-7987785.816192627,-12881503.105163574,-29427604.67529297,-18834222.7935791,-27693460.46447754,-12365628.242492676,-15248646.73614502,-16558155.059814453,-6427181.243896484,-14778742.790222168,-15721162.796020508,-27274419.7845459,945093.4529304504,-1928395.6289291382,-13163671.493530273,-13769756.317138672,-14152835.845947266
0.19,-9575448.989868164,-8238503.456115723,-14680694.580078125,3617905.1399230957,-19924030.303955078,12056479.454040527,28067836.76147461,13720764.16015625,-33907.55131840706,-3457836.151123047,-19125263.214111328,-25876214.9810791,-26358425.14038086,-25742897.033691406,14939543.724060059,58149353.02734375,-4445268.630981445,8643860.816955566,-8374028.205871582,-9142247.200012207,-7897141.933441162,-25590808.868408203,-13879878.044128418,9752621.6506958,15902525.901794434,-4708992.958068848,-9320013.999938965,-1156537.0559692383,-18447011.947631836,-14697883.605957031,-14731747.6272583,-827230.8707237244,35694896.69799805,1374989.2711639404,-3409692.0490264893,-13269771.575927734,-1777025.3419876099,-14634100.914001465,-14805644.989013672,-22844173.431396484,-18346948.623657227,2982758.045196533,-2811035.633087158,-3411265.3732299805,-10457717.895507812,-2367482.6622009277,-9306960.105895996,-24965095.52001953,-15469690.322875977,-23054285.049438477,-11115504.264831543,-14233789.443969727,-12772405.624389648,-873611.330986023,-9833807.945251465,-10637578.964233398,-22862533.569335938,4669207.572937012,1425463.4380340576,-7536230.087280273,-9033721.923828125,-9234159.469604492
0.195,-14122322.082519531,-10308959.9609375,-17388074.87487793,955890.953540802,-23580612.182617188,10870362.281799316,26465721.130371094,11695974.349975586,-3464081.7642211914,-9663240.432739258,-21781431.198120117,-27139759.063720703,-27487010.955810547,-26913583.755493164,15918978.691101074,55637596.130371094,-4149797.9164123535,6982816.219329834,-11873961.448669434,-12500798.225402832,-11384152.41241455,-26714853.286743164,-14184819.221496582,11882727.62298584,18006292.34313965,-1373356.1038970947,-8551883.697509766,-1870969.533920288,-17592107.77282715,-10867070.198059082,-12602395.057678223,1419863.1048202515,37466411.59057617,4974450.11138916,1085593.9388275146,-11887178.421020508,-1667272.3293304443,-10990246.772766113,-11019185.066223145,-17897884.368896484,-13933192.253112793,8374695.777893066,1540259.7188949585,824327.4092674255,-5638767.719268799,2657116.413116455,-4278930.187225342,-17540939.331054688,-10151334.762573242,-17012903.213500977,-6560970.306396484,-9022659.301757812,-6930547.714233398,3922818.899154663,-3130889.415740967,-3732295.7515716553,-16840011.596679688,9511403.08380127,6709388.732910156,-2937620.8782196045,-2448414.087295532,-2678185.46295166
0.2,-21780403.13720703,-15176595.687866211,-23485170.364379883,-3735931.396484375,-29812074.661254883,5220285.415649414,22487825.393676758,8265021.324157715,-7674477.100372314,-14470867.156982422,-26505674.362182617,-31652896.881103516,-31837957.38220215,-31347196.578979492,10752760.887145996,48665237.42675781,-4509746.551513672,4829575.061798096,-14597247.123718262,-15379706.382751465,-14161207.19909668,-31101345.06225586,-19059345.245361328,10039935.111999512,16487791.061401367,-151266.4556503296,-8299619.674682617,-1859353.0654907227,-17508005.142211914,-10286819.458007812,-14168232.917785645,-1255055.0699234009,34743476.86767578,4623074.531555176,3431338.07182312,-11500239.372253418,-1867793.321609497,-10560167.31262207,-10590270.042419434,-18845571.517944336,-15490410.804748535,8664876.937866211,4153032.3028564453,3390512.466430664,-3277233.362197876,2231149.673461914,-3412913.7992858887,-15977316.856384277,-9840889.930725098,-18064292.907714844,-5750694.751739502,-7279410.839080811,-5831383.70513916,3344066.619873047,-2776101.589202881,-3420899.6295928955,-17497840.881347656,7847826.957702637,6462872.02835083,-4492424.488067627,-2026578.1879425049,-2467125.89263916
0.205,-31898704.528808594,-23921468.73474121,-34495891.57104492,-12134984.016418457,-38790550.231933594,-4588654.9949646,15744668.960571289,2826482.2959899902,-13606901.168823242,-19331575.393676758,-35247714.99633789,-41919261.93237305,-42109943.38989258,-41614116.66870117,-572036.1471176147,41973720.55053711,-8652733.80279541,2659911.3941192627,-17995971.6796875,-19002056.121826172,-17621355.056762695,-41284049.98779297,-29987167.358398438,852935.3141784668,10179145.812988281,-4088320.255279541,-10558293.342590332,-2772144.079208374,-19896497.72644043,-15170022.010803223,-22478574.752807617,-12336037.635803223,27526712.41760254,-2697228.9085388184,57635.366916656494,-13735513.687133789,-2265398.0255126953,-15253643.035888672,-15494092.94128418,-27376205.444335938,-26161609.649658203,-420487.34426498413,1670512.4378204346,918176.0549545288,-6136645.317077637,-4273763.179779053,-8859820.365905762,-23192861.557006836,-16755935.668945312,-28428617.477416992,-13314907.07397461,-14454385.757446289,-13542510.986328125,-3061027.5268554688,-12297967.910766602,-13213116.645812988,-28349346.160888672,-4043617.2485351562,-3601700.782775879,-12703824.996948242,-11414324.760437012,-12014003.75366211
0.21,-38547019.958496094,-33408916.473388672,-46562080.38330078,-20671051.025390625,-47139862.060546875,-12484811.782836914,9497998.237609863,-2376260.280609131,-19665660.858154297,-24160051.345825195,-43722927.09350586,-52001434.326171875,-52342735.290527344,-51720870.97167969,-10001733.779907227,40139324.18823242,-13598789.21508789,1840824.007987976,-20762912.75024414,-21758653.64074707,-20454114.91394043,-51468109.130859375,-39938747.40600586,-9376522.064208984,4098577.4993896484,-8766051.292419434,-13849583.625793457,-4174816.131591797,-22075860.97717285,-21284755.70678711,-31246137.619018555,-24878293.991088867,21238988.876342773,-11018233.299255371,-5495069.0269470215,-16840906.143188477,-2463306.9038391113,-21043264.389038086,-21486888.885498047,-36178539.27612305,-38099979.400634766,-11910743.713378906,-3125005.006790161,-3893691.062927246,-11852713.584899902,-11733401.29852295,-16208936.69128418,-32843631.744384766,-25064580.9173584,-39484256.744384766,-24037673.950195312,-25377286.911010742,-24912622.451782227,-10289629.936218262,-24740316.39099121,-25832363.12866211,-42013362.884521484,-17860126.495361328,-16599172.592163086,-21649227.142333984,-23795831.68029785,-24376565.93322754
0.215,-35818847.65625,-35468700.40893555,-49918716.43066406,-21684009.552001953,-48396324.157714844,-11254341.125488281,9205692.291259766,-2959292.8886413574,-21499082.565307617,-25234342.575073242,-44377143.85986328,-52569957.7331543,-53023105.62133789,-52230033.87451172,-8798147.201538086,43237045.28808594,-13797318.458557129,3093799.829483032,-19988870.62072754,-20812191.009521484,-19794040.67993164,-52345088.958740234,-39732955.93261719,-10506090.16418457,4032979.965209961,-8423928.260803223,-15035195.350646973,-4357003.211975098,-21011358.2611084,-22961038.58947754,-32370346.069335938,-27255798.33984375,21098634.719848633,-12173865.31829834,-7630522.25112915,-18125009.536743164,-2344450.7122039795,-22669698.71520996,-23064783.096313477,-37611991.88232422,-41132568.359375,-15079625.129699707,-5705484.867095947,-6556999.683380127,-15440683.364868164,-13982983.589172363,-19045991.897583008,-36914749.14550781,-27562120.43762207,-41500389.099121094,-28298061.37084961,-29881282.806396484,-30340057.373046875,-12466179.847717285,-29532766.342163086,-30527900.69580078,-47468753.814697266,-21391277.313232422,-21093435.287475586,-24297037.12463379,-28620758.056640625,-29079586.029052734
0.22,-27108406.06689453,-27303558.349609375,-41538875.579833984,-14651767.73071289,-42054386.138916016,-2147756.576538086,14902359.962463379,1192296.5049743652,-18311161.041259766,-21653335.571289062,-37294319.15283203,-43957992.55371094,-44384201.04980469,-43447315.21606445,1536617.398262024,47739627.838134766,-9522462.844848633,4516019.821166992,-16736845.016479492,-17479179.38232422,-16676168.441772461,-44008049.01123047,-30299974.44152832,-1678411.602973938,9440491.676330566,-4111928.939819336,-13484456.062316895,-3568307.1613311768,-18307857.513427734,-20113368.98803711,-26809686.6607666,-17866781.23474121,26137826.919555664,-6340168.9529418945,-5634852.886199951,-17300975.799560547,-2168127.2983551025,-20042942.04711914,-20230289.459228516,-32779815.673828125,-35224391.93725586,-8346266.746520996,-5105969.9058532715,-6049529.552459717,-14631711.959838867,-10107605.934143066,-16159952.163696289,-34670169.830322266,-23966983.795166016,-35206974.029541016,-23608444.213867188,-25213745.1171875,-26615224.838256836,-8776920.318603516,-24462936.401367188,-25295982.360839844,-42323699.951171875,-13357061.386108398,-14759285.926818848,-19822633.743286133,-23634592.056274414,-23975952.1484375
0.225,-22814161.30065918,-17943992.614746094,-32175807.95288086,-9561250.686645508,-36673809.05151367,5182793.140411377,19268171.310424805,4226546.764373779,-15348482.131958008,-18677890.77758789,-31704586.029052734,-37085090.63720703,-37413516.998291016,-36403202.056884766,10438381.19506836,50865985.87036133,-6807449.817657471,3522357.225418091,-15711137.771606445,-16479824.06616211,-15695647.239685059,-37132919.31152344,-22424390.79284668,7290106.773376465,14681689.262390137,-1614685.6546401978,-11461435.317993164,-3660820.960998535,-17964975.357055664,-17470874.786376953,-22735143.661499023,-7526949.882507324,31117990.493774414,-891467.9884910583,-2823294.162750244,-16124629.974365234,-2096659.4219207764,-17489704.132080078,-17640218.73474121,-28632465.362548828,-29201719.284057617,290581.1071395874,-3084695.339202881,-4075862.8845214844,-11178026.19934082,-4508058.071136475,-11918717.384338379,-31602043.15185547,-19799358.367919922,-29295511.24572754,-16421558.380126953,-18000352.85949707,-19338785.17150879,-3412552.833557129,-16785346.98486328,-17676025.390625,-33979404.44946289,-3821467.161178589,-5930871.963500977,-13617016.792297363,-16053918.838500977,-16318355.560302734
0.23,-27885917.66357422,-18273893.356323242,-33740310.66894531,-14643138.885498047,-39245952.60620117,3952709.913253784,16345987.319946289,1549027.3237228394,-17353179.931640625,-20783098.220825195,-33829490.661621094,-39095420.837402344,-39365047.454833984,-38401420.59326172,10615633.964538574,52330982.20825195,-9137891.76940918,626516.5209770203,-18289751.052856445,-19035657.88269043,-18190551.7578125,-38923965.45410156,-22853982.92541504,8249076.843261719,15900390.625,-3343806.266784668,-11013298.988342285,-4669299.602508545,-20238290.786743164,-17448429.107666016,-23839527.130126953,-5311949.729919434,33042728.424072266,-311882.9131126404,-1204392.3139572144,-15917904.8538208,-1931746.006011963,-17262401.580810547,-17631307.60192871,-27918893.814086914,-28397439.95666504,4274295.806884766,-609716.2961959839,-1675896.5253829956,-7737172.1267700195,-1231797.218322754,-9780286.78894043,-31005661.010742188,-18191843.032836914,-28169086.456298828,-12930359.840393066,-14502956.39038086,-14750576.01928711,-160039.64841365814,-12824434.280395508,-13915343.284606934,-29128210.067749023,-271664.23201560974,-1756085.5150222778,-10341435.432434082,-12135116.577148438,-12391666.412353516
0.235,-36370346.06933594,-27008878.707885742,-43355396.27075195,-25641609.19189453,-45345867.15698242,-2649857.521057129,9047668.45703125,-4303472.04208374,-22406763.076782227,-24922430.03845215,-38717212.67700195,-44441829.681396484,-44729057.31201172,-43927673.33984375,4747703.552246094,52364200.592041016,-13648382.186889648,-1119358.0627441406,-20159809.112548828,-20855026.245117188,-19954870.223999023,-44108406.06689453,-26600093.841552734,3125032.663345337,13783768.653869629,-6523125.648498535,-12236554.145812988,-4436107.635498047,-21355251.31225586,-17431745.529174805,-25536539.07775879,-8354844.093322754,33009685.516357422,-2351375.5798339844,-470652.312040329,-16818626.403808594,-1489181.1609268188,-17073371.88720703,-17612754.821777344,-26804407.119750977,-29423692.70324707,4529795.6466674805,2063687.801361084,765644.8483467102,-5608586.78817749,-420937.03150749207,-8601097.106933594,-30602657.318115234,-16844644.54650879,-27817388.5345459,-12766231.536865234,-14179404.258728027,-13397952.07977295,845917.8805351257,-11445566.177368164,-12535512.924194336,-26959323.88305664,-142453.6406993866,-846758.0676078796,-9675179.481506348,-10674681.663513184,-11005682.945251465
0.24,-39831363.677978516,-32937423.706054688,-48046146.392822266,-32256607.055664062,-45552589.416503906,-7485117.9122924805,4742538.928985596,-7701490.879058838,-25138698.57788086,-24994113.92211914,-38225971.22192383,-44112255.09643555,-44470706.939697266,-43808952.33154297,-627331.3760757446,50432308.197021484,-16292999.267578125,-707970.9768295288,-17835474.014282227,-18611833.572387695,-17622972.48840332,-43812511.4440918,-25956354.14123535,-1461217.0457839966,10655249.59564209,-8403453.826904297,-14168174.743652344,-2186173.439025879,-19263938.903808594,-14886221.885681152,-23591875.076293945,-9107001.304626465,32189990.997314453,-3837508.4400177,-1006078.1240463257,-18584636.688232422,-1004862.904548645,-14665999.412536621,-15083537.101745605,-22528152.465820312,-27837265.014648438,4115137.1002197266,3103658.91456604,1463205.8143615723,-5303774.833679199,-409600.6155014038,-6292794.227600098,-27891559.600830078,-13552849.769592285,-24222139.358520508,-13116817.474365234,-14185352.325439453,-13218144.416809082,1044083.7144851685,-9214161.87286377,-10011589.050292969,-24121816.635131836,1107931.7331314087,480976.1643409729,-9309271.812438965,-8295763.01574707,-8691603.660583496
0.245,-37321891.78466797,-30557588.577270508,-43421092.98706055,-32001220.703125,-39201992.03491211,-8706795.692443848,5589926.719665527,-7558141.708374023,-24256303.787231445,-20937511.444091797,-32773132.32421875,-38438346.86279297,-38876937.86621094,-38186111.45019531,-3485115.7665252686,46644142.150878906,-17084024.42932129,-696717.9775238037,-13886919.975280762,-14825642.585754395,-13735284.805297852,-38241374.96948242,-21724361.419677734,-3614988.088607788,7849104.881286621,-9441989.89868164,-15923497.200012207,-185718.41716766357,-16285135.269165039,-11678287.506103516,-20613460.540771484,-7087519.16885376,29238454.818725586,-5421476.8409729,-4339509.963989258,-20856954.57458496,-890204.8468589783,-11677686.69128418,-11863174.438476562,-18391220.092773438,-25120180.130004883,2290385.961532593,-95979.49683666229,-1927747.2496032715,-7250085.830688477,-895238.8167381287,-4041522.979736328,-24825119.018554688,-10527499.198913574,-20046951.293945312,-14765192.985534668,-15504620.552062988,-14859168.05267334,551426.6490936279,-7176953.315734863,-7716273.307800293,-21533327.102661133,1326374.7692108154,520271.1820602417,-9217716.217041016,-6218185.4248046875,-6548902.0347595215
0.25,-35146446.228027344,-27089660.64453125,-39228958.12988281,-32008651.733398438,-35327781.677246094,-9954585.075378418,6841632.36618042,-7806665.420532227,-23882905.960083008,-18988626.48010254,-29945980.072021484,-35330856.32324219,-35801559.44824219,-34976314.544677734,-6479712.48626709,42596740.72265625,-18728193.283081055,-3253992.795944214,-13039699.55444336,-13970726.96685791,-12891845.703125,-35137428.283691406,-20525730.13305664,-6967304.229736328,5601420.879364014,-11300879.47845459,-17155057.907104492,-843954.3843269348,-15337831.497192383,-11191227.912902832,-21229085.92224121,-7881296.634674072,22943004.608154297,-9284077.644348145,-10372121.810913086,-23069583.892822266,-1178596.8542099,-11115484.237670898,-11307318.687438965,-18828748.70300293,-25275465.01159668,-3292774.200439453,-7450087.547302246,-9154355.0491333,-11230355.262756348,-2808452.606201172,-4531116.962432861,-24823112.48779297,-10883584.022521973,-20187433.24279785,-20617172.241210938,-21138154.983520508,-20567956.924438477,-1520607.2330474854,-8862606.048583984,-9455501.556396484,-22492214.20288086,-4277594.566345215,-4814045.9060668945,-11138300.895690918,-8035938.262939453,-8228949.546813965
0.255,-38703956.604003906,-31355926.513671875,-44376743.31665039,-37759185.791015625,-39802871.70410156,-13681927.680969238,4342884.063720703,-10894795.417785645,-27460687.6373291,-23013048.17199707,-33427482.60498047,-38525985.71777344,-38942958.83178711,-38104866.02783203,-11508484.840393066,40010341.64428711,-22325309.75341797,-6704893.112182617,-15656382.56072998,-16361875.534057617,-15410934.448242188,-38259609.22241211,-24218307.495117188,-14267412.185668945,3627813.5776519775,-14281034.469604492,-18169021.606445312,-3650378.704071045,-16311767.578125,-13403587.341308594,-24924863.815307617,-13449939.727783203,15480854.034423828,-15149690.628051758,-16317834.854125977,-24762275.69580078,-1506530.76171875,-13054599.76196289,-13507992.7444458,-22875802.993774414,-28356344.22302246,-11348587.989807129,-15059417.724609375,-16501745.223999023,-15988655.090332031,-6239046.096801758,-7672876.834869385,-27544067.3828125,-13595485.68725586,-24420368.194580078,-29831218.719482422,-30158939.361572266,-29269969.940185547,-5077755.451202393,-14052432.0602417,-14838861.465454102,-26538009.643554688,-14300085.067749023,-14269165.992736816,-15238521.575927734,-13370278.358459473,-13563179.016113281
0.26,-46469280.24291992,-41277996.06323242,-54529033.66088867,-45836750.03051758,-47876770.01953125,-17897960.662841797,-140555.15825748444,-14242728.233337402,-33037990.57006836,-29575181.96105957,-38964046.478271484,-43733966.82739258,-44047393.798828125,-43388275.146484375,-16785558.700561523,39420032.5012207,-26131263.732910156,-7675232.410430908,-18347032.54699707,-18884080.88684082,-17989244.46105957,-43471706.39038086,-28081987.380981445,-22649969.10095215,1900061.845779419,-16925762.176513672,-19223030.09033203,-6195158.958435059,-17597089.767456055,-15478035.926818848,-27721464.157104492,-19634073.25744629,11351544.380187988,-19879951.47705078,-18701498.03161621,-25386207.580566406,-1626891.016960144,-15092638.969421387,-15761052.131652832,-25964500.427246094,-31095075.607299805,-16880344.39086914,-17899967.193603516,-19271272.659301758,-19516290.66467285,-9501108.169555664,-10608881.950378418,-29611629.486083984,-15166069.984436035,-28406240.463256836,-36610179.90112305,-36786815.64331055,-35821113.58642578,-8319382.667541504,-18477577.209472656,-19254957.19909668,-29703470.23010254,-21649662.017822266,-21266185.760498047,-19010166.16821289,-17765586.853027344,-18161815.643310547
0.265,-50867977.142333984,-46653415.67993164,-58587059.020996094,-48826133.728027344,-51205959.32006836,-18816122.05505371,-1630076.289176941,-13634200.096130371,-35176410.67504883,-32347454.071044922,-40831115.72265625,-45459712.982177734,-45710083.0078125,-45204498.291015625,-18134901.04675293,40674301.14746094,-27027235.03112793,-5349018.096923828,-19091594.696044922,-19721172.332763672,-18712043.76220703,-45318180.084228516,-28204473.4954834,-25010513.305664062,2253720.52192688,-16335315.704345703,-19079725.26550293,-6976422.7867126465,-18525485.99243164,-15721040.725708008,-27927175.521850586,-22085496.90246582,13331986.427307129,-19262372.970581055,-15291503.90625,-23576801.300048828,-1628222.5847244263,-15624808.311462402,-16287584.30480957,-26045110.70251465,-31361024.856567383,-15506372.451782227,-13304384.231567383,-14823746.681213379,-19295749.66430664,-9854954.719543457,-11160244.941711426,-29200267.791748047,-14542361.25946045,-29629682.540893555,-35169300.0793457,-35323703.76586914,-35412899.017333984,-8565657.615661621,-18884326.934814453,-19436410.903930664,-30020217.895507812,-21567062.377929688,-20991069.793701172,-19113653.1829834,-18004310.607910156,-18602563.858032227
0.27,-45376491.54663086,-41836326.599121094,-52477451.32446289,-43301132.20214844,-47282485.96191406,-14730463.981628418,2425213.098526001,-8044569.01550293,-30342330.932617188,-28674337.38708496,-37626289.36767578,-42437709.80834961,-42704116.82128906,-42110805.51147461,-12523942.947387695,43210205.078125,-22599210.739135742,-1867317.795753479,-18334255.21850586,-19162212.371826172,-18054409.02709961,-42364635.4675293,-25248939.514160156,-16378120.422363281,7592277.526855469,-9814744.94934082,-15510900.497436523,-6058143.138885498,-18524173.736572266,-14526309.0133667,-26282497.40600586,-19831470.489501953,19676736.83166504,-10848961.83013916,-6330526.351928711,-18201231.002807617,-1578202.724456787,-14625384.330749512,-15195794.105529785,-24615446.090698242,-29008872.985839844,-7167990.684509277,-3107799.0531921387,-4705794.811248779,-13710429.191589355,-5551800.727844238,-9430406.57043457,-27269058.227539062,-13320357.322692871,-28748548.50769043,-25187837.600708008,-25280254.364013672,-27924976.348876953,-4221197.128295898,-15709603.309631348,-16081577.30102539,-29064815.521240234,-15575395.584106445,-14656324.38659668,-14155896.186828613,-14721936.225891113,-15316252.708435059
0.275,-32792926.788330078,-31827356.338500977,-42375720.9777832,-32296287.536621094,-39797428.131103516,-8175917.625427246,9784501.075744629,-657802.5817871094,-20708108.90197754,-21265501.022338867,-31701749.801635742,-36704223.6328125,-37002616.88232422,-36176891.3269043,-2365620.6130981445,45219429.01611328,-14113202.095031738,530546.9632148743,-16417705.535888672,-17294851.303100586,-16317396.16394043,-36477977.75268555,-21418735.50415039,-934890.3298377991,16869739.532470703,904902.8158187866,-8935939.78881836,-4206033.229827881,-16475452.423095703,-12668881.4163208,-23103206.634521484,-14387074.47052002,24927286.14807129,1836202.5022506714,3813158.7505340576,-11247422.218322754,-1326282.1435928345,-12552591.323852539,-13103461.265563965,-23285442.352294922,-24822860.717773438,2829857.82623291,6351366.5199279785,4909656.047821045,-5217926.025390625,1412691.593170166,-6863199.710845947,-25209896.087646484,-12434809.684753418,-26940004.348754883,-13014662.742614746,-12794882.774353027,-18663681.030273438,2648996.353149414,-11611863.136291504,-11938469.886779785,-28462709.426879883,-8782533.645629883,-7587654.590606689,-6880383.9683532715,-10664247.512817383,-11118603.706359863
0.28,-24793022.15576172,-25916090.01159668,-36983463.287353516,-22622303.009033203,-33618194.580078125,-4817803.859710693,15491538.047790527,3963643.5508728027,-13069994.926452637,-15356284.141540527,-26718868.255615234,-31645320.892333984,-31913187.02697754,-30999292.373657227,4097170.829772949,44538543.701171875,-7633116.722106934,1271286.6067886353,-13489585.876464844,-14285658.836364746,-13558346.74835205,-31133104.32434082,-18293867.111206055,8657429.695129395,23029705.047607422,8384004.592895508,-4095432.758331299,-2663018.7034606934,-13141117.095947266,-11097997.665405273,-19377960.205078125,-9549321.174621582,24268390.655517578,9195533.752441406,7923499.584197998,-7730834.484100342,-891023.8742828369,-10571461.67755127,-11140183.448791504,-22539573.669433594,-21275215.14892578,6606000.900268555,8192239.761352539,6940885.543823242,-566761.0168457031,5303780.555725098,-5391681.671142578,-23812520.98083496,-11654501.914978027,-25285572.052001953,-7395635.12802124,-6998335.361480713,-14919621.467590332,6415070.056915283,-9544156.074523926,-9802878.379821777,-28111959.45739746,-6148903.369903564,-5188970.565795898,-3254924.535751343,-8669056.89239502,-9067284.58404541
0.285,-29033369.064331055,-27630210.876464844,-39633968.353271484,-20199708.938598633,-31844293.59436035,-8145267.486572266,16076496.124267578,3612433.671951294,-12907201.766967773,-14571620.94116211,-26054948.806762695,-31010725.021362305,-31196294.7845459,-30442977.905273438,361013.85951042175,41490989.685058594,-9052301.406860352,981976.9263267517,-11362056.732177734,-12162176.132202148,-11481791.496276855,-30372831.344604492,-17853591.918945312,3123812.9138946533,19987428.665161133,6365779.876708984,-5390496.730804443,-2862433.671951294,-12057807.922363281,-11542117.11883545,-18742536.544799805,-10685544.01397705,18241651.53503418,4293593.406677246,2551088.0947113037,-10552366.256713867,-693126.0824203491,-10800833.702087402,-11365686.416625977,-23149917.602539062,-21998065.948486328,419431.00094795227,1455683.3505630493,185090.3332233429,-4447547.435760498,1886152.3866653442,-6708096.027374268,-24157100.677490234,-11663670.539855957,-25705829.620361328,-12144574.165344238,-12477935.791015625,-19944320.678710938,3005485.0578308105,-11423151.016235352,-11548439.025878906,-28289266.58630371,-10034908.294677734,-9624421.119689941,-7122548.580169678,-10520637.512207031,-10998032.569885254
0.29,-37738998.41308594,-31659309.38720703,-45982139.587402344,-25071580.88684082,-34385833.740234375,-14551132.202148438,12748153.686523438,328310.5194568634,-18362062.454223633,-17689203.2623291,-29838356.018066406,-35480659.48486328,-35609928.131103516,-35078929.90112305,-9928470.611572266,39158451.080322266,-16625406.265258789,872010.8270645142,-11824518.203735352,-12768214.225769043,-11841004.371643066,-35026855.46875,-20985389.709472656,-12005330.085754395,10884311.67602539,-1960429.9068450928,-10863853.454589844,-4791049.957275391,-15106532.096862793,-14599656.105041504,-23371000.289916992,-18965309.143066406,12581044.19708252,-8030796.051025391,-6918183.80355835,-16536851.88293457,-1015311.3603591919,-13898517.608642578,-14528339.385986328,-25368614.196777344,-27067237.854003906,-10456823.348999023,-7224329.471588135,-8629467.010498047,-13135647.773742676,-6151370.525360107,-10469635.963439941,-26808732.986450195,-13394674.301147461,-28828813.552856445,-22114435.19592285,-24061111.450195312,-29344959.259033203,-4884053.707122803,-16268316.268920898,-16379447.937011719,-30231447.219848633,-18100378.036499023,-17922885.89477539,-15325319.290161133,-15270197.868347168,-15804703.712463379
0.295,-35990901.947021484,-30398511.88659668,-47863185.88256836,-30761688.232421875,-36979587.55493164,-16998134.61303711,9794091.22467041,-1910862.8034591675,-21808841.705322266,-19446527.4810791,-33135482.788085938,-39881610.87036133,-40021984.1003418,-39572734.83276367,-16533563.613891602,38977958.67919922,-21871170.043945312,2069164.514541626,-13096055.030822754,-14144900.32196045,-12957085.609436035,-39743522.64404297,-24384792.32788086,-21890577.31628418,4664024.353027344,-6985985.279083252,-13899790.76385498,-6205254.554748535,-18788862.228393555,-17691959.381103516,-29078220.36743164,-27197286.60583496,11636642.456054688,-15801641.464233398,-11581693.649291992,-19986963.272094727,-1433302.5217056274,-17093423.84338379,-17924480.438232422,-26993646.6217041,-31038749.69482422,-16552278.518676758,-10836904.525756836,-12209696.769714355,-18065967.559814453,-11715690.612792969,-13805006.02722168,-29949480.056762695,-15465485.572814941,-31622030.25817871,-28223211.28845215,-31407743.453979492,-35235359.19189453,-10355615.615844727,-20252340.31677246,-20548845.291137695,-33654113.76953125,-24510530.471801758,-24153160.095214844,-20693918.228149414,-19238258.361816406,-19697795.867919922
0.3,-22225282.669067383,-23157707.21435547,-41373306.27441406,-30952417.373657227,-34379825.592041016,-14806101.79901123,9187852.85949707,-1916934.3709945679,-18846290.588378906,-16404056.549072266,-30582801.818847656,-37842979.431152344,-38028240.20385742,-37550182.3425293,-15531279.563903809,37729209.899902344,-19716516.494750977,4021356.5826416016,-11428012.84790039,-12410976.40991211,-11233341.217041016,-37886039.73388672,-23194210.052490234,-19736835.479736328,4762172.698974609,-4573172.569274902,-11333447.456359863,-4973617.5537109375,-18005403.518676758,-17288360.595703125,-29165428.161621094,-26770671.844482422,12918101.31072998,-14104874.610900879,-9376280.784606934,-19374774.932861328,-1266182.6610565186,-16783374.786376953,-17783134.46044922,-25241809.844970703,-29204380.03540039,-14784235.000610352,-9785343.170166016,-10908916.473388672,-15892906.188964844,-11443533.897399902,-14007049.560546875,-30225860.595703125,-15068829.536437988,-30331501.007080078,-27043704.986572266,-29890813.82751465,-34564495.08666992,-10228517.532348633,-20306278.228759766,-20782321.92993164,-35978931.42700195,-25716148.376464844,-25236261.36779785,-20197402.954101562,-19444643.020629883,-19787591.9342041
0.305,-11102400.779724121,-16317918.77746582,-30907087.326049805,-25365556.716918945,-26183353.424072266,-14355570.793151855,9172295.570373535,-1744103.3124923706,-12708190.91796875,-10902259.826660156,-22680051.803588867,-29135162.353515625,-29351604.461669922,-28904254.913330078,-12342173.57635498,31865583.419799805,-13654962.539672852,4349923.610687256,-6441448.68850708,-7259367.942810059,-6327239.036560059,-29196277.618408203,-17013235.092163086,-11802052.49786377,7056190.013885498,254975.1102924347,-6557822.704315186,-1664049.506187439,-12340074.53918457,-12856398.582458496,-22532558.44116211,-17614315.032958984,11264373.779296875,-8331413.269042969,-5634447.5746154785,-17599010.467529297,-545080.7809829712,-12503506.660461426,-13397521.97265625,-20383411.407470703,-23205909.729003906,-10192958.83178711,-9042931.55670166,-9929751.3961792,-10769684.791564941,-7864562.034606934,-10936240.196228027,-25783645.629882812,-11379281.044006348,-24942234.03930664,-22503484.72595215,-23677154.541015625,-30455068.588256836,-6981034.278869629,-16490278.244018555,-16925821.30432129,-34641742.70629883,-23193410.873413086,-22824348.44970703,-16592536.926269531,-15888310.432434082,-16216230.392456055
0.31,-11609304.428100586,-13352418.899536133,-22617589.950561523,-16780918.12133789,-16923923.49243164,-17391920.08972168,9492374.420166016,-1537642.5981521606,-7589377.880096436,-6906706.3331604,-14159055.709838867,-18752876.28173828,-18974704.74243164,-18671586.990356445,-10121538.162231445,24066242.218017578,-8458275.79498291,2126889.46723938,-1545454.978942871,-2221972.703933716,-1550168.752670288,-18818162.91809082,-9495331.764221191,-4120522.4990844727,9409822.463989258,2811411.8576049805,-3614677.1907806396,1501510.0240707397,-5666193.962097168,-6764360.9046936035,-13494454.383850098,-6314769.744873047,7555792.331695557,-2679248.809814453,-3446172.9526519775,-16309968.948364258,-33493.47785115242,-6597078.323364258,-7126934.051513672,-14878093.719482422,-16749290.466308594,-6550105.094909668,-9235791.206359863,-10071537.971496582,-6458396.434783936,-3367133.140563965,-5919663.906097412,-17724737.1673584,-5877303.600311279,-17857824.325561523,-18064147.94921875,-17531400.680541992,-25350049.97253418,-2771152.4963378906,-9889303.207397461,-10106875.4196167,-28816495.895385742,-18766138.076782227,-18520427.703857422,-11858364.10522461,-9514481.544494629,-9912533.7600708
0.315,-13112612.7243042,-9439697.265625,-16223892.211914062,-6301141.262054443,-10050990.104675293,-15547731.399536133,13785006.523132324,2327369.213104248,-2302671.194076538,-4100756.1683654785,-7435111.045837402,-10140944.480895996,-10361371.040344238,-10178015.70892334,-3854825.735092163,21947841.64428711,-3296767.9500579834,473027.7955532074,1145069.3607330322,569878.4589767456,1076292.2763824463,-10222793.579101562,-2583360.433578491,5300604.343414307,15415069.580078125,5280229.091644287,-2247273.6835479736,3373590.4693603516,-1157899.1413116455,-1566965.103149414,-5437052.249908447,3115624.6662139893,8426001.54876709,5343658.447265625,16905.279830098152,-14089539.527893066,-205885.75303554535,-1526936.5310668945,-1700026.6313552856,-9993623.733520508,-9730518.341064453,-1578960.657119751,-6285554.4090271,-7222950.458526611,-2416820.287704468,2421762.228012085,-501343.0118560791,-9830815.315246582,-342956.1257362366,-10330719.947814941,-12634625.434875488,-11376621.24633789,-18366247.177124023,2942970.2758789062,-1546825.7665634155,-1541399.0020751953,-19964500.427246094,-11522713.661193848,-11485157.96661377,-4981537.342071533,-1271792.2925949097,-1667546.272277832
0.32,-3969045.400619507,-1406201.1241912842,-9643249.51171875,2447495.698928833,-6192873.477935791,-4122462.272644043,22137746.810913086,10138304.710388184,3909990.3106689453,-780208.3492279053,-2973613.0237579346,-4937307.357788086,-5190481.662750244,-4940348.148345947,7215468.883514404,28630161.28540039,2482441.6637420654,2960797.071456909,2337832.450866699,1841352.7011871338,2268203.020095825,-4924802.303314209,3178971.529006958,14854866.027832031,24613067.626953125,9251379.96673584,-1595933.6757659912,3697505.7125091553,-335987.2102737427,93304.18705940247,-442552.03008651733,8929357.528686523,15555512.428283691,14230527.877807617,4939004.421234131,-11238782.88269043,-674899.3992805481,33444.151282310486,18138.43846321106,-6859926.223754883,-2701105.1177978516,4649458.885192871,-715257.2870254517,-1862635.7316970825,-206979.33435440063,6775086.879730225,1908570.8856582642,-8005876.541137695,2555687.189102173,-4615855.2169799805,-7372648.7159729,-6633684.6351623535,-12238557.815551758,7423492.908477783,3843633.8901519775,3975121.259689331,-13270347.595214844,-3891031.9805145264,-4371217.250823975,887421.6675758362,4148757.9345703125,3899760.0078582764
0.325,5276424.884796143,1695829.153060913,-8946253.776550293,-866062.5219345093,-7693842.887878418,4928055.763244629,25216617.584228516,13497654.914855957,3827180.3855895996,-768652.8563499451,-4618563.175201416,-7563596.725463867,-7927983.76083374,-7433307.17086792,10110565.185546875,37242542.2668457,2220518.112182617,7569348.335266113,1490611.4339828491,987321.4960098267,1464362.7405166626,-7355686.187744141,3506649.971008301,11466064.453125,26994224.548339844,8368480.682373047,-4582755.565643311,1271430.0155639648,-5163641.929626465,-4977272.987365723,-3153309.3452453613,5211385.726928711,20510469.436645508,12508008.95690918,4023246.2882995605,-11825025.55847168,-850506.5441131592,-5182633.399963379,-5195934.772491455,-9269556.999206543,-3006091.833114624,3773457.5271606445,-350799.0539073944,-1845407.247543335,-6348920.822143555,2076816.7972564697,-3489585.6380462646,-16967468.26171875,-1432718.276977539,-6817882.537841797,-10068552.97088623,-10955683.708190918,-15935361.862182617,2943242.5498962402,-1859706.8786621094,-1768025.0406265259,-16290336.608886719,-5427769.660949707,-6229884.147644043,-3622766.2563323975,-1443537.2352600098,-1541321.6352462769
0.33,-5246214.389801025,-11018598.556518555,-22096910.47668457,-21261228.561401367,-17236690.521240234,-4006204.605102539,14595246.315002441,4660704.135894775,-9173512.45880127,-9408613.204956055,-15633339.881896973,-20488206.86340332,-21023008.346557617,-20297496.795654297,-6220036.98348999,37779029.846191406,-9540703.773498535,8158155.44128418,-3418269.157409668,-4067805.290222168,-3363924.980163574,-20210201.263427734,-5705838.203430176,-11873261.451721191,15874431.610107422,-2723926.544189453,-12967939.376831055,-4441669.464111328,-15197779.655456543,-16235143.661499023,-15867805.480957031,-11637067.794799805,15023506.164550781,-5613049.030303955,-6959519.863128662,-17580564.498901367,-734271.228313446,-16534639.358520508,-16584802.627563477,-19425275.802612305,-16278261.184692383,-9900293.350219727,-9405365.943908691,-11263379.096984863,-21993667.602539062,-13477705.001831055,-16272397.994995117,-33531253.814697266,-13053490.63873291,-19929496.76513672,-24972553.253173828,-27913040.161132812,-32726776.123046875,-12433826.446533203,-19674713.134765625,-19847999.572753906,-30746519.088745117,-21461841.583251953,-21571004.86755371,-21421091.079711914,-19127540.588378906,-19256130.21850586
0.335,-31252454.75769043,-32021736.14501953,-41361511.23046875,-43524768.8293457,-29226823.806762695,-25752490.997314453,-2344413.0420684814,-10054971.694946289,-26248060.22644043,-21860557.556152344,-28399524.688720703,-34144855.49926758,-34786121.3684082,-34029644.01245117,-30060523.986816406,28271482.467651367,-23908174.514770508,3084843.397140503,-10018168.449401855,-10855911.254882812,-9890613.555908203,-34058349.609375,-17770904.541015625,-37336006.16455078,1235536.0984802246,-15868160.247802734,-20656896.591186523,-10017619.132995605,-23076829.91027832,-25441011.428833008,-29243324.279785156,-29429023.74267578,3022020.3399658203,-25183990.478515625,-18883787.155151367,-23177686.69128418,-703990.7574653625,-25624019.622802734,-25731370.92590332,-30643310.546875,-32892047.882080078,-26502874.37438965,-20092531.204223633,-21990081.787109375,-34992279.052734375,-27682073.59313965,-26665019.989013672,-45160255.432128906,-24180341.720581055,-34509372.71118164,-41579456.3293457,-45572532.653808594,-49859123.22998047,-26630475.997924805,-35996051.78833008,-36525993.34716797,-46094215.393066406,-40247058.8684082,-39104660.03417969,-38794830.322265625,-35375778.19824219,-35694343.56689453
0.34,-44265865.325927734,-39269725.79956055,-46108707.427978516,-44239196.77734375,-31171651.84020996,-37502037.048339844,-8343079.566955566,-15374659.538269043,-29295036.31591797,-24773294.44885254,-28532587.0513916,-32951690.673828125,-33524078.369140625,-32923450.469970703,-37488487.243652344,15975193.977355957,-24961868.286132812,-1726164.9370193481,-11081713.676452637,-11974769.592285156,-10955007.553100586,-33142795.56274414,-18645107.26928711,-39171249.38964844,-866681.158542633,-16875560.760498047,-19324190.139770508,-10264373.779296875,-19960329.055786133,-23075296.40197754,-28623613.357543945,-28118654.251098633,-4104066.3719177246,-25547685.623168945,-18875019.073486328,-22336572.647094727,-826830.267906189,-23010225.296020508,-23219289.779663086,-31480552.673339844,-35032218.93310547,-29661146.16394043,-21722393.035888672,-23160078.048706055,-31866317.749023438,-25848337.173461914,-24057609.55810547,-40818901.06201172,-23854143.142700195,-35542427.06298828,-43727535.247802734,-46712104.79736328,-50471069.3359375,-24994436.264038086,-34723442.07763672,-35346580.505371094,-48019306.18286133,-43004463.19580078,-41639865.87524414,-38285625.45776367,-34152111.0534668,-34609985.3515625
0.345,-31041265.4876709,-25607799.530029297,-30341293.334960938,-23246385.57434082,-20080810.546875,-29618488.311767578,373858.7498664856,-7752540.588378906,-15774616.241455078,-14493696.212768555,-14439323.425292969,-16538448.333740234,-16930181.5032959,-16487506.866455078,-24913694.381713867,7813100.814819336,-12290032.386779785,-1035351.8724441528,-4193730.8311462402,-4979064.94140625,-4122920.9899902344,-16827425.003051758,-6121467.113494873,-19405382.15637207,9149370.193481445,-5907315.731048584,-11047340.393066406,-5165365.695953369,-7790916.442871094,-10403960.227966309,-13709447.860717773,-7372413.158416748,-2835589.647293091,-8962586.402893066,-8439647.674560547,-17054647.44567871,-844259.6793174744,-10228343.963623047,-10529222.48840332,-20174678.802490234,-20622140.884399414,-18430128.09753418,-15113039.97039795,-15919613.8381958,-16335552.215576172,-10048142.433166504,-10250629.425048828,-23905796.05102539,-11680674.55291748,-21563867.568969727,-30625446.319580078,-31392545.700073242,-35616600.036621094,-9427498.817443848,-17680089.950561523,-17932477.951049805,-35514194.48852539,-28665382.385253906,-28414392.471313477,-21419008.255004883,-17236566.5435791,-17688508.987426758
0.35,-14474312.782287598,-11790495.872497559,-15452924.728393555,-8829633.712768555,-10395550.727844238,-19724626.541137695,7270985.126495361,-1654131.531715393,-5527852.0584106445,-5353538.990020752,-3573047.637939453,-4863807.678222656,-5158455.371856689,-4746537.208557129,-15726477.62298584,3448907.8521728516,-4649211.883544922,2040884.4947814941,2589279.1748046875,1917641.282081604,2661313.772201538,-5042610.168457031,3397798.0613708496,-8611352.920532227,13826759.338378906,448177.2780418396,-7942036.6287231445,-1218396.9020843506,59594.303369522095,-299231.26101493835,-2681956.2911987305,7040703.773498535,-1070360.4221343994,250189.33415412903,-2514250.5168914795,-15607034.683227539,-690624.0582466125,-245949.1640329361,-528056.0255050659,-9416156.768798828,-9352713.584899902,-9911361.694335938,-10875123.023986816,-11421512.603759766,-6767466.068267822,1382980.5850982666,686530.351638794,-10331503.868103027,-406145.9004878998,-9284267.42553711,-19706707.000732422,-19315425.872802734,-24761116.02783203,1997045.5169677734,-4998173.713684082,-4709323.883056641,-24076034.545898438,-17783721.923828125,-18081989.288330078,-9021250.72479248,-4615258.693695068,-5074715.137481689
0.355,-21584774.017333984,-19338172.912597656,-22940973.28186035,-21740724.563598633,-16286241.53137207,-26952562.33215332,-1439819.3359375,-9377155.303955078,-14660057.067871094,-11516397.476196289,-10602434.158325195,-13378481.8649292,-13740573.88305664,-13297799.110412598,-27688888.549804688,-551844.0008163452,-14912611.00769043,1020716.667175293,569045.4840660095,-125194.08762454987,755855.5603027344,-13421679.496765137,-4061922.073364258,-24888841.62902832,3315397.5009918213,-8287611.00769043,-16072898.864746094,-3306500.6732940674,-5344129.0855407715,-2854494.094848633,-9694067.95501709,-4589885.234832764,-5134772.300720215,-11571496.00982666,-9124639.511108398,-21130901.336669922,-588317.334651947,-2981443.405151367,-3109443.426132202,-11675522.804260254,-17655157.0892334,-16475746.154785156,-14259797.096252441,-15053744.316101074,-13598446.8460083,-4062414.1693115234,-1993628.740310669,-12004817.962646484,-1701080.2030563354,-13491625.785827637,-24510990.142822266,-25211257.934570312,-31225271.224975586,-3188680.410385132,-11396855.354309082,-10920983.31451416,-27678077.697753906,-25946908.950805664,-24823804.85534668,-15717713.356018066,-10932672.500610352,-11552357.67364502
0.36,-44847438.81225586,-40427925.10986328,-44130008.697509766,-46825489.04418945,-31372970.581054688,-43808830.26123047,-16492971.420288086,-22888410.568237305,-32789276.123046875,-26802680.96923828,-26846736.907958984,-31577877.044677734,-32038909.912109375,-31623727.798461914,-47688766.47949219,-3373112.440109253,-31588199.615478516,-3867088.3178710938,-7356604.57611084,-8166229.248046875,-7013604.164123535,-31577846.52709961,-19862575.53100586,-48973068.23730469,-10507205.00946045,-21685251.235961914,-26484180.450439453,-8236433.029174805,-17156158.447265625,-13970833.778381348,-26059814.453125,-28429969.787597656,-10128182.411193848,-29434362.411499023,-19048814.77355957,-27266983.032226562,-643070.2805519104,-14175602.912902832,-14106491.088867188,-23776050.567626953,-36653251.64794922,-29457075.119018555,-18946336.74621582,-20118467.330932617,-27429819.107055664,-18514240.264892578,-14060280.799865723,-25215820.3125,-12947895.050048828,-28478351.593017578,-37485736.84692383,-40350757.59887695,-45737777.70996094,-17392799.377441406,-28684490.203857422,-28537500.381469727,-41847934.72290039,-42790794.372558594,-39771743.77441406,-32437675.47607422,-28115144.729614258,-28883371.353149414
0.365,-54152942.6574707,-49017070.77026367,-52294334.411621094,-54499958.03833008,-37097839.35546875,-47629318.23730469,-18978826.52282715,-25266256.33239746,-38007396.69799805,-33054351.806640625,-32377109.52758789,-37637153.62548828,-38090915.67993164,-37729843.13964844,-51147666.931152344,-1224280.4765701294,-35060092.92602539,-6271676.540374756,-10988391.876220703,-11854006.76727295,-10532335.28137207,-37642074.58496094,-24536506.65283203,-52093662.26196289,-11264822.006225586,-23552249.908447266,-27542425.15563965,-9668245.315551758,-22568693.161010742,-21745119.094848633,-32976837.158203125,-35857337.951660156,-7579514.026641846,-32064762.115478516,-19870737.075805664,-27143581.39038086,-727829.9927711487,-21951522.827148438,-21767822.265625,-31751340.866088867,-44712158.203125,-32053211.212158203,-17428621.292114258,-18754751.205444336,-33100524.90234375,-25352354.049682617,-22711271.286010742,-36647125.244140625,-21693990.70739746,-36452442.16918945,-41283027.64892578,-45462139.12963867,-50152137.756347656,-24262092.59033203,-37156139.3737793,-37479961.39526367,-49741695.404052734,-46696060.18066406,-43693138.122558594,-39762905.12084961,-36610038.75732422,-37241252.89916992
0.37,-40386978.14941406,-36978187.561035156,-40143310.546875,-41113403.3203125,-28634031.295776367,-34248779.296875,-7897068.023681641,-15132287.02545166,-27598932.26623535,-25335794.44885254,-23706787.109375,-28470523.834228516,-28868358.612060547,-28448595.04699707,-37310115.814208984,4896332.740783691,-25031661.987304688,-3762827.157974243,-7558417.797088623,-8360388.75579834,-7035339.35546875,-28466495.513916016,-15178850.173950195,-35885627.74658203,-1087506.2942504883,-14429265.975952148,-20874155.044555664,-7081286.907196045,-19627202.9876709,-21079631.805419922,-26938375.47302246,-22563478.469848633,1377424.8361587524,-21014963.150024414,-12765869.140625,-22497900.009155273,-820386.1713409424,-21280456.54296875,-21096057.891845703,-28794748.306274414,-36272586.822509766,-22325326.919555664,-11357377.052307129,-12679409.980773926,-28553884.506225586,-20057819.366455078,-21666893.005371094,-38016429.90112305,-20702404.022216797,-30627130.50842285,-32151493.072509766,-36313110.3515625,-41282611.84692383,-19195278.16772461,-30037395.477294922,-30515876.77001953,-43055198.669433594,-34379722.595214844,-32914100.646972656,-32699634.552001953,-29592599.868774414,-29860944.747924805
0.375,-25777688.98010254,-22665742.874145508,-27455869.674682617,-29687444.68688965,-19908212.661743164,-23864984.5123291,-658095.5982208252,-7737916.946411133,-19126083.374023438,-16775451.66015625,-16224576.950073242,-21155580.520629883,-21584093.09387207,-20978244.78149414,-29200410.842895508,7797194.004058838,-18973066.329956055,-1209562.6592636108,-4423112.392425537,-5136300.563812256,-3870026.111602783,-21136699.676513672,-7784337.043762207,-27432394.02770996,3694383.8596343994,-8768080.711364746,-17547323.22692871,-5366688.7283325195,-17078071.59423828,-17349180.221557617,-21259698.86779785,-11354462.623596191,6413736.343383789,-15264402.389526367,-8608794.212341309,-20359561.920166016,-1084111.8097305298,-17542118.072509766,-17378252.029418945,-22037242.889404297,-26418333.053588867,-14450191.497802734,-7986052.989959717,-9375154.495239258,-23821496.963500977,-13189346.313476562,-16338428.497314453,-32710796.356201172,-14563067.436218262,-21704374.313354492,-23421628.952026367,-27144254.684448242,-32880725.860595703,-12446303.367614746,-19658041.00036621,-19920570.373535156,-31287567.138671875,-23988742.82836914,-22888772.96447754,-24244291.305541992,-19211957.931518555,-19281990.05126953
0.38,-30027477.264404297,-23348413.467407227,-31076890.94543457,-34639587.40234375,-22176317.21496582,-32334724.42626953,-7545985.221862793,-12734403.610229492,-23443086.624145508,-18123517.990112305,-20234376.907348633,-26414981.842041016,-26939039.23034668,-26184301.376342773,-41031616.2109375,2563490.629196167,-26263032.913208008,-2794595.241546631,-6834176.540374756,-7548957.824707031,-6314193.248748779,-26387910.842895508,-13014737.129211426,-40552616.119384766,-4425494.67086792,-13651103.019714355,-21611492.156982422,-6810008.525848389,-20008611.67907715,-17276386.260986328,-25015172.958374023,-17948274.612426758,898032.009601593,-23298822.4029541,-12253973.960876465,-23342527.389526367,-1489935.8749389648,-17475852.966308594,-17274171.829223633,-21561622.619628906,-28521854.400634766,-19090570.4498291,-10377390.86151123,-11874777.793884277,-25827541.35131836,-14814269.065856934,-15286682.12890625,-29840652.465820312,-12473030.090332031,-22240253.448486328,-26711824.417114258,-30294139.862060547,-36303501.12915039,-13962616.920471191,-20405368.80493164,-20402410.50720215,-29531726.837158203,-29684513.092041016,-26804790.496826172,-26518030.166625977,-19838159.561157227,-20083028.79333496
0.385,-44976348.876953125,-34183811.18774414,-43680675.5065918,-44947479.248046875,-29764184.951782227,-50605693.81713867,-18854597.091674805,-22258405.685424805,-31731763.83972168,-24317493.438720703,-28007972.717285156,-35199054.71801758,-35739784.240722656,-34996776.58081055,-60643444.0612793,-6719518.184661865,-36982517.24243164,-6091546.058654785,-10788187.980651855,-11582074.165344238,-10335002.899169922,-35146018.981933594,-22550289.154052734,-59820377.349853516,-15732902.526855469,-21202505.111694336,-25982723.236083984,-8410512.924194336,-23680847.16796875,-20752645.49255371,-32086746.215820312,-31364414.21508789,-10251411.437988281,-33905117.03491211,-18267463.68408203,-27346120.834350586,-1673700.213432312,-20993526.458740234,-20782356.26220703,-27962913.513183594,-38220691.6809082,-30603406.90612793,-15192170.143127441,-16639390.94543457,-31057321.548461914,-22097129.821777344,-19667972.564697266,-33425926.208496094,-17427734.375,-31513772.96447754,-37498954.77294922,-41082603.454589844,-46985446.92993164,-21102449.417114258,-31275911.331176758,-31218189.239501953,-40455711.364746094,-43988567.35229492,-39311294.55566406,-35870887.756347656,-30663194.65637207,-31192462.921142578
0.39,-51000431.060791016,-40288730.62133789,-48814121.24633789,-45770980.83496094,-31882244.110107422,-58827644.34814453,-21196020.126342773,-24529760.360717773,-32613628.387451172,-25831665.0390625,-28512350.08239746,-35233386.9934082,-35676715.85083008,-35022140.50292969,-67979408.26416016,-11520783.424377441,-38758274.07836914,-7033362.38861084,-11000693.321228027,-11831646.919250488,-10544890.403747559,-35124633.7890625,-23592123.03161621,-64736221.31347656,-18164194.107055664,-22518207.550048828,-24853111.267089844,-7812564.373016357,-22710622.787475586,-22599079.132080078,-32963802.337646484,-33238826.751708984,-16510166.16821289,-34452304.84008789,-20619478.225708008,-28164115.90576172,-1418774.962425232,-22829046.24938965,-22806058.883666992,-33111698.150634766,-42278018.951416016,-35682865.142822266,-17976827.62145996,-19261823.654174805,-32676666.259765625,-24427484.5123291,-22539541.244506836,-37851646.423339844,-23209539.41345215,-38199699.40185547,-42474067.68798828,-45872978.21044922,-52054882.04956055,-23465236.66381836,-38174343.10913086,-38186538.69628906,-51163753.509521484,-49517742.15698242,-45029491.42456055,-39316329.95605469,-37700984.954833984,-38259613.037109375
0.395,-44745475.76904297,-38025360.107421875,-44149284.36279297,-39839931.48803711,-28551023.483276367,-51669940.94848633,-15484507.56072998,-19709493.63708496,-28767799.377441406,-23258043.28918457,-23578544.61669922,-28547811.50817871,-28888853.073120117,-28249177.932739258,-59797424.31640625,-8707509.994506836,-33384365.08178711,-6324008.464813232,-9208245.277404785,-9989290.237426758,-8677433.967590332,-28382560.72998047,-16492126.46484375,-55058223.724365234,-11814881.324768066,-19242931.365966797,-21799171.447753906,-7142414.569854736,-19228139.877319336,-19785104.751586914,-27805774.688720703,-22903196.334838867,-12952887.535095215,-26889999.389648438,-19729799.270629883,-26551099.77722168,-1053968.906402588,-19848272.3236084,-20186811.447143555,-30746574.40185547,-35891696.92993164,-29641716.00341797,-17359771.728515625,-18675737.380981445,-29721988.677978516,-18008794.7845459,-18284408.569335938,-35229236.6027832,-21797725.677490234,-34416385.650634766,-36789588.928222656,-39947956.08520508,-46900867.4621582,-17200077.056884766,-31948246.002197266,-31916707.99255371,-48537181.85424805,-41454063.415527344,-38359260.55908203,-31989656.448364258,-31636671.06628418,-31994312.286376953
0.4,-38939041.13769531,-35426647.1862793,-40057960.510253906,-38423152.923583984,-27081214.904785156,-41115680.69458008,-11789841.651916504,-16096111.297607422,-29006864.547729492,-22926858.90197754,-22060882.568359375,-25210449.21875,-25501556.396484375,-24805213.928222656,-49242046.35620117,-3156025.4096984863,-30687639.236450195,-6978889.465332031,-9633999.824523926,-10400013.92364502,-9115478.515625,-25015888.214111328,-11020409.58404541,-45822257.99560547,-5514028.549194336,-17735034.942626953,-22404781.341552734,-8745077.133178711,-18341857.91015625,-15231206.893920898,-23390844.345092773,-14110981.941223145,-4477236.747741699,-21854949.951171875,-19141323.08959961,-25880743.0267334,-1077203.5121917725,-15086114.883422852,-15673406.600952148,-23763216.018676758,-26592010.498046875,-20649408.3404541,-15150482.177734375,-16786314.010620117,-27512844.08569336,-11552948.951721191,-11037058.83026123,-27221668.243408203,-13680719.375610352,-24414297.103881836,-29319204.330444336,-32530651.092529297,-40354747.7722168,-10794302.940368652,-20637399.673461914,-20443115.234375,-35804714.20288086,-31976585.388183594,-29564313.888549805,-23705709.45739746,-20293687.82043457,-20547979.3548584
0.405,-41909027.099609375,-38218769.07348633,-42911140.44189453,-42850315.09399414,-29553958.892822266,-38846191.40625,-13852657.318115234,-17021574.020385742,-33351207.733154297,-24933347.702026367,-25779409.408569336,-28151432.037353516,-28373432.159423828,-27661746.978759766,-47416942.59643555,-1068534.9702835083,-33637191.77246094,-8627794.26574707,-11248000.144958496,-12148438.453674316,-10909676.551818848,-27953792.572021484,-12128086.09008789,-46589393.615722656,-4867309.093475342,-19036590.576171875,-25364501.953125,-10805451.393127441,-20384048.461914062,-14732313.15612793,-23444555.282592773,-15211138.725280762,-20318.010821938515,-24366617.20275879,-20205169.677734375,-27433412.551879883,-1494251.3704299927,-14576485.633850098,-15087185.859680176,-20963026.04675293,-24526662.826538086,-19332048.416137695,-14551038.74206543,-16464527.130126953,-30912115.0970459,-15823713.302612305,-10970534.324645996,-25392734.52758789,-9026598.930358887,-19905422.21069336,-31072069.16809082,-34695640.563964844,-43538215.63720703,-14921030.99822998,-20677642.822265625,-20458545.684814453,-29936695.098876953,-34188140.869140625,-31455892.56286621,-26936040.8782959,-20129859.924316406,-20522829.055786133
0.41,-48578304.290771484,-43767452.239990234,-48996181.48803711,-45397800.44555664,-31825794.219970703,-43627353.66821289,-16776777.267456055,-18634191.513061523,-34974193.57299805,-24247251.510620117,-29251770.01953125,-32003425.59814453,-32103855.13305664,-31438400.268554688,-52436473.84643555,-3277881.860733032,-36881931.30493164,-8714765.548706055,-10293461.799621582,-11346007.347106934,-10106378.555297852,-31825899.124145508,-16174150.466918945,-53119850.158691406,-7838377.475738525,-19705648.42224121,-25764299.392700195,-10242987.632751465,-21740264.892578125,-20075744.62890625,-26191207.885742188,-21279777.52685547,-3123640.298843384,-30110206.604003906,-21741918.563842773,-29561950.68359375,-1825631.3800811768,-20103210.44921875,-20364871.978759766,-26689891.815185547,-31494892.120361328,-26665067.672729492,-17310060.501098633,-19119525.909423828,-38347827.91137695,-29123132.705688477,-21026317.596435547,-35959663.39111328,-15482304.573059082,-26738895.416259766,-41539157.86743164,-45562335.96801758,-55670623.779296875,-28041320.80078125,-35786197.662353516,-35794479.37011719,-40255744.93408203,-46531806.94580078,-43500762.939453125,-40449184.41772461,-35071266.174316406,-35634754.1809082
0.415,-50121131.896972656,-46574157.71484375,-51932006.8359375,-42359458.923339844,-31419019.69909668,-45972225.189208984,-16380023.956298828,-17589374.542236328,-31852886.199951172,-20471975.326538086,-29207593.91784668,-32352394.104003906,-32389865.87524414,-31731412.887573242,-54974617.00439453,-5523142.8146362305,-36319385.52856445,-7459033.966064453,-7505845.546722412,-8445901.870727539,-7180789.947509766,-32228237.15209961,-17670574.188232422,-55726303.10058594,-9474040.985107422,-18419166.564941406,-23234605.78918457,-7648628.711700439,-20813873.291015625,-25996202.46887207,-27929899.215698242,-22778488.159179688,-8318408.966064453,-32373645.782470703,-22134651.18408203,-30269989.013671875,-1739802.360534668,-26141008.377075195,-26284263.610839844,-34823318.48144531,-38846557.6171875,-33364105.224609375,-21195377.349853516,-22649560.928344727,-42931278.228759766,-37626266.47949219,-31144866.943359375,-48719089.50805664,-26737812.042236328,-37134876.2512207,-49243591.30859375,-53142440.79589844,-63946914.67285156,-36545913.69628906,-50001132.96508789,-50234207.15332031,-54697269.439697266,-55164470.67260742,-52169078.8269043,-49377182.00683594,-49285709.381103516,-49820644.37866211
0.42,-44390876.77001953,-43856376.64794922,-49167484.283447266,-36870269.775390625,-29209012.985229492,-40355194.091796875,-13441099.166870117,-14535372.734069824,-27904846.19140625,-18143335.342407227,-26971260.07080078,-29071531.295776367,-29203804.01611328,-28475038.528442383,-49814678.19213867,-3675334.2151641846,-33353599.548339844,-7147018.4326171875,-6759232.044219971,-7301681.995391846,-6059064.865112305,-29027822.494506836,-14088280.67779541,-50260551.45263672,-7502104.759216309,-16826761.24572754,-21640045.166015625,-6108331.680297852,-19322713.85192871,-25789760.58959961,-25910709.381103516,-15635204.315185547,-7668243.408203125,-28835069.65637207,-20448627.471923828,-29269973.754882812,-1393093.228340149,-25906324.38659668,-26074853.897094727,-35365863.80004883,-36409397.12524414,-31171461.10534668,-21706136.70349121,-22990243.911743164,-40135990.142822266,-32119201.66015625,-29931243.896484375,-48550956.72607422,-29052633.28552246,-38063362.12158203,-45740917.20581055,-48891101.8371582,-58864467.62084961,-31248498.916625977,-46624378.2043457,-46799995.42236328,-54326828.00292969,-50408378.60107422,-47234912.87231445,-43357742.30957031,-46015533.447265625,-46382785.79711914
0.425,-36242679.595947266,-37087535.8581543,-42989032.74536133,-32209980.010986328,-25574693.67980957,-31067665.100097656,-10134911.53717041,-11213706.016540527,-25330698.013305664,-18490886.688232422,-23954076.766967773,-23640983.58154297,-23941837.310791016,-23171546.936035156,-41297626.49536133,2045210.1230621338,-30938930.51147461,-7537375.450134277,-8109495.162963867,-8367294.3115234375,-7146393.299102783,-23663825.98876953,-6659132.957458496,-41842720.03173828,-4095711.2312316895,-16111396.789550781,-22719381.33239746,-6514594.078063965,-18911643.981933594,-19786651.611328125,-20481824.87487793,-4470562.934875488,-710986.077785492,-22999252.319335938,-17436357.498168945,-27840990.06652832,-1071342.8258895874,-19973825.454711914,-20044698.71520996,-27090927.124023438,-24869718.551635742,-22961774.826049805,-17764709.47265625,-19232229.232788086,-33530845.642089844,-19920814.514160156,-19460218.42956543,-35800262.451171875,-19402059.55505371,-27716245.651245117,-35964782.71484375,-38364082.33642578,-46506313.32397461,-19272192.001342773,-29954040.52734375,-29907197.952270508,-38871082.3059082,-37996612.548828125,-34368965.14892578,-30015869.140625,-29427183.151245117,-29716875.076293945
0.43,-31540664.672851562,-30933076.858520508,-38631134.033203125,-28961477.279663086,-20602436.065673828,-26713190.07873535,-7512548.923492432,-8675793.647766113,-22817567.825317383,-17865074.157714844,-20674547.19543457,-18496463.775634766,-18860115.05126953,-18161497.116088867,-37890735.6262207,7517137.52746582,-29994045.25756836,-6304455.757141113,-7824265.003204346,-8274469.375610352,-6965875.148773193,-18520465.850830078,-212141.7671442032,-39145790.100097656,-3077875.6141662598,-16108243.942260742,-24404323.57788086,-7032892.70401001,-19208694.458007812,-14861449.241638184,-15826820.373535156,1604612.2312545776,4886714.458465576,-20248559.951782227,-15559431.076049805,-27252433.77685547,-789593.3389663696,-15332659.721374512,-15099700.927734375,-19422376.63269043,-16306644.439697266,-18628557.205200195,-13706204.414367676,-15421017.64678955,-30352912.90283203,-14742347.717285156,-11944810.86730957,-25429597.854614258,-9508243.560791016,-18200548.17199707,-31386608.123779297,-33768356.32324219,-40698829.650878906,-14115127.563476562,-19224826.81274414,-19124185.56213379,-27170188.903808594,-31423347.47314453,-27593984.603881836,-24557626.724243164,-18696640.014648438,-19079494.47631836
0.435,-31560241.69921875,-29120756.149291992,-39447589.87426758,-27262964.248657227,-16923982.620239258,-29695938.110351562,-6407937.526702881,-8130325.3173828125,-20488113.403320312,-14814394.9508667,-18987560.272216797,-16919910.430908203,-17185007.095336914,-16589939.11743164,-41743747.71118164,9023362.159729004,-29969537.73498535,-3831118.583679199,-5095114.231109619,-6023294.925689697,-4608580.589294434,-16876653.67126465,268494.4272041321,-44136150.36010742,-5119445.80078125,-16743570.327758789,-24830013.275146484,-6694138.050079346,-19006042.48046875,-14961933.135986328,-15849045.753479004,-1752469.539642334,3603805.5419921875,-21886436.462402344,-16377960.205078125,-27462244.033813477,-463612.52665519714,-15632041.931152344,-15180755.615234375,-19962156.295776367,-19260314.94140625,-21825923.919677734,-13852269.172668457,-15551519.393920898,-32229053.497314453,-18450031.280517578,-12878656.387329102,-25766775.131225586,-9267891.883850098,-19285022.735595703,-35121906.28051758,-38051174.16381836,-44997524.26147461,-17640338.897705078,-22643842.697143555,-22686285.0189209,-31086259.841918945,-35095287.32299805,-31363862.991333008,-29468547.821044922,-22090070.724487305,-22590196.60949707
0.44,-32248779.296875,-29866209.030151367,-42054161.071777344,-26975328.44543457,-17236953.735351562,-33503028.869628906,-7013274.192810059,-10013778.686523438,-20644327.16369629,-12724103.927612305,-20295513.153076172,-19192289.352416992,-19315631.866455078,-18720821.380615234,-45925518.03588867,7119508.266448975,-30142339.7064209,-3251636.266708374,-3400251.626968384,-4530546.66519165,-3223118.0667877197,-19091396.33178711,-4127974.033355713,-49294902.80151367,-6523879.528045654,-17949878.692626953,-24488807.678222656,-6626520.156860352,-17670814.514160156,-16511707.305908203,-18713117.599487305,-8383275.985717773,-697949.5882987976,-23721437.454223633,-18371641.159057617,-27487380.981445312,-256956.3388824463,-17024969.10095215,-16706573.486328125,-24992124.557495117,-27304590.225219727,-25730415.34423828,-17238512.03918457,-18718309.40246582,-34351009.368896484,-21153020.85876465,-15687973.022460938,-29258649.826049805,-14313213.348388672,-25864845.275878906,-39353816.986083984,-42421321.868896484,-49765232.08618164,-20155748.36730957,-29025981.903076172,-29116256.713867188,-40924938.2019043,-40381381.98852539,-36576595.306396484,-33444660.186767578,-28535394.6685791,-29010459.899902344
0.445,-30063970.5657959,-28650775.909423828,-40401863.09814453,-27370460.510253906,-20183994.29321289,-32174175.262451172,-8098031.044006348,-12714908.599853516,-23791255.950927734,-14358041.763305664,-22752370.834350586,-21291791.915893555,-21366090.774536133,-20689367.294311523,-44205638.88549805,5678826.332092285,-30347599.029541016,-5332586.765289307,-4663627.147674561,-5504942.893981934,-4476218.700408936,-21234390.258789062,-6672891.139984131,-47826923.37036133,-4460038.185119629,-19139167.78564453,-24459650.03967285,-7580911.636352539,-15832671.165466309,-15573455.810546875,-19347171.783447266,-8808507.919311523,-805823.7433433533,-22133892.059326172,-19177743.911743164,-26980955.123901367,-430598.82521629333,-15802393.913269043,-15819231.033325195,-26604406.356811523,-28558340.072631836,-23671693.801879883,-19912889.48059082,-21293100.357055664,-33914627.07519531,-18352060.317993164,-14676497.459411621,-27985162.73498535,-15689754.486083984,-27386480.3314209,-37906356.81152344,-40285022.7355957,-47856555.9387207,-17334575.653076172,-27892517.08984375,-27839525.22277832,-42765594.482421875,-39327182.76977539,-35249290.466308594,-30264142.990112305,-27574920.654296875,-27892293.93005371
0.45,-27928224.563598633,-26094608.306884766,-35883232.11669922,-29100597.381591797,-22849391.93725586,-29217258.45336914,-8883179.664611816,-14494850.158691406,-27935655.59387207,-18330577.850341797,-24329500.198364258,-21141143.798828125,-21267049.78942871,-20597497.940063477,-40117309.5703125,7037482.261657715,-31493535.9954834,-7224968.433380127,-6824637.413024902,-7268696.308135986,-6317028.999328613,-21202302.932739258,-4774673.4619140625,-43467453.00292969,-1637998.342514038,-20080337.524414062,-24982645.03479004,-8689987.182617188,-15457704.544067383,-14647846.221923828,-17650676.727294922,-3511809.825897217,3678228.8551330566,-19437242.50793457,-18978967.666625977,-26662668.228149414,-886199.7127532959,-14879104.614257812,-15081609.725952148,-24788541.793823242,-23159757.614135742,-18499500.274658203,-20354066.848754883,-21900415.420532227,-33766910.552978516,-17301349.639892578,-13997102.737426758,-26494588.85192871,-14274054.527282715,-23981645.584106445,-34552860.260009766,-36221614.837646484,-44402565.002441406,-16403238.296508789,-25002895.35522461,-24886159.896850586,-38947010.0402832,-35450725.55541992,-31352556.228637695,-27574630.737304688,-24820888.51928711,-25000551.223754883
0.455,-31005842.208862305,-27478248.596191406,-36438133.239746094,-33206249.237060547,-25237581.253051758,-31885530.471801758,-10238940.238952637,-15588717.460632324,-31239711.76147461,-22005357.74230957,-26454717.6361084,-22246068.954467773,-22434902.19116211,-21945676.803588867,-40941047.66845703,9345916.748046875,-34184276.58081055,-7314020.156860352,-8182479.8583984375,-8531505.584716797,-7311295.032501221,-22357027.053833008,-4216541.767120361,-44089599.609375,-2284958.3625793457,-20953723.907470703,-25774890.899658203,-9179025.650024414,-17883255.004882812,-17395883.560180664,-18690408.70666504,-2027328.9680480957,7005140.30456543,-19618770.599365234,-19164085.388183594,-26736858.367919922,-1178407.5498580933,-17885171.89025879,-18040689.46838379,-25309024.810791016,-21705953.59802246,-16788957.595825195,-19740158.081054688,-21504497.528076172,-35403366.08886719,-22689805.98449707,-18150655.74645996,-30713302.612304688,-16302747.72644043,-23720937.728881836,-34993030.5480957,-36711490.631103516,-46160030.364990234,-21904235.83984375,-29137292.861938477,-29196922.302246094,-39931831.35986328,-35864105.224609375,-32050926.208496094,-32046031.951904297,-28893268.585205078,-29068967.819213867
0.46,-36917747.497558594,-32788021.087646484,-42957572.93701172,-36411258.697509766,-27992742.53845215,-38861751.556396484,-12009080.88684082,-16421178.817749023,-32307544.708251953,-23996021.270751953,-30390289.306640625,-26854408.264160156,-27066299.438476562,-26782781.60095215,-45522609.71069336,9496334.075927734,-36318000.79345703,-7571099.758148193,-9673353.19519043,-10127589.225769043,-8705552.101135254,-26889551.162719727,-9537094.116210938,-48145374.2980957,-4871399.879455566,-20897594.451904297,-26078008.6517334,-9397294.044494629,-21053894.04296875,-20471588.134765625,-23348009.10949707,-7582369.804382324,6432841.3009643555,-20862215.042114258,-18825370.78857422,-25982820.510864258,-1062767.2672271729,-21059944.15283203,-21146888.732910156,-28090021.13342285,-27186752.319335938,-18057554.244995117,-18599227.905273438,-20338708.877563477,-34407947.5402832,-26352846.145629883,-21496866.22619629,-33921070.09887695,-19674474.716186523,-26973796.844482422,-36645454.40673828,-38615219.11621094,-49151828.76586914,-25608592.987060547,-34117240.90576172,-34332588.19580078,-43990055.084228516,-38511322.021484375,-34891284.94262695,-36213542.93823242,-33676105.49926758,-33947315.21606445
0.465,-37152946.47216797,-34458942.41333008,-45213668.82324219,-32807113.647460938,-28281044.006347656,-41412937.16430664,-11606678.009033203,-15704455.375671387,-29519313.81225586,-23184631.34765625,-32536449.432373047,-29852548.599243164,-30088943.481445312,-29814012.52746582,-45939533.23364258,7327682.4951171875,-34588783.264160156,-9401272.773742676,-11248908.042907715,-11670241.355895996,-10513355.255126953,-29837070.46508789,-15321413.040161133,-46581768.03588867,-3853820.562362671,-18692195.892333984,-24865936.279296875,-9520732.879638672,-20795001.983642578,-17689090.728759766,-25257337.57019043,-11210884.094238281,5009137.153625488,-18005657.196044922,-16223878.860473633,-23560058.59375,-772716.8202400208,-18049434.661865234,-18170618.057250977,-26667095.184326172,-29886531.829833984,-16658609.390258789,-16826623.916625977,-18289442.06237793,-27842573.165893555,-19569801.330566406,-16347028.732299805,-26445323.944091797,-16407209.396362305,-25268199.920654297,-33429485.321044922,-34796775.817871094,-45510139.46533203,-18858940.12451172,-27844230.65185547,-27917861.938476562,-40138294.2199707,-35824062.34741211,-32297286.987304688,-29898941.040039062,-27303861.618041992,-27660499.572753906
0.47,-30621875.762939453,-29467943.19152832,-37746093.75,-23761280.059814453,-23810583.114624023,-37253406.5246582,-8288641.929626465,-13099943.161010742,-23912261.962890625,-19345003.128051758,-29140558.24279785,-26032558.44116211,-26339992.52319336,-25851846.69494629,-41081081.39038086,5624040.126800537,-29756063.46130371,-10497502.326965332,-10357462.882995605,-10634664.535522461,-9929812.43133545,-26128065.10925293,-13891307.830810547,-38762393.951416016,1155423.7604141235,-15791364.669799805,-22553915.02380371,-8959432.601928711,-16490098.95324707,-10921975.135803223,-20877429.962158203,-6122379.779815674,5020920.753479004,-12133486.7477417,-13242421.15020752,-20787528.99169922,-621018.11170578,-11015145.301818848,-11150932.312011719,-20067810.05859375,-23938568.115234375,-12620789.527893066,-16085374.83215332,-17321321.487426758,-21521001.8157959,-8573305.130004883,-7011842.727661133,-13948348.045349121,-7629070.75881958,-16890775.680541992,-27460330.963134766,-27631151.19934082,-37914119.720458984,-7931894.779205322,-14107789.993286133,-13905737.87689209,-28822841.64428711,-28818805.694580078,-25673460.006713867,-18175691.604614258,-13644021.034240723,-14038588.523864746
0.475,-27137220.38269043,-25913705.825805664,-30736175.537109375,-19436878.204345703,-19061561.584472656,-34233650.20751953,-5840705.871582031,-11452481.269836426,-20622293.47229004,-15494762.420654297,-23766040.802001953,-19791406.631469727,-20161018.37158203,-19450725.555419922,-39078025.817871094,6716765.880584717,-27049367.904663086,-8402284.622192383,-6442573.070526123,-6817372.798919678,-6130923.748016357,-20009525.299072266,-7566092.491149902,-35446144.104003906,4035392.7612304688,-15559336.66229248,-21410232.543945312,-7751212.120056152,-13002875.328063965,-8862807.273864746,-16110115.051269531,878518.4621810913,4536389.8277282715,-10425093.650817871,-13702309.608459473,-19435302.734375,-573422.0743179321,-8927020.072937012,-8950014.114379883,-16078207.015991211,-17571825.02746582,-12375266.075134277,-18024349.212646484,-19340646.743774414,-22912464.141845703,-6772748.4703063965,-5145595.550537109,-11593692.779541016,-4031281.4712524414,-11680538.177490234,-27126884.46044922,-26857183.4564209,-36540939.33105469,-6177713.394165039,-9484058.380126953,-9215214.729309082,-23476699.829101562,-27223194.122314453,-24682300.567626953,-15418161.392211914,-9092507.362365723,-9531849.86114502
0.48,-31983169.555664062,-30243431.091308594,-35015632.62939453,-24439485.549926758,-20222118.377685547,-36550003.05175781,-6724606.513977051,-12457587.242126465,-22502458.572387695,-15152215.003967285,-23138824.462890625,-19403156.280517578,-19728267.669677734,-18997777.938842773,-43121906.28051758,10813335.418701172,-28738058.09020996,-4448503.494262695,-3045044.8989868164,-3840401.1726379395,-2688857.316970825,-19498859.405517578,-4857049.942016602,-41707725.524902344,2163254.976272583,-17801198.959350586,-22407537.46032715,-7005815.9828186035,-14468318.939208984,-13965262.413024902,-17232938.766479492,639628.5891532898,2769430.637359619,-14443462.371826172,-16539047.241210938,-18859668.731689453,-451827.13866233826,-14168902.397155762,-14059400.55847168,-18935579.299926758,-19420660.0189209,-17457046.508789062,-20097244.262695312,-21709005.35583496,-29451433.181762695,-14885202.407836914,-12263897.895812988,-21071601.86767578,-9065652.847290039,-15308654.78515625,-33512813.568115234,-33906791.68701172,-42802936.55395508,-14250091.552734375,-18250226.974487305,-18105812.072753906,-28737846.37451172,-34004154.205322266,-31799468.994140625,-23680868.14880371,-17792959.213256836,-18309934.616088867
0.485,-35363368.98803711,-34692913.05541992,-43353553.771972656,-28526342.391967773,-24578674.31640625,-36162433.62426758,-6436124.801635742,-12227303.504943848,-24203874.588012695,-16389627.456665039,-26180402.755737305,-23509666.442871094,-23712667.46520996,-23139844.89440918,-44077922.82104492,17033077.239990234,-29757656.09741211,-1409559.6075057983,-2496501.922607422,-3652353.286743164,-2167267.322540283,-23313777.923583984,-6617186.069488525,-46896038.05541992,1803197.0262527466,-17435907.3638916,-22931970.596313477,-7060048.1033325195,-18268100.73852539,-18222385.40649414,-20337875.366210938,-2754154.920578003,3808737.7548217773,-15829583.168029785,-15631726.264953613,-16929658.889770508,-351723.87957572937,-18529327.392578125,-18414268.493652344,-21668857.57446289,-23670801.162719727,-20145738.60168457,-17459785.46142578,-19266521.453857422,-31464759.826660156,-20174053.192138672,-17241285.32409668,-27482545.852661133,-12703377.723693848,-19083385.467529297,-37271030.42602539,-38149387.35961914,-46606533.05053711,-19452882.766723633,-25352880.477905273,-25214078.903198242,-31830341.339111328,-39298526.763916016,-37237411.49902344,-29566862.106323242,-24824792.861938477,-25379182.815551758
0.49,-26115192.413330078,-27697992.3248291,-39906494.140625,-20084123.611450195,-22971443.17626953,-24934349.060058594,716887.9508972168,-6030839.920043945,-18528455.73425293,-13520139.694213867,-24948524.475097656,-22717382.431030273,-22898237.228393555,-22455669.403076172,-33636215.20996094,24102096.557617188,-24672489.166259766,723105.9670448303,-2063483.476638794,-3185379.981994629,-1898604.8698425293,-22449127.197265625,-5502637.3863220215,-39268047.33276367,9041973.114013672,-11442641.258239746,-20117042.541503906,-6642401.218414307,-18696073.532104492,-15209323.88305664,-17566165.924072266,1321502.2087097168,11020627.975463867,-8269398.6892700195,-8609449.38659668,-13671391.487121582,-524486.5417480469,-15520223.617553711,-15483684.539794922,-16918731.689453125,-19412378.311157227,-14297183.990478516,-10029424.667358398,-11795101.165771484,-26052886.962890625,-15612578.392028809,-13061612.129211426,-21864282.608032227,-7086722.373962402,-13474650.382995605,-31908199.310302734,-32128726.959228516,-41759117.126464844,-14852656.364440918,-19138195.037841797,-18806909.561157227,-22780460.357666016,-34511047.36328125,-33073909.759521484,-24385700.225830078,-18688730.239868164,-19168552.39868164
