time,Fp1,Fpz,Fp2,AF3,AF4,F7,F5,F3,F1,Fz,F2,F4,F6,F8,FT7,FC5,FC3,FC1,FCz,FC2,FC4,FC6,FT8,T7,C5,C3,C1,Cz,C2,C4,C6,T8,TP7,CP5,CP3,CP1,CPz,CP2,CP4,CP6,TP8,P7,P5,P3,P1,Pz,P2,P4,P6,P8,PO7,PO5,PO3,POz,PO4,PO6,PO8,CB1,O1,Oz,O2,CB2
0.0,-273757.78555870056,-525852.2033691406,-2249655.4851531982,-1975665.807723999,-1482688.307762146,-678846.5976715088,-124564.87119197845,-815929.3532371521,-612954.7357559204,-1187694.5495605469,-1524836.1825942993,-1406805.396080017,-1422484.6363067627,-1392435.073852539,-1611084.5804214478,-89599.1399884224,-1827340.841293335,-311190.1581287384,-1498637.7954483032,-1554104.3281555176,-1534546.0176467896,-1371270.2989578247,-1197407.603263855,-2779257.05909729,503501.9516944885,-205657.1990251541,-126718.64032745361,262715.4290676117,-73163.18899393082,194605.38029670715,-1614504.2181015015,-1147269.84500885,-1004559.6361160278,-1176880.0020217896,-1332388.6394500732,917194.9625015259,3081.046277657151,277788.31124305725,207463.96481990814,-2025176.2866973877,-2703168.1537628174,-1268448.2336044312,-1075106.9784164429,-1014401.1974334717,-1946738.600730896,427917.59967803955,74377.92420387268,-667017.1022415161,-219502.12121009827,-1695716.142654419,-599013.090133667,-683084.9051475525,-42042.88497567177,458386.0635757446,141661.3757610321,106262.28898763657,121622.68161773682,-309247.4639415741,-582539.0219688416,426856.1601638794,144873.57437610626,124073.38619232178
0.005,13142690.658569336,-16105340.957641602,-22261631.01196289,-17433673.858642578,-24770601.272583008,6612534.046173096,2260794.8780059814,-1696452.6176452637,-9772092.819213867,-12192487.716674805,-20473777.770996094,-22730298.99597168,-23429342.26989746,-22694393.157958984,-11259001.731872559,20308506.01196289,1211867.332458496,1931169.1522598267,-6017421.245574951,-6540856.36138916,-6398553.848266602,-21818408.966064453,-21663349.151611328,-51894054.4128418,2570456.9816589355,-576186.47813797,-1165751.8148422241,4423908.233642578,-8455840.110778809,-10139409.065246582,-22261472.702026367,-27742008.209228516,-35025619.50683594,-18542913.43688965,-14990195.274353027,2538588.523864746,507173.89583587646,-8855844.497680664,-10077741.622924805,-20735628.128051758,-27178438.186645508,-18393238.067626953,-20070571.899414062,-19989536.28540039,-15029511.451721191,-8876727.104187012,-7962604.04586792,-13297803.87878418,-19077085.494995117,-20294807.43408203,-20088108.06274414,-21961532.592773438,-18477451.32446289,-8825159.072875977,-8999437.33215332,-9564035.415649414,1050466.6566848755,-19991565.704345703,-20654590.606689453,-11687213.897705078,-8938687.324523926,-9820666.313171387
0.01,18898742.67578125,-22242898.94104004,-30621328.353881836,-21593080.520629883,-32125377.655029297,12619594.57397461,4647457.599639893,-813016.7126655579,-12345920.56274414,-14850107.192993164,-27343898.77319336,-31199640.27404785,-31999132.15637207,-31035066.604614258,-10891498.565673828,27405471.801757812,4335294.246673584,4333326.816558838,-7284873.962402344,-7931571.006774902,-7782921.314239502,-29826137.54272461,-29649999.618530273,-66744796.75292969,5330766.677856445,1192442.536354065,59597.24634885788,7470213.890075684,-10848220.825195312,-13219676.01776123,-32877643.585205078,-38302646.63696289,-45035091.400146484,-22348865.509033203,-18049549.102783203,4634610.176086426,857547.4619865417,-11504518.508911133,-13089778.900146484,-28094205.856323242,-38215133.66699219,-19534549.713134766,-24732818.603515625,-24722627.639770508,-19344196.319580078,-12173300.743103027,-9602254.867553711,-17904207.229614258,-26026664.73388672,-28454122.54333496,-25150358.200073242,-27468128.204345703,-24116580.963134766,-12177423.477172852,-10545419.692993164,-11399978.637695312,2577018.7377929688,-25609100.341796875,-26683000.564575195,-15887998.580932617,-10460173.606872559,-11698493.003845215
0.015,16909469.604492188,-20044208.526611328,-28531787.872314453,-17164262.771606445,-25990491.86706543,15078163.146972656,4996862.888336182,-397197.81279563904,-10175625.801086426,-11253113.746643066,-23457984.924316406,-27789051.055908203,-28269777.297973633,-27438591.00341797,-4333835.601806641,22237159.729003906,5756456.37512207,5286930.084228516,-6105268.478393555,-6584055.9005737305,-6502651.691436768,-26396329.879760742,-26329540.252685547,-55558906.55517578,6760743.141174316,3272198.438644409,1546722.0544815063,8547539.710998535,-7805454.254150391,-9314130.783081055,-32883460.998535156,-34118606.56738281,-36842834.47265625,-16137754.440307617,-12520586.013793945,5579637.050628662,851211.0710144043,-7856372.356414795,-9107460.021972656,-23838481.903076172,-36304965.97290039,-10003903.38897705,-17966676.712036133,-17943618.774414062,-15819130.897521973,-10486819.26727295,-5471485.137939453,-13338611.602783203,-21128784.1796875,-25899391.174316406,-19755401.611328125,-21419614.791870117,-20557441.71142578,-10573378.562927246,-6229689.121246338,-7071271.4195251465,4848515.98739624,-20995040.893554688,-22625385.284423828,-13820742.6071167,-6201525.688171387,-7310374.736785889
0.02,13203260.42175293,-17527969.360351562,-25787813.186645508,-14831384.658813477,-20912893.295288086,13503726.959228516,2328486.919403076,-2802535.29548645,-9366811.752319336,-9164795.875549316,-19209676.74255371,-23209547.04284668,-23546850.204467773,-22782905.57861328,-1691666.2454605103,16813379.287719727,4698536.396026611,4069847.1069335938,-5236328.125,-5586195.468902588,-5505062.103271484,-21962957.38220215,-22225107.192993164,-49681285.8581543,5469440.460205078,3168427.7057647705,489376.0085105896,7951959.609985352,-4412030.220031738,-4369661.331176758,-28671867.37060547,-28430025.100708008,-32084419.25048828,-12206406.593322754,-7483647.82333374,4105370.9983825684,507238.38806152344,-3196822.8816986084,-4084831.2377929688,-16305480.95703125,-31153745.651245117,-5226961.135864258,-11970051.765441895,-11732279.777526855,-11681299.209594727,-8871922.492980957,-1003088.5934829712,-4883394.241333008,-13347687.721252441,-19815206.52770996,-16458925.247192383,-17671325.68359375,-18991863.250732422,-8931170.463562012,-2792860.507965088,-3396192.0738220215,8310280.799865723,-18732288.360595703,-20850078.582763672,-12292536.735534668,-2890957.1170806885,-3768367.7673339844
0.025,12241670.608520508,-18805521.01135254,-27490884.78088379,-17873388.290405273,-23860427.856445312,10984166.145324707,-419314.3844604492,-5575074.672698975,-11156794.548034668,-10797657.96661377,-20081008.911132812,-23612909.3170166,-24172281.26525879,-23300395.965576172,-3955978.8703918457,18686258.31604004,3844219.68460083,3120648.8609313965,-5218367.099761963,-5657258.5105896,-5461062.431335449,-22449285.50720215,-22962474.822998047,-57082187.65258789,4047676.0864257812,2164499.282836914,-1632523.775100708,7142462.730407715,-3620012.9985809326,-2329897.165298462,-24906631.469726562,-28613420.486450195,-35818996.42944336,-13171751.976013184,-5925342.082977295,2059925.5561828613,190632.53700733185,-1107426.643371582,-1968698.7400054932,-11813200.950622559,-27914819.717407227,-7278564.929962158,-10162399.291992188,-9769621.849060059,-10417735.09979248,-8606074.333190918,1002845.6449508667,1788966.6557312012,-8801532.745361328,-15313578.605651855,-16622127.532958984,-18172142.028808594,-20310247.42126465,-8486253.73840332,-1802434.4444274902,-2070362.5679016113,13792251.586914062,-20345853.805541992,-22387912.75024414,-12689326.286315918,-1978958.8451385498,-2746182.680130005
0.03,13584008.21685791,-21141061.782836914,-30298498.153686523,-20111938.4765625,-28657371.520996094,11027490.615844727,136011.63029670715,-4676712.512969971,-11923250.198364258,-12112799.644470215,-22528022.76611328,-25771890.64025879,-26568065.643310547,-25643337.24975586,-3724829.67376709,23806358.337402344,5884418.01071167,4824682.712554932,-4809786.319732666,-5435761.451721191,-5116773.1285095215,-24596591.94946289,-24807769.775390625,-59222568.51196289,5800444.602966309,3002622.8427886963,-1224374.771118164,7185680.866241455,-4212528.228759766,-1860399.3654251099,-21890682.220458984,-30596004.486083984,-35357089.99633789,-11935123.443603516,-3909360.17036438,2218120.574951172,190076.69389247894,-468664.10970687866,-1493823.528289795,-9986722.946166992,-24328741.0736084,-5750011.920928955,-6851786.6134643555,-6635563.850402832,-9487225.532531738,-6281306.266784668,2611619.472503662,5063635.82611084,-6377609.729766846,-12189269.065856934,-12308932.304382324,-14341953.27758789,-16775787.353515625,-5974020.004272461,854858.1600189209,831362.0686531067,21061925.888061523,-16981435.775756836,-18530197.143554688,-10357129.096984863,747326.4336585999,36025.844514369965
0.035,15425107.0022583,-20965600.967407227,-30095157.623291016,-17297964.096069336,-28316806.79321289,13977545.738220215,3229570.150375366,-645321.4883804321,-10123071.670532227,-10972928.047180176,-22250024.795532227,-25215734.481811523,-25993854.522705078,-25168249.130249023,2067083.5971832275,25433319.091796875,9605024.337768555,7736122.131347656,-4070022.5830078125,-4829034.805297852,-4507304.668426514,-23993045.806884766,-23336071.014404297,-46798259.73510742,10130195.617675781,5210001.468658447,1744850.1586914062,7715781.211853027,-4411035.060882568,-439276.42703056335,-19530601.501464844,-29248546.600341797,-25425479.888916016,-6117172.718048096,107674.38262701035,4414827.823638916,325632.244348526,960782.3491096497,-223787.75477409363,-8336023.330688477,-19093034.744262695,2764096.0216522217,-670679.9268722534,-753017.7235603333,-6468806.743621826,-250293.94030570984,5863681.316375732,6434200.763702393,-3627921.3428497314,-9300877.571105957,-2965351.343154907,-4954023.838043213,-7569969.654083252,70257.69352912903,6716352.939605713,6685844.421386719,28085100.173950195,-6380201.816558838,-8035079.9560546875,-3458437.204360962,6770884.990692139,6109442.710876465
0.04,17581447.60131836,-18242017.74597168,-27496715.545654297,-13049577.713012695,-24593780.517578125,18064275.74157715,5687885.761260986,2533903.3603668213,-8068819.999694824,-9892380.714416504,-20371549.606323242,-23007818.2220459,-23673267.364501953,-22935932.159423828,8845971.10748291,24459039.68811035,12263338.088989258,8760655.403137207,-4178226.947784424,-5048139.0953063965,-4844558.238983154,-21757003.784179688,-20300415.0390625,-33239852.905273438,14264611.24420166,6367251.396179199,3953603.744506836,7881597.518920898,-4452624.320983887,1334943.175315857,-18931882.858276367,-26428134.91821289,-16145753.860473633,-1633803.367614746,2779769.6590423584,6181349.754333496,256562.20316886902,2631538.152694702,1326735.1388931274,-6947138.786315918,-15476910.591125488,9971577.644348145,2708232.641220093,2605414.1521453857,-2828155.279159546,5777987.957000732,8927716.255187988,7141288.280487061,-1626583.6954116821,-7482672.691345215,2595612.5259399414,897776.7825126648,-1205580.5921554565,5934573.173522949,11596909.523010254,11395134.925842285,32512355.80444336,2579684.9727630615,-321411.6096496582,3104734.6591949463,11758154.86907959,11021186.828613281
0.045,19599374.771118164,-15267193.794250488,-25503540.0390625,-12822136.878967285,-23631290.435791016,21758653.64074707,6430073.7380981445,3195549.964904785,-7643031.597137451,-11119802.474975586,-20347202.30102539,-22899084.091186523,-23591129.302978516,-22838052.74963379,12360273.361206055,26495048.52294922,13832103.729248047,7547086.238861084,-5022747.993469238,-6046950.340270996,-5966080.665588379,-21672567.36755371,-20096096.03881836,-30994945.526123047,17277109.146118164,6359409.332275391,3721481.3232421875,7407145.977020264,-5217103.004455566,1065557.1222305298,-19772777.557373047,-26748973.846435547,-15642411.231994629,-2347135.7822418213,2192610.502243042,6282027.244567871,28534.10504758358,2328810.453414917,1007364.03465271,-7472955.703735352,-15854498.863220215,10049371.719360352,659367.5017356873,761654.8538208008,-1163697.1235275269,7065501.2130737305,8721965.789794922,6879169.940948486,-2504011.631011963,-7744804.382324219,106294.11041736603,-1752373.6953735352,-2495811.2239837646,7057428.83682251,11632267.951965332,11407351.49383545,33419559.478759766,3179827.2132873535,-1253311.9916915894,4001366.61529541,11785812.377929688,10794638.633728027
0.05,19169492.721557617,-14328868.865966797,-25573040.008544922,-17316919.326782227,-27356254.57763672,23324810.028076172,6126517.772674561,2621322.6318359375,-8654178.619384766,-13969662.6663208,-22808065.41442871,-25548307.418823242,-26328229.904174805,-25571586.60888672,12637166.023254395,31781265.258789062,15520429.611206055,5743962.76473999,-5574622.631072998,-6677957.057952881,-6617197.513580322,-24367816.925048828,-23229568.481445312,-34830249.78637695,19307991.02783203,6744560.241699219,2358780.860900879,6153963.088989258,-6442363.739013672,-1321325.5405426025,-19747943.878173828,-30445981.979370117,-19370906.829833984,-4960382.93838501,631649.1961479187,5459291.458129883,-11781.007051467896,-13937.338255345821,-1172747.7312088013,-9873141.288757324,-17848068.237304688,7102026.462554932,-2428562.879562378,-2312352.418899536,-1631734.6096038818,3907811.164855957,5710017.681121826,5364840.507507324,-5410177.230834961,-9327617.645263672,-4466589.450836182,-6967718.601226807,-6144731.521606445,3863178.253173828,8594073.295593262,8624393.463134766,31794366.83654785,-378649.0559577942,-5454383.850097656,304945.707321167,8708568.572998047,7467823.505401611
0.055,15277233.123779297,-16284582.138061523,-27141437.530517578,-23239643.096923828,-32267978.66821289,20822267.532348633,4193332.6721191406,1142641.1867141724,-11025888.442993164,-17343450.54626465,-25583585.739135742,-28200983.04748535,-28911502.838134766,-28243524.5513916,10442194.938659668,34342590.33203125,16009744.644165039,3412776.231765747,-6128658.294677734,-7069671.154022217,-6917753.219604492,-27001274.10888672,-26163127.899169922,-35068000.79345703,19067716.598510742,7050568.103790283,966468.870639801,3745364.4275665283,-7180957.317352295,-2965496.301651001,-17785341.262817383,-33731121.06323242,-20291532.516479492,-5751260.757446289,88349.17843341827,4395284.652709961,228728.86061668396,-1650152.6832580566,-2619444.6086883545,-11914834.022521973,-17867517.471313477,6555981.159210205,-2791103.3630371094,-2937810.182571411,-2209701.5380859375,1359962.5825881958,3800004.9591064453,3933828.592300415,-7275199.413299561,-10440221.786499023,-4681303.024291992,-7616791.248321533,-5474642.276763916,1351849.1983413696,7164979.934692383,7447715.282440186,30120512.008666992,-604251.0867118835,-5390663.146972656,-2250989.1986846924,7302539.825439453,6033995.628356934
0.06,11336802.48260498,-19200319.290161133,-28762189.865112305,-26979480.743408203,-34478633.880615234,15408038.139343262,65201.31230354309,-1898377.1800994873,-14574111.938476562,-20832685.470581055,-26883735.65673828,-28690107.345581055,-29201244.354248047,-28605049.13330078,6327292.919158936,31602216.720581055,13445317.268371582,-173572.48067855835,-7696070.194244385,-8319415.092468262,-8047988.8916015625,-27392715.454101562,-26337364.196777344,-32424358.367919922,15956279.754638672,5418258.190155029,-827573.4782218933,623088.5982513428,-6913326.263427734,-1766429.1858673096,-15537957.191467285,-34198314.66674805,-18748054.50439453,-5758824.825286865,-548857.9869270325,3140260.4579925537,454759.47856903076,-495586.69328689575,-1508941.7695999146,-11554177.284240723,-15469223.022460938,7510414.123535156,-2395084.857940674,-2682227.13470459,-1330458.164215088,3069687.1280670166,5416353.702545166,4564652.442932129,-6563101.768493652,-9872600.555419922,-1735351.0856628418,-4421523.094177246,-1261747.8370666504,3067324.638366699,8941533.088684082,9159919.738769531,30903593.063354492,3072141.170501709,-1385463.833808899,-441068.8877105713,9150717.735290527,8053782.4630737305
0.065,12078606.605529785,-19295000.076293945,-29165760.040283203,-26318170.54748535,-33933002.47192383,12561222.076416016,-3395722.6276397705,-4545610.9046936035,-16770965.576171875,-23012994.76623535,-27079824.447631836,-27979360.580444336,-28425271.98791504,-27772611.618041992,3671648.0255126953,29071723.93798828,10173992.156982422,-3011312.246322632,-9587326.049804688,-10036382.675170898,-9723615.646362305,-26640825.271606445,-25156103.134155273,-31834959.030151367,13151105.880737305,2536509.0370178223,-2748828.411102295,-1486531.376838684,-5754930.49621582,789272.6063728333,-14947997.093200684,-33347671.508789062,-17765176.77307129,-7069693.565368652,-2542247.2953796387,2309072.256088257,419317.5137042999,2054399.013519287,804365.1580810547,-9292392.73071289,-12973543.167114258,6696215.629577637,-4318684.101104736,-4374415.397644043,379526.2575149536,7054035.186767578,8391346.93145752,7148382.186889648,-4822597.503662109,-8070292.4728393555,-423458.0993652344,-2487009.048461914,1069418.4303283691,7047640.323638916,11070496.559143066,11027969.360351562,33942932.12890625,5658380.031585693,926656.6634178162,3157139.301300049,11320144.653320312,10390740.394592285
0.07,17404953.002929688,-15301053.047180176,-28614843.368530273,-21590587.615966797,-33968914.03198242,16417627.334594727,-2234423.3989715576,-3359112.9779815674,-14947078.704833984,-22487012.86315918,-28110126.495361328,-28820529.93774414,-29455802.91748047,-28688150.40588379,6612333.297729492,32406764.98413086,10715772.62878418,-1927290.5588150024,-10199103.355407715,-10740863.800048828,-10508447.647094727,-27606958.389282227,-25844192.504882812,-32227714.53857422,14313974.380493164,1303341.269493103,-3545721.0540771484,-1449893.1169509888,-4432370.662689209,1422306.0607910156,-16138561.248779297,-34140319.82421875,-16872085.571289062,-9100211.143493652,-5015844.345092773,2719299.793243408,207513.9880180359,2763698.3394622803,1408331.8710327148,-8060376.167297363,-12874584.197998047,3751824.8558044434,-8042074.203491211,-7777863.025665283,673920.5718040466,8483812.33215332,8701124.19128418,8722785.949707031,-4846665.382385254,-7304506.778717041,-2533299.207687378,-4245764.73236084,-1205952.525138855,8544930.458068848,10026716.232299805,9895544.052124023,35289188.385009766,4293521.881103516,-1344375.729560852,3929066.1811828613,10248138.427734375,9372989.654541016
0.075,22184120.178222656,-10879574.7756958,-28876617.431640625,-16673442.840576172,-37268142.70019531,24156661.987304688,2438868.999481201,867801.3682365417,-11154568.672180176,-21167697.90649414,-31366661.071777344,-32316577.911376953,-33186920.166015625,-32395675.659179688,13834233.283996582,39019702.91137695,14886952.40020752,1999246.4780807495,-9995641.708374023,-10691938.400268555,-10577450.7522583,-31288797.37854004,-29115137.100219727,-30164407.73010254,18031766.891479492,2459104.537963867,-3349797.7256774902,-415983.8855266571,-4107485.771179199,-798150.897026062,-17971290.588378906,-37070697.78442383,-14990932.46459961,-10510172.843933105,-6543258.6669921875,3860783.576965332,29751.917347311974,633535.2063179016,-584351.9568443298,-10033139.2288208,-15831012.725830078,24013.53232562542,-11108862.87689209,-10803901.672363281,-1416819.8108673096,6140298.366546631,5604519.844055176,6809567.928314209,-7655569.076538086,-9498466.491699219,-6150337.219238281,-8002964.019775391,-5787714.004516602,6296272.277832031,5749272.82333374,5758499.622344971,31633394.241333008,1198417.1867370605,-5695424.0798950195,1198138.8330459595,5899766.445159912,5049192.428588867
0.08,22689207.077026367,-10169622.421264648,-30283914.56604004,-16206279.754638672,-42032398.22387695,29238122.940063477,4725472.450256348,2762678.861618042,-10622128.4866333,-22638355.255126953,-35380374.908447266,-35856269.83642578,-36737499.23706055,-36055236.81640625,19257125.854492188,42033882.14111328,17492237.091064453,3665656.566619873,-10899428.367614746,-11603000.64086914,-11487376.21307373,-34880306.243896484,-31699750.900268555,-26815212.24975586,19575872.42126465,3773200.035095215,-3905225.992202759,-390292.1676635742,-5251577.377319336,-3235253.33404541,-18980873.107910156,-39200523.376464844,-13575822.830200195,-11070816.993713379,-6519927.024841309,4409971.237182617,-33416.07376933098,-1788269.6390151978,-2889186.382293701,-13430214.881896973,-19554494.857788086,-3341601.3717651367,-11944141.387939453,-11806735.038757324,-3501520.872116089,4157455.4443359375,2644418.0011749268,3207236.7668151855,-11026246.070861816,-12991067.886352539,-8221344.947814941,-10366326.332092285,-8233284.950256348,4283708.095550537,1981999.8741149902,2058482.1701049805,25861318.588256836,328031.4803123474,-7657140.731811523,-849456.8467140198,2043965.8164978027,1300417.6616668701
0.085,20489538.192749023,-12437526.70288086,-30482030.868530273,-20550773.62060547,-43662414.55078125,29147375.106811523,1589383.0060958862,-469019.7706222534,-14314751.625061035,-26438123.70300293,-36599700.927734375,-35598793.029785156,-36289409.63745117,-35744869.232177734,19755247.116088867,40171764.3737793,15912593.841552734,840776.0858535767,-12578542.709350586,-13231479.64477539,-12927199.363708496,-34522796.630859375,-30280221.939086914,-25188722.610473633,17594499.588012695,3823379.2781829834,-5761415.958404541,-1721059.3223571777,-6743184.0896606445,-3160942.792892456,-17942972.18322754,-38108627.31933594,-13572899.81842041,-10637270.9274292,-4819564.8193359375,4118661.880493164,-6933.415308594704,-1767346.0245132446,-2975249.2904663086,-14423704.147338867,-20585226.05895996,-4975925.922393799,-10261992.454528809,-10181373.596191406,-2588178.873062134,6158358.097076416,2967540.2641296387,2305588.722229004,-11755829.811096191,-13959753.99017334,-7247000.694274902,-9443375.587463379,-6435743.808746338,6091618.537902832,2057896.375656128,1980497.0026016235,24454235.076904297,2702816.4863586426,-5639968.395233154,1067162.036895752,2000907.1826934814,1420077.4431228638
0.09,19419168.47229004,-13736099.243164062,-27721351.623535156,-24759588.24157715,-40651912.689208984,27318199.157714844,-2785966.634750366,-4663609.981536865,-16736822.128295898,-27434476.852416992,-33570121.76513672,-31334241.86706543,-31893400.192260742,-31383966.44592285,18434303.283691406,38811004.638671875,13890465.73638916,-2519520.5211639404,-12186398.50616455,-12926165.580749512,-12355438.232421875,-30162582.397460938,-26221021.65222168,-24877275.466918945,15439445.495605469,3921706.9149017334,-7129570.484161377,-3117841.958999634,-7022961.616516113,-1484199.5239257812,-15323424.339294434,-36008430.48095703,-13320836.067199707,-9037969.589233398,-2086866.3787841797,3866290.807723999,50571.55340909958,-105915.01742601395,-1483309.8649978638,-12780190.467834473,-18928232.192993164,-4379384.517669678,-7238606.4529418945,-7051316.261291504,141384.46748256683,9681913.375854492,4954952.716827393,4800172.805786133,-9963357.925415039,-12383913.99383545,-5124562.2634887695,-7085675.239562988,-3102941.5130615234,9418280.601501465,4427607.05947876,4195052.623748779,28107931.13708496,5100277.423858643,-2810603.141784668,4289657.115936279,4227162.3611450195,3743432.04498291
0.095,21126390.45715332,-12173995.971679688,-23712335.58654785,-23302457.809448242,-36243999.48120117,28000848.7701416,-2393910.8848571777,-3992417.573928833,-13056622.505187988,-22321258.544921875,-29026815.41442871,-27117328.643798828,-27727108.001708984,-27125888.82446289,19317995.071411133,41384658.81347656,15674017.906188965,-1782469.8686599731,-8641492.84362793,-9552206.039428711,-8812766.075134277,-25949537.27722168,-24185285.568237305,-23788238.525390625,15749193.19152832,5500781.059265137,-6356441.020965576,-3635987.5202178955,-6038094.043731689,-1565248.0125427246,-13869153.022766113,-37319469.4519043,-11661292.07611084,-7458687.782287598,-180931.79166316986,4108529.0908813477,16194.207593798637,-96888.15474510193,-1462586.0452651978,-12811458.587646484,-19064825.0579834,-3595175.9815216064,-5377903.938293457,-5173675.060272217,259701.25198364258,9320006.370544434,4224383.83102417,5679285.049438477,-9634432.792663574,-13243081.092834473,-5190288.543701172,-6828262.3291015625,-2855323.314666748,9023042.678833008,3983324.0509033203,3789723.3963012695,29511934.280395508,3726953.9833068848,-3423928.0223846436,3498086.69090271,3698817.9683685303,3203158.8554382324
0.1,24794231.414794922,-8877243.995666504,-21148111.34338379,-15695657.730102539,-33414352.416992188,31723789.21508789,2958920.0019836426,1406060.3380203247,-5572628.974914551,-13998877.52532959,-26391613.006591797,-26102409.36279297,-26785093.307495117,-26077953.338623047,22286241.53137207,44780342.10205078,19950881.958007812,2275658.130645752,-4586817.264556885,-5537512.77923584,-4771688.938140869,-24991071.701049805,-25752197.265625,-21869539.260864258,17247795.10498047,7808883.6669921875,-4088990.6883239746,-3430950.164794922,-5033816.337585449,-4479990.482330322,-15552262.306213379,-41798477.17285156,-9758594.512939453,-7411196.231842041,-437679.9762248993,4543858.051300049,-202168.09213161469,-2936963.5581970215,-4126895.4277038574,-16799045.56274414,-23513648.986816406,-4952535.152435303,-6104889.392852783,-6114623.069763184,-3531533.2412719727,4429548.740386963,-394710.4811668396,941686.0938072205,-13316496.849060059,-18926563.262939453,-7468743.324279785,-8866331.100463867,-6347124.5765686035,4241130.828857422,-1419567.584991455,-1502977.1327972412,23578428.268432617,-997497.2009658813,-7302880.764007568,-1770456.5525054932,-1625721.81224823,-2153922.3194122314
0.105,29144985.19897461,-4753615.856170654,-19586816.787719727,-6818066.596984863,-30865571.975708008,35908214.5690918,7975139.141082764,6088752.746582031,-390105.2474975586,-7500216.007232666,-25353633.880615234,-26487340.927124023,-27115856.170654297,-26407932.28149414,24697803.497314453,44695690.1550293,22455478.66821289,5476180.076599121,-2625931.2629699707,-3492522.2396850586,-2739984.7507476807,-25445556.640625,-27074798.583984375,-19938451.766967773,17666570.66345215,9256119.728088379,-2158451.795578003,-2747088.90914917,-4559651.3748168945,-7341829.299926758,-18307781.219482422,-43675296.783447266,-8426276.206970215,-8303688.049316406,-1875434.6370697021,5082268.714904785,-450061.02323532104,-5962698.459625244,-6967255.592346191,-20533143.997192383,-27758096.69494629,-7553345.680236816,-7987966.060638428,-8244950.294494629,-7365136.623382568,-24312.246590852737,-5078714.370727539,-5958844.6617126465,-17968669.891357422,-24016862.869262695,-8679846.76361084,-9998627.662658691,-9649628.639221191,-107949.25689697266,-7754536.151885986,-7828720.0927734375,15639370.918273926,-4972245.216369629,-10341791.152954102,-6391415.119171143,-7736633.30078125,-8223443.031311035
0.11,32646152.49633789,-125538.08093070984,-16918785.095214844,-2300469.398498535,-26465188.98010254,37519157.40966797,8625624.656677246,6418650.150299072,84713.54097127914,-4264966.96472168,-23285034.1796875,-24689577.102661133,-25243537.90283203,-24610229.4921875,24911214.82849121,41703521.728515625,22028820.037841797,6190082.07321167,-1930045.7239151,-2825102.5676727295,-2055660.2478027344,-23754312.51525879,-24618062.97302246,-18255014.419555664,16558240.89050293,9391423.225402832,-1537060.022354126,-1510895.9674835205,-3992444.0383911133,-7297239.303588867,-18413423.538208008,-39730525.970458984,-7295573.711395264,-8820533.752441406,-3068251.132965088,5736949.443817139,-402161.180973053,-6336102.00881958,-7186113.8343811035,-19162302.017211914,-26243055.34362793,-9299900.05493164,-9565050.12512207,-9822564.125061035,-8349594.1162109375,-929601.7289161682,-6100668.430328369,-8217788.6962890625,-18959180.83190918,-22543418.884277344,-8598088.264465332,-10059450.149536133,-10815811.157226562,-988353.6696434021,-10162082.67211914,-10251361.846923828,14186994.552612305,-6439283.37097168,-11327675.819396973,-7228943.347930908,-9944442.749023438,-10355672.836303711
0.115,33153156.280517578,3257892.13180542,-13690630.912780762,-3197263.240814209,-21661922.454833984,35393779.75463867,6344583.034515381,4304954.528808594,-1275808.572769165,-2516743.8983917236,-19830324.172973633,-20771671.295166016,-21386121.74987793,-20771921.157836914,23169475.555419922,39410346.98486328,20985540.39001465,6434689.044952393,-315618.93224716187,-1411444.7832107544,-655324.6378898621,-19939376.831054688,-20384338.37890625,-17843908.309936523,14481514.930725098,8877343.17779541,-1876078.1288146973,94358.56342315674,-3117531.0611724854,-5509534.3589782715,-15976675.987243652,-34602207.18383789,-6986647.605895996,-9807347.297668457,-4455616.474151611,6000036.716461182,19280.722364783287,-4902924.537658691,-5621695.041656494,-15147299.766540527,-21649621.963500977,-10886857.032775879,-11912160.873413086,-11937115.669250488,-8859977.722167969,-1128940.3438568115,-4594667.434692383,-5335512.638092041,-16913616.180419922,-17681379.318237305,-11405118.942260742,-13214004.516601562,-12840725.898742676,-1207193.0170059204,-9295613.288879395,-9321530.34210205,18492961.883544922,-8197192.192077637,-13814638.137817383,-7235530.853271484,-9074910.163879395,-9497129.440307617
0.12,30178283.69140625,3572131.633758545,-12417822.83782959,-5079001.903533936,-18935998.916625977,31644147.872924805,5339598.178863525,3645247.220993042,-1059609.4131469727,-1182312.4885559082,-16995876.31225586,-17599863.052368164,-18324415.20690918,-17654253.005981445,21050041.19873047,39164791.107177734,20961261.749267578,7966310.501098633,2210833.0726623535,999353.0511856079,1644267.0822143555,-16762416.83959961,-18223377.227783203,-19901952.743530273,12121716.499328613,8730241.775512695,-2078628.3016204834,1661508.560180664,-2692914.9627685547,-5290725.7080078125,-14665425.300598145,-33925449.37133789,-8369178.771972656,-12449221.61102295,-6417921.06628418,5704832.077026367,450701.7135620117,-4654773.235321045,-5344381.809234619,-15160258.293151855,-21789485.931396484,-13543815.612792969,-15415759.086608887,-15294379.234313965,-11803086.280822754,-4113932.1327209473,-4386838.436126709,-4004809.3795776367,-16718950.271606445,-17728862.762451172,-17412925.720214844,-19597154.61730957,-17303203.582763672,-4213815.212249756,-9351177.215576172,-9397718.42956543,20173805.236816406,-11937351.22680664,-18900306.701660156,-9874986.64855957,-9319360.733032227,-9854666.709899902
0.125,26782360.076904297,2272761.344909668,-13098667.14477539,-3332980.6327819824,-17318895.33996582,30077909.469604492,7438672.065734863,5283934.116363525,993549.9429702759,-794812.5004768372,-15275341.987609863,-15818906.784057617,-16538585.662841797,-15862797.737121582,20465700.149536133,39667003.6315918,21479648.59008789,9980994.22454834,4072466.3734436035,3018212.080001831,3511544.704437256,-14897998.809814453,-17538887.02392578,-22950752.25830078,10811035.15625,9698626.518249512,-1210123.7773895264,2986846.446990967,-2964401.0066986084,-7128148.555755615,-15504215.240478516,-35742813.11035156,-9724362.37335205,-14766774.17755127,-7009292.125701904,5916584.014892578,488710.9398841858,-6153799.057006836,-6937575.817108154,-19758462.90588379,-27398393.630981445,-14974363.327026367,-16917037.963867188,-16985588.07373047,-15165084.838867188,-8261701.583862305,-6349575.996398926,-8073331.832885742,-19748043.060302734,-23346143.72253418,-19753683.09020996,-22152057.647705078,-19977331.161499023,-8374310.493469238,-11256492.614746094,-11582530.02166748,16118038.177490234,-14358836.17401123,-21514991.760253906,-13321452.140808105,-11436697.959899902,-12054574.966430664
0.13,26792005.53894043,2722948.3127593994,-12846077.919006348,925305.9029579163,-14645103.454589844,31903387.06970215,10590950.965881348,6805252.552032471,2968195.4383850098,-1435804.009437561,-13185734.748840332,-13531847.953796387,-14226571.083068848,-13646570.205688477,21638162.61291504,40335128.78417969,21960094.451904297,10772074.699401855,4820730.209350586,4024907.112121582,4431006.43157959,-12646413.803100586,-15074335.098266602,-24141078.94897461,11527111.053466797,11322499.27520752,343192.07072257996,3672647.476196289,-3027626.5144348145,-8013086.318969727,-14984612.464904785,-34217628.479003906,-8711300.84991455,-13893350.601196289,-4841753.005981445,7495162.487030029,186761.2600326538,-6757425.308227539,-7596870.422363281,-22121572.494506836,-30257160.186767578,-12585021.018981934,-14313289.642333984,-14772226.333618164,-15263681.411743164,-9538620.948791504,-7483342.64755249,-12402664.184570312,-21517204.28466797,-26148399.353027344,-14827101.707458496,-17293247.22290039,-17505477.905273438,-9622919.082641602,-11808399.200439453,-12443806.648254395,12637829.780578613,-12566975.593566895,-18341266.632080078,-13699215.88897705,-12074215.88897705,-12639496.803283691
0.135,29588251.1138916,4765737.533569336,-10901439.666748047,1992111.6828918457,-12836128.234863281,33467090.606689453,11653847.694396973,6066330.909729004,3260394.0963745117,-2371386.2895965576,-11121674.537658691,-11085264.205932617,-11942637.44354248,-11448521.614074707,21694120.407104492,41624027.252197266,22281267.166137695,9646874.42779541,4957838.05847168,4265088.081359863,4650182.247161865,-10428077.697753906,-11873552.322387695,-24504016.876220703,12197423.934936523,11409513.473510742,534954.6670913696,2676822.9007720947,-2491937.1604919434,-6093829.154968262,-11186249.732971191,-30102701.18713379,-7576110.83984375,-11797519.68383789,-3197581.7680358887,9143444.061279297,-55014.2340362072,-4789150.238037109,-5539934.158325195,-18626865.38696289,-25701185.22644043,-9856774.33013916,-12163794.51751709,-12859280.586242676,-13163924.217224121,-7764895.915985107,-5754097.938537598,-10279835.70098877,-18915361.404418945,-21678064.346313477,-10726844.787597656,-13341190.338134766,-14731703.758239746,-7754262.447357178,-9859272.003173828,-10421361.923217773,14705636.978149414,-10350819.58770752,-15130773.544311523,-11653941.15447998,-10094383.239746094,-10540322.303771973
0.14,30227890.014648438,4618508.815765381,-10310090.065002441,-2774953.603744507,-15904471.397399902,30343971.252441406,9645828.247070312,3439633.846282959,1631101.8466949463,-3553858.518600464,-12013664.245605469,-11878102.30255127,-12968032.836914062,-12478041.648864746,17588541.03088379,42471740.72265625,21623323.440551758,7062594.890594482,4113094.8066711426,3393304.5864105225,3765349.6265411377,-11413430.213928223,-12873799.324035645,-28302726.74560547,9060675.621032715,8180898.666381836,-2201348.304748535,-378975.8086204529,-2468848.22845459,-3483214.855194092,-7849315.166473389,-30350461.959838867,-11197235.107421875,-13783109.664916992,-6729087.829589844,8868317.604064941,-38783.855736255646,-2186554.6703338623,-2879186.3918304443,-14613469.123840332,-19895219.802856445,-13117420.196533203,-16637651.443481445,-17306427.001953125,-13058469.772338867,-6258858.203887939,-3118288.278579712,-3300790.309906006,-15345932.960510254,-16284688.949584961,-16770168.30444336,-19807706.832885742,-18535129.54711914,-6165906.90612793,-8816727.638244629,-8962345.123291016,18011898.040771484,-13457427.024841309,-19253904.342651367,-11121593.475341797,-9029581.069946289,-9427138.328552246
0.145,26045454.025268555,1098461.1511230469,-13233208.656311035,-9107895.851135254,-22681415.557861328,23282485.961914062,6166648.864746094,679916.3222312927,-995979.4282913208,-5589595.794677734,-16524574.279785156,-16711154.93774414,-17758037.567138672,-17264213.56201172,10811883.926391602,40631721.49658203,19230993.270874023,4281988.620758057,1777619.3618774414,1086396.2173461914,1476154.6850204468,-16167396.545410156,-18665872.57385254,-35190422.05810547,2347261.667251587,3317503.4523010254,-6311917.781829834,-3679027.795791626,-3793989.658355713,-3011163.4731292725,-9045733.451843262,-36597808.837890625,-18539308.547973633,-20136196.13647461,-13869569.778442383,7247940.0634765625,17736.14250123501,-1622842.1926498413,-2486686.944961548,-15977883.338928223,-20110130.310058594,-21223457.33642578,-25325578.689575195,-25936016.082763672,-15327282.905578613,-6250202.178955078,-2385469.913482666,1085484.504699707,-15328058.242797852,-17021286.010742188,-28112272.262573242,-31798809.051513672,-26427619.93408203,-6214371.681213379,-10917839.050292969,-10822605.13305664,16520267.486572266,-20004074.096679688,-27641044.61669922,-12660649.299621582,-11186117.172241211,-11627985.000610352
0.15,21046663.284301758,-1582348.5851287842,-16985713.958740234,-11138759.61303711,-26547639.846801758,18261629.104614258,3755388.4983062744,-903555.8700561523,-3030236.7210388184,-7990950.107574463,-20568489.07470703,-20879932.403564453,-21614149.09362793,-21135162.353515625,7317307.949066162,36702110.290527344,16768434.524536133,3109306.573867798,-588224.2321968079,-1193367.3620224,-685170.05443573,-20119943.618774414,-22807996.74987793,-37547702.78930664,-1730799.1981506348,1400683.5222244263,-7982625.961303711,-4490371.7041015625,-5322552.680969238,-4088350.772857666,-12663371.086120605,-41056335.44921875,-21009550.094604492,-23555381.774902344,-16819515.228271484,7179894.924163818,-135946.25890254974,-2650420.904159546,-3772442.102432251,-19881792.068481445,-23536041.259765625,-24429792.404174805,-28109834.671020508,-28785017.013549805,-15876844.40612793,-5374722.003936768,-2988456.7260742188,55958.45356583595,-17326585.76965332,-20707956.314086914,-30234596.252441406,-34492858.88671875,-28384887.6953125,-5496473.31237793,-12500798.225402832,-12614105.224609375,12888844.49005127,-21337013.244628906,-29458589.553833008,-12363308.906555176,-12809721.946716309,-13309705.73425293
0.155,21007364.27307129,381007.01570510864,-17180805.206298828,-8318231.582641602,-23761634.826660156,19844930.64880371,4173154.354095459,-841863.751411438,-3239447.1168518066,-9063252.449035645,-20087944.03076172,-19825967.78869629,-20408231.735229492,-19846132.278442383,11199567.794799805,34753112.79296875,17303941.72668457,4425925.731658936,-652360.0220680237,-1250517.9643630981,-593794.8226928711,-19056478.50036621,-20238203.048706055,-29526182.174682617,2130052.5665283203,5000218.868255615,-5421704.292297363,-2347392.0822143555,-5420314.788818359,-3997086.2865448,-13385915.756225586,-37311561.584472656,-12857804.298400879,-17939628.60107422,-11067471.504211426,9769639.96887207,-403754.1151046753,-2729726.3145446777,-3889764.7857666016,-19312376.022338867,-22362154.006958008,-16466691.970825195,-20031097.412109375,-20715244.29321289,-12574440.956115723,-1993731.2602996826,-2079353.5709381104,-1944625.2584457397,-16454050.064086914,-19289939.880371094,-18420549.392700195,-22774541.8548584,-20327611.923217773,-2130079.746246338,-8629218.101501465,-9035318.374633789,14729585.647583008,-13467303.276062012,-20683219.90966797,-7838126.659393311,-8816821.098327637,-9353713.989257812
0.16,25153715.133666992,4233094.215393066,-13690582.275390625,-5545699.596405029,-18844360.3515625,25438713.07373047,6922734.73739624,269945.9493160248,-2269812.1070861816,-8512908.935546875,-16825391.76940918,-15851251.602172852,-16623752.59399414,-15884485.244750977,18890893.936157227,37208450.31738281,20950883.865356445,6492681.02645874,1252304.196357727,613359.0340614319,1246121.883392334,-15297084.80834961,-14985230.445861816,-16843973.15979004,10473433.494567871,10987986.56463623,-1374242.7825927734,154097.09513187408,-4625247.478485107,-2555375.576019287,-10717462.539672852,-30413681.030273438,-341697.5140571594,-7285532.9513549805,-1942569.8518753052,12187423.706054688,-505216.5389060974,-1519375.3242492676,-2512966.8712615967,-14437257.766723633,-16732547.760009766,-3785119.7719573975,-8651206.970214844,-9144676.208496094,-8540424.346923828,1780328.7506103516,671585.8578681946,-1129401.683807373,-12807346.34399414,-12774293.899536133,-4400552.749633789,-8272585.868835449,-9982932.090759277,1923177.8383255005,-1070968.2703018188,-1413437.6049041748,22120977.4017334,-3299634.9334716797,-9898128.509521484,-2109155.8933258057,-1006452.6796340942,-1578405.261039734
0.165,26073562.622070312,3388283.0142974854,-11221259.117126465,-7703582.286834717,-19060476.303100586,27206724.166870117,8462024.688720703,71692.25811958313,-2778465.986251831,-8754959.106445312,-16435297.012329102,-15668465.614318848,-16575525.283813477,-15830801.010131836,21381736.755371094,40472171.783447266,23479047.775268555,6066524.982452393,1940876.0070800781,1385789.9904251099,1764602.541923523,-15160040.855407715,-15358381.271362305,-12331064.224243164,13471735.954284668,13211398.124694824,-286072.0753669739,333538.4726524353,-5087543.487548828,-2681040.048599243,-9581662.17803955,-30740264.892578125,3999638.795852661,-2171803.7128448486,1181903.7199020386,10994684.219360352,-391741.5738105774,-1596970.9157943726,-2538705.825805664,-12789646.14868164,-14892223.358154297,1122951.9844055176,-5397158.622741699,-5757235.527038574,-7887762.546539307,2491692.543029785,1952964.9019241333,495870.76902389526,-11769274.711608887,-9486759.185791016,-1532614.1119003296,-4777387.619018555,-7426038.2652282715,3009455.919265747,2496351.480484009,2433786.630630493,25920471.19140625,-1018528.2230377197,-7842159.271240234,-237568.36354732513,2683263.3018493652,2109382.152557373
0.17,18917535.78186035,-4680806.1599731445,-13917763.710021973,-15500207.901000977,-25899486.541748047,20366134.643554688,4491236.686706543,-4364395.618438721,-6947891.2353515625,-12312000.274658203,-21420085.906982422,-21881208.419799805,-22523794.174194336,-22098844.528198242,13378026.962280273,38447269.439697266,21078203.201293945,1947436.6903305054,-545676.4698028564,-924152.135848999,-793567.419052124,-21024225.23498535,-23285360.33630371,-21275444.03076172,6131631.851196289,9067986.488342285,-3400386.5718841553,-1731184.8402023315,-7371891.021728516,-5858537.673950195,-12955791.473388672,-40348453.521728516,-4426082.134246826,-7828265.66696167,-4362221.717834473,6566083.908081055,-290300.01163482666,-4436724.662780762,-5530233.860015869,-18121122.360229492,-20925775.5279541,-6234502.792358398,-12575541.496276855,-13164513.58795166,-10918246.269226074,-796486.6161346436,-710795.2833175659,-141013.9948129654,-15720931.053161621,-14015304.565429688,-10169168.472290039,-13228174.209594727,-14057425.498962402,-164408.1175327301,-2177025.556564331,-2194235.8016967773,19835197.44873047,-8748074.531555176,-15709260.940551758,-3924695.9686279297,-2191904.306411743,-2670706.272125244
0.175,7935582.637786865,-15924652.099609375,-20924592.971801758,-25385789.87121582,-34607833.86230469,9264741.897583008,-4810079.574584961,-12751512.52746582,-13643193.244934082,-18580108.642578125,-28595329.28466797,-30212860.107421875,-30505769.729614258,-30422615.05126953,-55853.53448987007,30463270.18737793,15418512.344360352,-3557400.4650115967,-4588548.183441162,-4968315.124511719,-4812988.28125,-28961036.682128906,-32623268.127441406,-35011440.27709961,-5462728.977203369,2283306.360244751,-7727223.873138428,-3971643.2094573975,-9510410.30883789,-9431398.391723633,-17891788.482666016,-50915939.33105469,-17368820.190429688,-18503717.42248535,-12340894.69909668,2670597.791671753,-351145.9529399872,-7781605.243682861,-8929885.864257812,-24952560.424804688,-29174407.958984375,-18283666.610717773,-22271564.483642578,-23259990.692138672,-14784799.575805664,-5799261.569976807,-5154939.1746521,-1607133.150100708,-20158790.588378906,-21283966.064453125,-20649229.049682617,-23976943.969726562,-23055727.005004883,-5402308.464050293,-10457746.505737305,-10692729.949951172,9089941.97845459,-19076955.795288086,-25850833.892822266,-10364092.826843262,-10820810.317993164,-11160345.077514648
0.18,1924329.9961090088,-24012147.903442383,-27236896.514892578,-31893825.53100586,-40439582.82470703,3555478.811264038,-12719420.433044434,-19936820.98388672,-18743865.966796875,-24279512.405395508,-33596775.05493164,-35443008.42285156,-35813117.98095703,-35681808.47167969,-7935910.224914551,23416734.69543457,12206745.147705078,-7221258.640289307,-7531839.847564697,-8198285.102844238,-7783420.562744141,-34219970.703125,-37617790.22216797,-41132667.541503906,-11109386.444091797,-1530217.8859710693,-9831080.436706543,-5010147.571563721,-9787847.518920898,-10086238.861083984,-19979307.174682617,-54918434.143066406,-23648427.963256836,-24358896.255493164,-15619263.648986816,1944058.1798553467,-472774.0287780762,-8601748.4664917,-9535771.369934082,-26532073.974609375,-32546306.610107422,-24709873.19946289,-26416505.813598633,-27526023.864746094,-16942962.646484375,-9260439.8727417,-7066740.989685059,-732410.4905128479,-20229215.621948242,-24330177.307128906,-25373294.830322266,-28840980.529785156,-27494295.120239258,-9184156.41784668,-14547582.626342773,-14861340.522766113,3660276.174545288,-23533338.54675293,-30682628.631591797,-15192850.112915039,-15022073.745727539,-15338070.8694458
0.185,4911337.852478027,-24779754.638671875,-27923751.831054688,-31335969.924926758,-42266307.83081055,7259683.609008789,-12136180.877685547,-20522186.279296875,-19016353.607177734,-26751190.185546875,-35242469.787597656,-36789806.3659668,-37560295.10498047,-37067691.802978516,-5355015.754699707,24317756.65283203,14822343.826293945,-8006627.082824707,-8718214.03503418,-9685224.533081055,-9067031.860351562,-35928470.611572266,-38736526.48925781,-37200611.11450195,-8085967.063903809,-1073279.7384262085,-9421035.766601562,-5090266.227722168,-8932944.297790527,-8361074.447631836,-18612453.46069336,-53553321.838378906,-20919466.018676758,-21912641.525268555,-13556332.5881958,3288377.523422241,-527386.3077163696,-7224508.762359619,-7972168.922424316,-23549205.780029297,-30870290.756225586,-22879617.69104004,-24483160.0189209,-25431762.6953125,-16759012.222290039,-9532633.781433105,-5399827.95715332,1722570.4193115234,-17397453.30810547,-22860969.54345703,-24125253.677368164,-27322772.979736328,-25758527.755737305,-9603624.34387207,-12517553.329467773,-12628397.941589355,6153155.80368042,-20513320.922851562,-28697139.739990234,-15967269.897460938,-12772080.421447754,-13227522.850036621
0.19,12970901.489257812,-18278646.46911621,-22172021.865844727,-25150339.126586914,-40837947.845458984,13672287.940979004,-4331343.173980713,-15363115.310668945,-15545633.316040039,-25830806.732177734,-34667037.96386719,-36200695.0378418,-37122291.564941406,-36422084.80834961,1197287.5595092773,31580963.134765625,20598375.32043457,-7108330.249786377,-8862025.260925293,-9824847.221374512,-9240763.664245605,-35503456.115722656,-38994415.283203125,-30848262.786865234,-2983487.606048584,201491.43040180206,-8585210.800170898,-4900905.609130859,-8526988.983154297,-7384986.400604248,-16263616.561889648,-51901390.075683594,-15553847.312927246,-16035461.42578125,-10536771.774291992,4186878.6811828613,-541517.3172950745,-6380187.98828125,-7298691.749572754,-21323041.915893555,-28339492.797851562,-17927127.838134766,-21162996.292114258,-22091102.600097656,-14929272.651672363,-7498764.991760254,-3084669.351577759,2227780.342102051,-16343149.185180664,-21099826.81274414,-20463340.759277344,-23456674.575805664,-20720216.751098633,-7569238.662719727,-8897166.25213623,-8878003.120422363,10708559.9899292,-14876870.155334473,-23484785.079956055,-13511151.313781738,-8911732.67364502,-9530282.020568848
0.195,18489299.774169922,-10150682.44934082,-14838771.82006836,-19302299.49951172,-37328819.274902344,13706457.138061523,1599382.6389312744,-11202065.467834473,-12734987.258911133,-23088195.80078125,-32809009.552001953,-34509593.96362305,-35170970.91674805,-34598697.662353516,2582002.1629333496,36346611.02294922,23870906.829833984,-6092621.326446533,-8250646.591186523,-8937051.773071289,-8526908.874511719,-33584152.22167969,-38603900.90942383,-28074733.73413086,-2348567.7242279053,-591730.2966117859,-8536437.034606934,-4777471.542358398,-8555184.364318848,-7988295.078277588,-14785091.400146484,-50945503.23486328,-12972898.483276367,-12756999.015808105,-9461823.463439941,4173909.1873168945,-537873.9237785339,-6845537.185668945,-8102823.257446289,-21444042.205810547,-26885250.091552734,-14882882.118225098,-19560232.162475586,-20705818.17626953,-12443408.966064453,-5252112.865447998,-2385014.533996582,364658.98156166077,-17642513.275146484,-20709114.07470703,-17158012.39013672,-20449659.34753418,-15975069.046020508,-5341376.781463623,-7412919.998168945,-7590034.008026123,12460112.571716309,-11405799.865722656,-19174709.32006836,-10434770.584106445,-7424025.058746338,-8114608.7646484375
0.2,16283044.815063477,-9325108.528137207,-13014757.15637207,-18382282.257080078,-33892700.1953125,7655426.502227783,-427017.5099372864,-12783481.59790039,-13514595.031738281,-20278816.22314453,-30176063.537597656,-31422637.939453125,-31870431.900024414,-31450935.36376953,-1227199.673652649,32959930.419921875,22038188.934326172,-5769509.792327881,-7048778.057098389,-7469475.269317627,-7205882.549285889,-30274551.391601562,-35638370.513916016,-26670330.047607422,-5151273.727416992,-2224836.3494873047,-8520953.178405762,-4961542.60635376,-7871273.994445801,-7606479.644775391,-13971805.572509766,-47597061.15722656,-11827486.991882324,-12814568.519592285,-9211134.910583496,4647778.9878845215,-404149.1746902466,-6353593.826293945,-7630682.468414307,-20422508.239746094,-25135829.92553711,-13489346.504211426,-18770517.349243164,-19936233.520507812,-9788858.413696289,-3662768.840789795,-1829413.4140014648,-212429.31485176086,-17258518.21899414,-19346942.901611328,-14528699.87487793,-18137275.69580078,-12594794.273376465,-3819967.746734619,-6497232.437133789,-6916546.34475708,13412055.969238281,-9878274.917602539,-16528394.69909668,-8068869.590759277,-6592103.481292725,-7331376.075744629
0.205,8453096.389770508,-18446897.506713867,-17890470.504760742,-20656011.5814209,-32555309.295654297,4267554.759979248,-5855592.727661133,-17244123.458862305,-16013181.686401367,-18423742.294311523,-27481595.993041992,-27511339.18762207,-28122014.99938965,-27619901.657104492,-2694686.6512298584,26122909.545898438,18168848.037719727,-5993833.065032959,-6030758.857727051,-6340982.913970947,-6183467.864990234,-26489383.697509766,-30044843.673706055,-22987731.93359375,-6429341.3162231445,-2227901.9355773926,-7859693.52722168,-5677943.229675293,-6390767.0974731445,-4692529.678344727,-12445229.530334473,-40816741.943359375,-8855578.422546387,-13598670.959472656,-8451973.915100098,5637028.694152832,-123536.40794754028,-3537020.444869995,-4416752.338409424,-16086803.436279297,-21804000.854492188,-11705935.47821045,-17704185.485839844,-18463167.190551758,-7386171.340942383,-2219745.874404907,652139.8425102234,2665553.092956543,-13185121.536254883,-15320019.721984863,-12123432.159423828,-15347056.38885498,-9727638.244628906,-2395222.9022979736,-3423344.850540161,-3768443.5844421387,17101806.640625,-7465898.036956787,-13873787.879943848,-5880070.686340332,-3442297.6970672607,-4286026.954650879
0.21,5901357.173919678,-25750658.03527832,-19845285.415649414,-20000408.172607422,-31560337.06665039,8514016.151428223,-5401832.103729248,-17913839.34020996,-15479339.599609375,-17026500.701904297,-24609266.28112793,-23593555.450439453,-24462747.57385254,-23817642.211914062,1034897.9234695435,25309619.903564453,17569284.439086914,-5714636.325836182,-5314215.660095215,-5576680.1834106445,-5550060.272216797,-22809106.826782227,-24176176.071166992,-19918409.34753418,-5364356.994628906,-1262549.5195388794,-7397017.955780029,-6670706.272125244,-5243216.514587402,-1759279.8471450806,-9060515.403747559,-34118293.76220703,-5945506.572723389,-14819259.643554688,-8893760.681152344,4845415.5921936035,35171.2703704834,-750292.3607826233,-1236872.5538253784,-11426161.766052246,-17440404.891967773,-11354934.692382812,-18398656.845092773,-18769203.186035156,-6652207.374572754,-1394159.436225891,3434766.0541534424,6258308.410644531,-9078780.174255371,-10799311.637878418,-11643798.828125,-14122557.640075684,-8145167.350769043,-1512688.159942627,-72772.21232652664,-168128.31163406372,21236686.70654297,-4835205.078125,-11769607.543945312,-4214425.086975098,39302.15910077095,-851622.0450401306
0.215,21660654.067993164,-13133212.089538574,-5539217.948913574,-12333230.972290039,-25321535.110473633,15872105.598449707,3408068.4185028076,-12259552.001953125,-9342521.667480469,-14024106.0256958,-19992010.11657715,-19030893.325805664,-19848215.103149414,-19260597.229003906,4088996.8872070312,33090396.881103516,22152774.810791016,-3862280.6072235107,-3416001.558303833,-3626701.593399048,-3696896.3146209717,-18190574.645996094,-19896427.154541016,-22500806.80847168,-5558205.604553223,-1941597.34249115,-7914750.099182129,-7278318.405151367,-4880424.022674561,-2173119.54498291,-4420557.022094727,-31522663.116455078,-7975572.58605957,-18358247.756958008,-12326120.376586914,1077760.100364685,-138255.774974823,-1183330.1782608032,-1627303.8387298584,-10652681.350708008,-13779189.109802246,-16293893.814086914,-22924276.35192871,-23430536.2701416,-9045491.218566895,-3114999.532699585,2806890.4876708984,6648867.607116699,-9623393.058776855,-9587021.827697754,-16313219.07043457,-18770240.783691406,-10687536.239624023,-3188603.8780212402,-1232328.4149169922,-1313706.1595916748,19791593.551635742,-6679918.7660217285,-13996142.387390137,-5410311.698913574,-1229035.0198745728,-1953299.1647720337
0.22,57213142.39501953,22997638.702392578,27018802.642822266,813411.7126464844,-10938146.591186523,20827672.958374023,14135012.62664795,-3990315.6757354736,193792.01531410217,-7740598.678588867,-12875091.552734375,-12989375.114440918,-13529150.96282959,-13102926.254272461,2059412.4794006348,42388828.27758789,28704298.01940918,-824665.0695800781,669782.4597358704,411651.49211883545,432359.6954345703,-11900238.990783691,-17142011.642456055,-28412878.036499023,-8100599.28894043,-4186390.3999328613,-8318349.838256836,-7246387.958526611,-4429355.621337891,-5343194.484710693,-1199271.2020874023,-33035434.72290039,-14583756.446838379,-23132209.77783203,-16307901.382446289,-3090970.754623413,-370448.0826854706,-4358269.691467285,-4957139.96887207,-13730367.660522461,-12683998.107910156,-25376874.923706055,-28520380.0201416,-29514162.063598633,-13343196.868896484,-7567285.060882568,-1553254.8427581787,3911239.8624420166,-14312996.864318848,-12756697.654724121,-25696554.18395996,-29020210.26611328,-17524278.64074707,-7660155.773162842,-7677394.866943359,-8015062.33215332,11946763.038635254,-14920765.87677002,-21847940.44494629,-10317316.055297852,-7994268.894195557,-8435879.707336426
0.225,95530578.61328125,62750846.86279297,62278064.7277832,13839090.347290039,6018735.408782959,24932434.08203125,19935451.50756836,1838986.7544174194,8329545.021057129,443046.30160331726,-5629538.059234619,-6995624.542236328,-7428140.640258789,-6990273.952484131,-336512.35699653625,45744384.765625,32745243.072509766,1673558.235168457,5227953.4339904785,4757045.745849609,5065618.515014648,-5919517.040252686,-15148894.309997559,-29574934.005737305,-9110947.608947754,-4887416.839599609,-6954065.322875977,-6972580.909729004,-3144663.095474243,-7366452.693939209,-1347760.4389190674,-34939968.10913086,-18928798.67553711,-24586866.37878418,-16390842.43774414,-4182093.620300293,-191041.43977165222,-6587636.947631836,-7181075.096130371,-16576467.514038086,-14402523.9944458,-31729782.104492188,-29705278.396606445,-30966991.424560547,-15814515.113830566,-11396089.553833008,-5484555.721282959,1570270.06149292,-17948045.73059082,-17039113.998413086,-33354106.903076172,-37312129.974365234,-23494340.896606445,-11541934.0133667,-14130484.580993652,-14629302.024841309,4780670.166015625,-24101951.599121094,-29891969.680786133,-15415638.92364502,-14632118.225097656,-14961214.065551758
0.23,113012947.08251953,79946998.5961914,79319305.41992188,20570043.563842773,15062773.704528809,31217977.52380371,20025512.6953125,3274102.210998535,11527316.093444824,6311838.150024414,-2104599.714279175,-4186777.5917053223,-4795423.50769043,-4166917.8009033203,2980283.02192688,43434497.83325195,33041431.427001953,2594340.3244018555,7450174.331665039,6790617.942810059,7357198.715209961,-3482965.9461975098,-13753332.138061523,-23694532.39440918,-6022071.838378906,-2829619.4076538086,-4299945.35446167,-6769987.106323242,-1485191.7028427124,-6304080.009460449,-3231841.0873413086,-34042266.845703125,-16575490.951538086,-21161136.627197266,-12704229.354858398,-2596318.483352661,339745.34273147583,-5873040.199279785,-6235082.626342773,-16207780.838012695,-16327339.172363281,-30952333.450317383,-25983453.75061035,-27116355.895996094,-14815739.631652832,-11613986.96899414,-5707427.024841309,1556284.0700149536,-17104249.954223633,-18111749.64904785,-33355133.056640625,-37010128.021240234,-23713724.13635254,-11827657.699584961,-15480016.708374023,-15864752.769470215,4876397.132873535,-26816623.68774414,-31441423.416137695,-16486797.332763672,-15900544.166564941,-16374019.622802734
0.235,100468215.94238281,66844673.15673828,70340682.98339844,17489458.084106445,10800008.773803711,35408401.48925781,17010984.420776367,962144.9708938599,9202300.071716309,6456703.186035156,-3800152.063369751,-5925537.109375,-6740736.961364746,-5981856.822967529,8728007.316589355,40325859.06982422,31496850.967407227,2438749.074935913,6771986.484527588,6217867.374420166,6784065.246582031,-5547080.516815186,-13464066.505432129,-17876356.12487793,-2442672.2526550293,-965429.5444488525,-2659484.86328125,-6496571.063995361,-451215.35658836365,-4495389.461517334,-3693543.6725616455,-31147531.509399414,-11686157.2265625,-17466308.59375,-10508351.32598877,-1954704.2846679688,594851.4342308044,-4239669.322967529,-4389908.313751221,-14111211.776733398,-15514878.273010254,-26558584.213256836,-23307699.20349121,-24237897.872924805,-13254611.96899414,-9978924.751281738,-3849694.013595581,2053501.1291503906,-14027936.935424805,-15642639.16015625,-27977880.477905273,-31224514.00756836,-20293354.034423828,-10289558.410644531,-12733501.434326172,-12962009.42993164,10000104.904174805,-22663274.76501465,-27232101.440429688,-14374012.94708252,-13082980.155944824,-13711526.870727539
0.24,69798263.54980469,37970600.12817383,45585868.83544922,6156050.205230713,-2421358.108520508,30131544.11315918,12085539.817810059,-3939491.033554077,3038055.658340454,1230733.9906692505,-9034833.908081055,-10799444.198608398,-11665386.199951172,-10916873.931884766,8267260.551452637,38252628.326416016,29745611.1907959,1563117.504119873,4875808.7158203125,4678213.596343994,5034737.110137939,-10383164.405822754,-15165451.049804688,-18629283.905029297,-3500828.0277252197,-2215917.5872802734,-3190680.503845215,-6239295.482635498,-645725.7270812988,-4825131.416320801,-2810202.121734619,-30316566.467285156,-11163289.070129395,-18082788.467407227,-12859054.565429688,-3749402.9998779297,224762.4546289444,-4402486.324310303,-4550204.277038574,-13829926.490783691,-12958230.972290039,-24510507.583618164,-25651206.970214844,-26576101.303100586,-14125825.881958008,-10404449.462890625,-3336037.1589660645,1006420.373916626,-13086941.719055176,-13788949.012756348,-24692108.154296875,-28483629.22668457,-19275775.909423828,-10800023.078918457,-10686815.26184082,-10941933.631896973,12615417.48046875,-18304056.16760254,-24222528.4576416,-13696284.294128418,-11197139.739990234,-11764363.288879395
0.245,40533763.88549805,12301125.526428223,21716253.28063965,-6873036.861419678,-15536848.068237305,17343954.08630371,5849147.796630859,-9528497.695922852,-3862899.0650177,-5818808.555603027,-15023482.322692871,-16345684.051513672,-17190181.732177734,-16429227.828979492,923275.351524353,35827301.025390625,27967430.114746094,-562500.9536743164,3077772.617340088,3093440.055847168,3306930.7804107666,-15674502.3727417,-18883861.541748047,-23086093.90258789,-8158290.863037109,-5092227.458953857,-4555521.011352539,-6557358.741760254,-2069426.5365600586,-6476978.778839111,-3361736.059188843,-33719989.77661133,-14844996.452331543,-20742868.423461914,-16023454.666137695,-5511403.560638428,-334441.78104400635,-5738452.911376953,-6029884.338378906,-15786351.203918457,-12282413.482666016,-24794401.168823242,-28817497.25341797,-29874507.904052734,-15451084.13696289,-12610428.810119629,-4000339.5080566406,-144258.97598266602,-14587785.720825195,-15208536.148071289,-25557460.78491211,-30452939.987182617,-21332859.03930664,-12990275.382995605,-10816505.432128906,-11168622.970581055,10702637.672424316,-18090270.99609375,-25424217.224121094,-15683854.103088379,-11531739.234924316,-11920909.881591797
0.25,23815397.262573242,-2044631.9580078125,8537358.283996582,-14403851.509094238,-22382061.004638672,8979143.142700195,1395860.6719970703,-12476981.163024902,-7795321.464538574,-10537410.736083984,-19148160.934448242,-20072664.260864258,-20930147.171020508,-20061897.27783203,-3911017.656326294,33883407.59277344,26912729.263305664,-3160980.9398651123,1758433.8188171387,1555461.049079895,1866191.6255950928,-19211343.76525879,-22199007.034301758,-23486925.12512207,-9948022.842407227,-5739938.735961914,-4829603.19519043,-7417118.549346924,-4041342.258453369,-6257950.305938721,-5183769.226074219,-37692119.59838867,-15859499.93133545,-19598884.58251953,-14851408.004760742,-5215081.691741943,-474766.9994831085,-5370039.939880371,-5775240.898132324,-16257398.60534668,-13404235.83984375,-22392625.80871582,-26601776.123046875,-27767316.818237305,-13201272.010803223,-12134409.90447998,-2659472.703933716,1654022.8128433228,-14484295.845031738,-16451448.440551758,-24804958.34350586,-30122341.15600586,-20549259.185791016,-12409514.427185059,-9563624.382019043,-9881103.515625,10477429.389953613,-18393882.751464844,-25779930.114746094,-16134057.998657227,-10230194.091796875,-10572625.160217285
0.255,18890436.17248535,-7450149.5361328125,5401051.998138428,-14805664.0625,-22850934.982299805,12452815.055847168,2098402.976989746,-10605669.021606445,-6866799.354553223,-10660421.371459961,-19547670.364379883,-20058599.4720459,-20901031.494140625,-20010036.46850586,269237.54811286926,35603183.74633789,28320169.44885254,-3337446.689605713,1735563.039779663,1084768.7721252441,1612296.3428497314,-19105543.13659668,-21837791.442871094,-17425951.00402832,-5493933.67767334,-3311532.2589874268,-3672210.931777954,-7658296.10824585,-5318452.835083008,-3555453.5388946533,-4405134.201049805,-36474697.11303711,-10596463.203430176,-14132161.140441895,-10248762.130737305,-4591970.920562744,-237333.93847942352,-2762942.7909851074,-3164930.3436279297,-12823969.841003418,-11955752.3727417,-15675400.733947754,-20455387.115478516,-21653364.181518555,-8189649.58190918,-7472066.402435303,1228387.5942230225,5816961.288452148,-10832201.00402832,-12954733.848571777,-18414546.966552734,-23265745.162963867,-13715453.147888184,-7688734.531402588,-4484998.2261657715,-4678678.9894104,16402889.251708984,-13661155.700683594,-20275110.244750977,-12148143.768310547,-4886741.638183594,-5348095.417022705
0.26,18667320.251464844,-9636112.213134766,5437556.743621826,-13290238.380432129,-21291034.698486328,20798446.655273438,6215403.079986572,-6366166.591644287,-3567559.003829956,-7679089.069366455,-17171300.888061523,-17276018.142700195,-18006637.573242188,-17316970.825195312,7823288.440704346,40186248.779296875,31747026.443481445,-10329.006239771843,3458529.472351074,2585096.597671509,3210761.308670044,-16252267.837524414,-18528606.414794922,-10058391.571044922,874483.6449623108,-1036118.0305480957,-2181473.970413208,-6524309.6351623535,-5284165.859222412,-1807087.6598358154,-458101.361989975,-30670625.686645508,-4113195.4193115234,-10407023.429870605,-7607037.544250488,-5910468.578338623,-144017.69638061523,-1150712.7285003662,-1494683.7425231934,-9268366.813659668,-7245571.136474609,-9529305.458068848,-17609556.198120117,-18764507.293701172,-5637686.252593994,-3451541.4237976074,3547597.885131836,7285306.930541992,-7921972.274780273,-7616744.9951171875,-10965198.516845703,-15427084.922790527,-5999318.1228637695,-3725307.4645996094,618870.7947731018,456347.64432907104,22602125.16784668,-5470262.050628662,-11995444.297790527,-7448062.419891357,405376.8515586853,-148759.94622707367
0.265,15298064.231872559,-14142138.481140137,1457692.02709198,-16256029.12902832,-23119041.442871094,21459619.522094727,7310240.268707275,-5478915.214538574,-3369092.9412841797,-6759849.071502686,-16794147.491455078,-16723043.441772461,-17335884.09423828,-16907211.303710938,8311412.811279297,41551010.13183594,33226127.62451172,2892292.4995422363,4719254.970550537,3972253.3226013184,4521720.886230469,-15707873.344421387,-18165895.462036133,-8024958.610534668,2369305.13381958,-2059932.9471588135,-1524973.3924865723,-5239076.614379883,-5091108.798980713,-4187172.4128723145,719942.3313140869,-28506984.71069336,-3832466.1254882812,-12957427.024841309,-9075608.253479004,-7861200.80947876,-376023.47135543823,-3487790.107727051,-3869652.74810791,-11819449.424743652,-5760076.04598999,-9470156.6696167,-20566743.850708008,-21633634.567260742,-7699919.700622559,-5193347.454071045,654195.1298713684,2557189.94140625,-11286888.122558594,-8846670.150756836,-9876783.37097168,-14486003.875732422,-4621570.110321045,-5535777.568817139,-491107.314825058,-754161.2982749939,19202133.178710938,-1746475.338935852,-8653972.625732422,-7960540.771484375,-743147.4328041077,-1240360.140800476
0.27,5288149.356842041,-23682506.561279297,-8551601.40991211,-24336347.579956055,-30245086.669921875,11724580.764770508,1678857.922554016,-10772332.191467285,-9025196.075439453,-12314042.091369629,-22313863.75427246,-22408153.533935547,-23001482.009887695,-22618328.094482422,-235061.54119968414,35808063.50708008,29445590.97290039,544752.5382041931,2154081.106185913,1558113.4557724,2012687.9215240479,-21533670.42541504,-24744878.7689209,-13364740.371704102,-2447058.916091919,-5999249.9351501465,-2149098.6347198486,-5747785.568237305,-6400046.825408936,-9025467.872619629,-5303022.384643555,-35332546.23413086,-10179826.736450195,-18898134.231567383,-11154403.686523438,-7525349.6170043945,-574080.8248519897,-8102503.776550293,-8714031.219482422,-20017190.93322754,-11869147.300720215,-14961536.407470703,-23831539.154052734,-24874071.12121582,-10378736.49597168,-10885402.67944336,-5118732.452392578,-4812851.905822754,-19343475.341796875,-18125692.36755371,-15648774.147033691,-20210044.860839844,-9622633.934020996,-11187392.234802246,-7821497.917175293,-8208898.544311523,6597172.260284424,-6487563.133239746,-12664630.889892578,-13558580.39855957,-8230427.7420043945,-8595497.131347656
0.275,-6538668.155670166,-34687381.744384766,-19035511.016845703,-31794593.811035156,-38085178.37524414,804288.5065078735,-6794680.118560791,-18651027.67944336,-16894184.112548828,-22035793.30444336,-30406492.233276367,-30711158.752441406,-31305103.302001953,-30750913.619995117,-9692327.499389648,26686258.31604004,22378118.51501465,-5797701.358795166,-3789459.466934204,-4471619.606018066,-4011430.7403564453,-29954364.776611328,-33318092.346191406,-22211858.74938965,-8795081.13861084,-9952140.808105469,-3540086.269378662,-7842062.473297119,-8715319.633483887,-11186219.215393066,-13400954.246520996,-44625347.13745117,-16297361.373901367,-21965497.970581055,-10234175.682067871,-5103995.800018311,-464541.7332649231,-10049080.848693848,-10972187.995910645,-25149074.55444336,-19129051.208496094,-20121734.619140625,-22251537.322998047,-23392919.540405273,-9480031.01348877,-13793681.144714355,-7491033.07723999,-7396182.537078857,-23738355.63659668,-25228624.34387207,-21611574.172973633,-25322828.29284668,-14397245.407104492,-13981677.055358887,-13584492.683410645,-14046548.843383789,-2558585.1669311523,-13891864.776611328,-18416872.024536133,-17804761.88659668,-14109597.206115723,-14378683.090209961
0.28,-11039515.495300293,-39674201.96533203,-22103666.305541992,-32990715.02685547,-39282058.71582031,-2515340.566635132,-11145813.941955566,-23095388.412475586,-20618841.17126465,-27637088.775634766,-32767696.380615234,-32959419.25048828,-33441947.93701172,-32784080.505371094,-12478176.11694336,20591053.009033203,17410741.806030273,-9512771.606445312,-7995101.451873779,-8815305.709838867,-8323957.443237305,-32135978.69873047,-34652847.29003906,-27983730.31616211,-11730883.598327637,-11801112.174987793,-4422776.699066162,-8886818.885803223,-9421304.702758789,-8149472.236633301,-14520238.876342773,-45101188.65966797,-16585748.672485352,-20311922.073364258,-7264871.597290039,-3516048.4313964844,-256515.08569717407,-6976559.638977051,-8024623.870849609,-20672283.172607422,-17831897.735595703,-20315694.80895996,-17920331.954956055,-19132266.998291016,-6249108.791351318,-10805459.022521973,-3770904.302597046,-2829046.2493896484,-19527204.513549805,-20788110.733032227,-22301654.815673828,-24979639.053344727,-14143736.839294434,-10916449.546813965,-11295719.146728516,-11771258.354187012,1461320.0426101685,-15336038.589477539,-19552961.349487305,-16148534.774780273,-11829408.645629883,-12066977.500915527
0.285,-5789187.431335449,-36274513.244628906,-16899087.90588379,-28471508.026123047,-32298568.725585938,553223.192691803,-9365621.566772461,-22325033.18786621,-18266321.182250977,-24048061.37084961,-26519208.908081055,-26387184.143066406,-26716907.501220703,-26206188.201904297,-9577692.985534668,18733078.002929688,16989061.35559082,-7080752.849578857,-6699376.583099365,-7370419.502258301,-6963378.90625,-25436197.28088379,-27241014.48059082,-27008483.88671875,-11009326.934814453,-11905595.779418945,-3944313.0493164062,-6997505.664825439,-7157577.991485596,-3074706.792831421,-8007520.67565918,-35779201.50756836,-12675971.984863281,-17720731.735229492,-5413579.46395874,-3623310.089111328,-253973.78206253052,-2042804.0027618408,-2891486.167907715,-11067790.985107422,-9222580.909729004,-16560934.066772461,-15973488.807678223,-17024993.896484375,-4519712.448120117,-5837496.757507324,1878051.519393921,3144169.330596924,-11640358.924865723,-9333745.002746582,-18624214.17236328,-21081373.21472168,-10429265.022277832,-5918709.754943848,-4011416.435241699,-4419859.409332275,12897265.434265137,-10123006.820678711,-15950626.373291016,-11207457.542419434,-4455449.104309082,-4722390.651702881
0.29,841815.9484863281,-30843126.29699707,-11314538.955688477,-23670043.9453125,-24154594.42138672,2795538.6638641357,-5696526.527404785,-19802076.33972168,-13980633.735656738,-16144323.348999023,-18692073.822021484,-18458211.89880371,-18800630.569458008,-18529369.354248047,-6977071.762084961,17388586.044311523,18267488.479614258,-2398060.083389282,-2344434.4997406006,-2603440.761566162,-2396250.9632110596,-17562463.760375977,-19709091.186523438,-21955398.559570312,-9728536.605834961,-12074710.845947266,-2835514.0686035156,-3399226.427078247,-3749966.3829803467,-682365.4770851135,-2412942.886352539,-27228464.126586914,-9793796.53930664,-17727281.57043457,-5308052.062988281,-2965057.611465454,-382936.0008239746,158413.54429721832,-363497.70426750183,-5880645.275115967,-4046633.720397949,-13117147.445678711,-16777219.772338867,-17497900.009155273,-4579791.54586792,-3866216.6595458984,3961272.0012664795,4102549.5529174805,-8194535.255432129,-3023527.145385742,-14494496.34552002,-17496994.018554688,-7206069.469451904,-3913600.206375122,17018.305137753487,-265948.623418808,18342199.325561523,-5347184.181213379,-11958563.804626465,-8193880.081176758,-315727.26368904114,-651631.4744949341
0.295,630004.2271614075,-29809671.40197754,-12064369.201660156,-21865610.122680664,-21889739.990234375,1142290.1153564453,-4426477.432250977,-18978139.877319336,-12190299.034118652,-12762067.794799805,-17118936.53869629,-17076946.258544922,-17604213.71459961,-17396139.14489746,-7077874.183654785,14374125.480651855,17492376.32751465,-842558.741569519,-26551.805436611176,18154.362216591835,48096.38485312462,-16393842.697143555,-19073551.177978516,-18242174.14855957,-9696577.072143555,-13318635.940551758,-2490926.98097229,-717796.3256835938,-1717469.0961837769,-1318284.273147583,-3607298.6125946045,-26262729.64477539,-9307232.856750488,-18979202.270507812,-4761481.285095215,70356.86075687408,-368730.3066253662,-625016.0932540894,-1004270.7920074463,-6776149.272918701,-6510642.528533936,-11671174.049377441,-16151456.832885742,-16640270.233154297,-3354609.489440918,-4416688.919067383,2662132.501602173,978331.3870429993,-9813611.030578613,-4672397.136688232,-11607110.977172852,-14969655.03692627,-5563538.551330566,-4466663.837432861,-1290735.7215881348,-1525499.701499939,14532029.151916504,-5550354.480743408,-10089431.762695312,-7662774.562835693,-1606891.393661499,-1945415.1391983032
0.3,-3044960.2603912354,-30573013.305664062,-15786314.964294434,-19750885.009765625,-22867006.301879883,-243184.74531173706,-4726147.651672363,-18973741.53137207,-12049919.128417969,-14771067.61932373,-19646028.518676758,-19727571.487426758,-20356063.842773438,-20026718.139648438,-6163421.154022217,11203009.605407715,14683963.775634766,-1982314.944267273,-545569.8370933533,-531813.6811256409,-564773.7979888916,-19174077.9876709,-21066673.278808594,-16122751.235961914,-9439533.233642578,-14543811.798095703,-2604118.824005127,372884.75036621094,-1016951.4417648315,-996536.135673523,-7834046.840667725,-26197074.89013672,-7016526.699066162,-17056688.30871582,-1997174.7398376465,3636368.989944458,-200585.2609872818,-420840.322971344,-869225.6212234497,-6064859.390258789,-8074145.317077637,-8794577.598571777,-11612136.840820312,-12056818.962097168,449948.4598636627,-2984044.313430786,3113031.8641662598,-180084.83946323395,-9766411.781311035,-4897188.663482666,-8285796.165466309,-11260338.78326416,-3370118.8564300537,-3153647.8996276855,-1254385.3521347046,-1630887.746810913,11514211.654663086,-6502084.255218506,-8333889.007568359,-5450944.900512695,-1650086.4028930664,-1814887.0468139648
0.305,-524842.5006866455,-26053543.090820312,-13867439.270019531,-11826387.405395508,-18098442.07763672,3653116.226196289,-2632040.023803711,-16422739.028930664,-9326452.255249023,-14019585.609436035,-17408216.47644043,-17422052.38342285,-17912931.442260742,-17525806.427001953,-102533.86944532394,9591933.250427246,12973561.28692627,-1219492.6738739014,-157062.0983839035,-355314.37397003174,-380144.6259021759,-16872386.932373047,-16776195.526123047,-9932745.933532715,-6538198.471069336,-13669066.429138184,-1102362.7519607544,1447361.707687378,150083.40775966644,2672622.9190826416,-8715265.274047852,-17548553.466796875,842123.9852905273,-9959801.67388916,2608266.3536071777,5323001.861572266,-133270.17426490784,3110374.689102173,2654281.6162109375,1268351.1972427368,-733821.7496871948,-374206.1257362366,-5039393.424987793,-5423254.96673584,4499030.590057373,2098236.560821533,7914163.589477539,2809069.871902466,-4318738.4605407715,2922125.3395080566,-2308553.457260132,-4555726.051330566,1275055.8853149414,1773124.33719635,5358314.990997314,4755267.143249512,17288486.48071289,-1654684.1859817505,-3619511.127471924,586021.9597816467,4969142.436981201,5061057.090759277
0.31,9512290.000915527,-16197423.934936523,-4683101.177215576,1437110.0664138794,-5134585.857391357,11738229.751586914,3124375.104904175,-10444595.336914062,-2754248.1422424316,-5363966.464996338,-7843285.56060791,-7986155.033111572,-8291849.136352539,-8064373.970031738,9429014.205932617,9163874.626159668,14407385.82611084,3004481.554031372,3047753.5724639893,2712819.5762634277,2693691.9689178467,-7536440.372467041,-6091172.218322754,2688662.29057312,-1182422.399520874,-10335340.49987793,2714102.7450561523,3464134.693145752,2034248.3520507812,6868900.299072266,-6411551.952362061,-3359411.2396240234,11687968.254089355,-896702.7068138123,7430843.830108643,5436807.155609131,-276631.6831111908,7148229.598999023,6907084.941864014,9786042.213439941,10405001.640319824,11935447.692871094,386639.267206192,237023.7112045288,6237055.778503418,6853350.639343262,13144518.852233887,5361475.467681885,1758306.7417144775,12521140.098571777,5907824.993133545,4038191.795349121,7422088.623046875,6549874.305725098,13920406.341552734,13248494.148254395,26158168.79272461,8013889.312744141,3587262.1536254883,6713706.016540527,13760620.1171875,13938570.976257324
0.315,17637498.85559082,-9210703.84979248,3795971.393585205,12440183.639526367,7096251.964569092,17531387.329101562,8984651.565551758,-4225091.934204102,3807713.508605957,5170375.347137451,998034.2984199524,213780.90977668762,-123424.44807291031,-131835.38615703583,15778185.844421387,9081497.192382812,17704093.93310547,7260041.7137146,5896923.065185547,5552392.00592041,5543869.972229004,381481.5580844879,1192574.2626190186,14315864.562988281,3292402.0290374756,-6984067.440032959,6293939.113616943,5117877.006530762,2756166.696548462,7156387.3291015625,-6242630.0048828125,3361624.240875244,18137607.57446289,4459897.518157959,10780628.204345703,5675466.060638428,-436777.62150764465,7299058.437347412,7300141.81137085,10913838.386535645,13599020.957946777,20580837.24975586,3112894.058227539,3227044.105529785,5736194.610595703,6506397.724151611,13294059.753417969,2954790.3537750244,1792256.9513320923,13518843.650817871,12513016.700744629,10546051.979064941,11693901.062011719,6448157.31048584,15585288.047790527,15078088.760375977,26722333.908081055,14340881.34765625,8927574.157714844,7597328.662872314,15724307.0602417,15747014.999389648
0.32,16760538.101196289,-10768398.28491211,4218206.405639648,14509271.621704102,8640671.730041504,16001846.313476562,10270469.665527344,-1722144.8421478271,5895099.639892578,7970178.604125977,749902.7848243713,-961537.8379821777,-1492264.986038208,-1578422.3079681396,14026251.792907715,9135697.364807129,19813081.741333008,8348428.726196289,4660485.26763916,4343274.116516113,4387226.104736328,-1011167.1686172485,-2148780.107498169,14888563.15612793,3412321.5675354004,-6587801.933288574,6595744.609832764,4787827.014923096,1181420.922279358,3182391.64352417,-10853913.307189941,-3596934.7953796387,15275114.059448242,3127765.417098999,11339039.80255127,6096166.133880615,-395436.3763332367,3252789.7357940674,3254177.5703430176,4035673.6183166504,5582015.514373779,19526136.39831543,2876914.2627716064,3047299.385070801,4474624.156951904,1412086.2483978271,8262104.034423828,-2698672.05619812,-4195380.210876465,4999541.282653809,12984024.047851562,10867631.912231445,11031770.706176758,1577503.8003921509,8864139.556884766,8557845.115661621,16828565.59753418,11671313.285827637,8287684.440612793,2830322.265625,9090233.80279541,8956254.005432129
0.325,11035362.243652344,-16856575.01220703,-1379678.726196289,9194995.880126953,365654.0811061859,8563390.731811523,6049673.080444336,-3853547.5730895996,3281365.156173706,2315611.3624572754,-6870649.814605713,-9350989.34173584,-9945972.442626953,-9916266.441345215,5799366.474151611,8549261.093139648,18906625.747680664,7230845.4513549805,365174.41272735596,78020.75892686844,182107.8062057495,-9326702.117919922,-12009829.5211792,4190035.343170166,-1095901.7276763916,-9590869.903564453,3948922.634124756,3070893.0492401123,-1244745.8505630493,-1111318.2306289673,-17238515.853881836,-16120780.944824219,5588382.720947266,-2810526.3710021973,8921852.111816406,5416771.411895752,-165488.18349838257,-1008849.3824005127,-1213293.433189392,-3752281.904220581,-5533406.734466553,10861891.746520996,71465.402841568,79822.66694307327,3283667.0875549316,-3419515.1329040527,3143302.6790618896,-6522727.012634277,-10337480.545043945,-4640120.506286621,7006970.8824157715,5002007.007598877,5801604.270935059,-3299734.592437744,998460.9484672546,690070.8079338074,5079360.008239746,3158793.4494018555,2245712.2802734375,-2672626.256942749,1068413.6152267456,972128.5700798035
0.33,8200071.334838867,-19993791.580200195,-5473850.250244141,2885007.14302063,-8491941.452026367,942482.2926521301,-364902.8539657593,-8527338.981628418,-979215.4431343079,-3964213.8481140137,-13411534.309387207,-16343231.201171875,-16777994.15588379,-16598318.099975586,-3081521.987915039,6527074.813842773,15904582.023620605,6403941.1544799805,-2698146.8200683594,-2946086.645126343,-2826882.839202881,-16086193.084716797,-19165925.979614258,-7460010.051727295,-7191483.020782471,-13942785.263061523,1275031.4474105835,1956894.6361541748,-2379574.0604400635,-2572040.319442749,-20641609.19189453,-22994043.350219727,-3778617.1436309814,-8817556.381225586,5090555.191040039,3294016.3612365723,102397.71008491516,-2294815.7787323,-2659259.080886841,-7058879.375457764,-10785512.924194336,2357371.8070983887,-3811026.8115997314,-4001073.3604431152,2507725.477218628,-4232705.593109131,1707243.3233261108,-6645918.846130371,-12516291.618347168,-8640742.301940918,-183027.78899669647,-2102935.314178467,15581.757761538029,-4370251.655578613,-1791716.0987854004,-2315883.6364746094,-516910.01653671265,-3521008.7299346924,-4166023.7312316895,-4520298.957824707,-1889966.0110473633,-1903651.237487793
0.335,8564177.513122559,-18806623.458862305,-4639997.0054626465,-1888954.6394348145,-12318860.054016113,-2639500.617980957,-5230525.016784668,-13440778.732299805,-4812412.261962891,-5777928.829193115,-14609134.674072266,-17722755.432128906,-17998991.012573242,-17768999.099731445,-8502740.859985352,4718341.35055542,13408976.554870605,5817577.362060547,-2492440.938949585,-2762646.436691284,-2613152.7423858643,-17363391.876220703,-20421918.869018555,-11148240.089416504,-11494655.60913086,-17630193.71032715,-25477.6980727911,1888127.5653839111,-1996633.6488723755,-1971540.6894683838,-18923381.805419922,-22821622.848510742,-7946718.692779541,-12194958.686828613,2186738.0142211914,562413.3348464966,321194.8573589325,-1416571.9747543335,-1799434.5426559448,-6817202.568054199,-8547734.260559082,-753170.2518463135,-6664209.365844727,-6965648.651123047,2763637.7811431885,-2213598.7281799316,2752106.189727783,-5109867.572784424,-11781309.127807617,-7512794.017791748,-3008297.4433898926,-5460512.638092041,-2389479.160308838,-2554656.0287475586,-772783.8158607483,-1518832.2067260742,221183.31491947174,-4501842.021942139,-6497941.493988037,-3168665.1706695557,-923143.5060501099,-1046319.2462921143
0.34,6976613.521575928,-17713678.35998535,-1708529.1147232056,-7516204.833984375,-13593325.6149292,-2180520.534515381,-7512076.854705811,-17489456.176757812,-8137244.22454834,-5689720.153808594,-13634716.033935547,-16662254.333496094,-16982772.827148438,-16797864.91394043,-10353157.043457031,6449954.986572266,13202017.784118652,3816213.607788086,-761026.3824462891,-1205002.0694732666,-886017.6801681519,-16367553.7109375,-19907445.907592773,-8076018.333435059,-12921851.15814209,-20003484.72595215,-1220977.0679473877,1258566.975593567,-1551180.2434921265,-1742671.3705062866,-13792559.623718262,-22162412.643432617,-7784665.584564209,-13422242.164611816,1340505.1231384277,-2203396.0819244385,484101.3252735138,-967679.9178123474,-1359927.4158477783,-6089957.237243652,-2790060.28175354,145529.67250347137,-7661805.152893066,-7999795.436859131,4126885.414123535,-956832.1704864502,3261930.9425354004,-3564059.019088745,-10894630.432128906,-5003166.675567627,-1820289.8502349854,-5455724.239349365,-1485553.503036499,-1309353.7092208862,-264066.10012054443,-1055856.5855026245,3333989.8586273193,-2207082.509994507,-5260529.9949646,-1944088.2205963135,-482688.63558769226,-815547.4662780762
0.345,3093416.452407837,-18786165.237426758,317750.7817745209,-13559691.429138184,-15297000.885009766,462900.40016174316,-7996158.599853516,-19557315.826416016,-10102182.388305664,-6641141.414642334,-14039642.333984375,-16759027.481079102,-17219585.418701172,-17105733.87145996,-9570542.335510254,11822553.634643555,14764106.750488281,1146537.8999710083,552085.0419998169,-156208.21714401245,433056.7717552185,-16493158.340454102,-20781047.821044922,-4745430.469512939,-12288401.60369873,-20755908.966064453,-2891942.9779052734,-623850.1071929932,-1795281.4102172852,-2341006.278991699,-9370379.447937012,-24051540.37475586,-6609106.063842773,-13725062.370300293,1952146.7685699463,-4537837.505340576,571873.128414154,-1567935.9436035156,-2036143.0644989014,-5275160.312652588,2389340.63911438,1224720.0012207031,-7619973.182678223,-7933057.3081970215,5346486.568450928,-1710871.3388442993,2798398.971557617,-1792858.362197876,-10500187.873840332,-2950052.7381896973,-1375827.0740509033,-5938850.402832031,-255883.69369506836,-1971804.4996261597,-746454.0004730225,-1431566.1191940308,6285461.902618408,-645004.391670227,-4100959.7778320312,-2228187.7994537354,-1153388.500213623,-1496058.702468872
0.35,2976115.4651641846,-18697847.366333008,2147724.8668670654,-13933247.566223145,-14957042.694091797,4294970.0355529785,-6992883.682250977,-18132650.37536621,-8571447.372436523,-6185155.391693115,-14391716.957092285,-16786415.100097656,-17241518.020629883,-17169853.21044922,-5786711.2159729,15933485.03112793,16224744.79675293,1002905.7264328003,1653629.3029785156,797568.7384605408,1511152.2674560547,-16428007.125854492,-20558471.6796875,-3387794.7330474854,-10352873.802185059,-19427389.14489746,-3083992.4812316895,-1748485.5651855469,-1817720.7708358765,-2233444.929122925,-8804070.472717285,-24049453.735351562,-5224215.984344482,-12795156.478881836,3149409.770965576,-5036201.953887939,554340.1837348938,-1669193.148612976,-2165019.989013672,-3021398.0674743652,5334229.469299316,2001164.436340332,-7066029.071807861,-7250417.709350586,5251878.261566162,-2433282.1369171143,3145654.6783447266,-267403.781414032,-9633040.428161621,-1023923.5162734985,-3079990.863800049,-7348001.003265381,227490.42510986328,-2616830.1105499268,537796.676158905,-58271.47141098976,8369161.605834961,-427141.5174007416,-4140111.4463806152,-2170475.2445220947,-21153.57667207718,-146724.96914863586
0.355,9446564.674377441,-14691218.376159668,5041769.981384277,-5596392.1546936035,-9906153.678894043,8606192.588806152,-4419087.886810303,-13484956.741333008,-3620891.332626343,-1749478.3401489258,-12062943.458557129,-14265917.778015137,-14533456.802368164,-14448641.777038574,502201.5571594238,14937849.044799805,16737060.546875,4460884.094238281,3014057.8746795654,2253506.660461426,2791331.7680358887,-13833346.366882324,-16381299.97253418,-1020602.9415130615,-7351677.894592285,-16724319.458007812,-465180.903673172,-74181.02025985718,-718934.8936080933,-826248.824596405,-11098037.719726562,-18354434.967041016,-2001364.2311096191,-9814983.367919922,4818372.72644043,-2641227.960586548,442256.8082809448,-464686.3341331482,-867779.2549133301,286488.5628223419,6488040.924072266,4773352.146148682,-5454964.160919189,-5425305.366516113,4569195.747375488,-1129270.076751709,4847366.3330078125,-705176.4726638794,-8291078.567504883,1015425.3244400024,-2621093.988418579,-5627114.295959473,2137317.895889282,-1254112.8396987915,4091094.970703125,3457242.965698242,9216204.643249512,704530.1198959351,-2670049.1905212402,13767.591677606106,3612463.95111084,3633689.1651153564
0.36,16495031.356811523,-9673400.87890625,7393941.879272461,4241223.8121032715,-4199354.648590088,11657026.290893555,-1278892.993927002,-8801748.275756836,1058264.8515701294,2994543.3139801025,-8808435.440063477,-10911749.839782715,-11005759.239196777,-10865833.282470703,5671435.832977295,12210354.804992676,17543434.143066406,8283760.070800781,3633974.313735962,3112844.944000244,3364776.849746704,-10513828.27758789,-11272498.13079834,3480745.0771331787,-4085385.322570801,-14974347.114562988,2579416.036605835,3039338.1118774414,678098.4997749329,118164.32327032089,-12270185.470581055,-11309991.836547852,2685707.0922851562,-5947696.208953857,6713956.356048584,874261.6772651672,264028.54919433594,486479.4313907623,167397.24576473236,1946545.2432632446,6827001.094818115,9267525.672912598,-3150819.0631866455,-2977345.7050323486,4884070.873260498,1137081.503868103,5996042.728424072,-3128694.0574645996,-8084142.684936523,2135450.1247406006,2457950.1152038574,285726.4280319214,6197538.375854492,1068908.0953598022,6559453.010559082,5821518.421173096,8766585.350036621,3300175.666809082,1374708.7717056274,2817631.721496582,6306813.716888428,6239972.5914001465
0.365,17153493.881225586,-8270710.9451293945,7299348.831176758,5835609.912872314,-4428997.039794922,12281867.027282715,934191.2269592285,-7019757.7476501465,2612432.7182769775,2725251.6746520996,-8676678.657531738,-10809874.534606934,-10908317.565917969,-10727135.65826416,6136330.604553223,14780316.352844238,20533817.291259766,9118856.430053711,2926831.4838409424,2581023.693084717,2754135.1318359375,-10422215.461730957,-11134156.227111816,6392821.311950684,-1845130.9204101562,-15673548.698425293,2699744.939804077,4191459.1789245605,704823.4939575195,-1390624.8807907104,-10552045.822143555,-10921372.413635254,5371533.8706970215,-3848251.1043548584,7822154.521942139,2010270.118713379,33896.62504196167,-819957.0178985596,-1174763.2026672363,-81302.26284265518,6373713.493347168,11438752.174377441,-2216285.467147827,-2117594.4805145264,6119466.781616211,1529123.7831115723,4767457.008361816,-4904906.749725342,-10263676.643371582,927920.1030731201,7097486.0191345215,4435243.129730225,8767242.431640625,1470193.2668685913,5122398.853302002,4342826.366424561,7444784.164428711,4657577.991485596,4071317.672729492,2965743.7801361084,4970038.414001465,4760689.258575439
0.37,13001546.859741211,-10396547.317504883,6018351.5548706055,-466579.6160697937,-10396189.68963623,11793937.683105469,2124705.0762176514,-7411100.387573242,2792204.8568725586,-1268431.6635131836,-11847599.029541016,-14337194.442749023,-14572577.476501465,-14403034.210205078,3009298.324584961,23729703.903198242,25727975.845336914,8037546.157836914,2547914.2665863037,2200390.338897705,2538749.933242798,-13786368.370056152,-16728286.743164062,4203402.042388916,-1074858.9038848877,-17579322.814941406,366601.3181209564,2448516.368865967,-774913.7282371521,-4790478.229522705,-8557062.149047852,-18493001.93786621,3830427.408218384,-4628171.920776367,7489781.856536865,-293626.5170574188,-181439.1016960144,-4034229.278564453,-4414093.017578125,-4488430.500030518,4683861.255645752,8765239.715576172,-3791095.018386841,-3951975.8224487305,6463939.189910889,-828500.1516342163,1891849.2794036865,-4040070.056915283,-13770133.018493652,-2311491.7278289795,4963013.172149658,1164645.0757980347,6430688.381195068,-949108.9582443237,1187667.2506332397,457920.3128814697,5613260.269165039,2684374.8092651367,1606063.4851455688,-245001.10745429993,920004.6062469482,691769.4807052612
0.375,10467969.89440918,-12772074.699401855,5384743.213653564,-6285867.691040039,-16110870.361328125,11634799.95727539,2813496.8280792236,-7721063.613891602,4218303.203582764,-3549223.1845855713,-14753855.70526123,-17872791.290283203,-18214492.797851562,-18081266.403198242,73052.58512496948,31892721.17614746,30401214.599609375,8216297.149658203,4028222.5608825684,3527740.955352783,4037252.426147461,-17066074.37133789,-22967479.705810547,-1963253.6172866821,-1534596.9200134277,-18883861.541748047,-1114438.8914108276,267752.37917900085,-1943461.8949890137,-7244145.87020874,-8982593.536376953,-27303529.739379883,-359263.68832588196,-7158771.03805542,6185536.861419678,-3554672.4796295166,-230239.42112922668,-6496710.777282715,-6726786.6134643555,-7571546.0777282715,2634204.387664795,3665426.254272461,-6412895.679473877,-6851332.187652588,4887789.249420166,-3660866.4989471436,-102793.90215873718,-1357140.302658081,-15824968.338012695,-4835147.857666016,-2506901.741027832,-6849737.644195557,1257978.4393310547,-3838724.8516082764,-1524118.5426712036,-2200877.6664733887,3962847.7096557617,-930978.1789779663,-3844621.181488037,-3829741.0011291504,-1955271.2440490723,-2179343.9388275146
0.38,9841964.721679688,-15665671.348571777,2982615.9477233887,-9108933.448791504,-20063232.421875,9803024.291992188,1604393.9590454102,-8883438.110351562,4653106.689453125,-4202013.4925842285,-16534305.572509766,-20125223.15979004,-20457406.997680664,-20338436.126708984,-2739942.0738220215,32654644.012451172,31140081.40563965,9055387.496948242,5525204.658508301,4779834.747314453,5350293.6363220215,-19174394.607543945,-26915817.260742188,-9084122.657775879,-4021840.5723571777,-20498302.459716797,-1209504.8427581787,-450887.4714374542,-1449735.164642334,-6902678.0128479,-10546845.436096191,-32388702.392578125,-5349730.968475342,-10849231.719970703,4138310.432434082,-5555600.166320801,-43006.7777633667,-6292894.8402404785,-6343299.865722656,-7323669.910430908,1770461.5592956543,-720725.4767417908,-8713528.633117676,-9361515.045166016,2353700.3993988037,-4527101.039886475,192131.74283504486,1664822.5784301758,-14990069.389343262,-4375870.704650879,-8708857.536315918,-12839669.227600098,-2206557.512283325,-4690086.841583252,-1677776.9327163696,-2376823.4252929688,3834158.182144165,-3654206.0375213623,-7458646.774291992,-5082952.499389648,-2181190.013885498,-2514451.503753662
0.385,5440923.690795898,-22278455.73425293,-4844688.892364502,-14950057.983398438,-26973527.908325195,3328883.409500122,-3511325.1209259033,-13677330.97076416,-65847.67252206802,-8574864.387512207,-20477256.774902344,-24194742.20275879,-24462306.97631836,-24346685.4095459,-9118241.310119629,28078010.55908203,27537923.81286621,6751047.611236572,4013488.292694092,2966246.3665008545,3629038.8107299805,-23271110.53466797,-31447931.28967285,-16221569.061279297,-9660502.433776855,-24485536.575317383,-2923829.3170928955,-620597.8393554688,-127292.79696941376,-5011026.859283447,-10344033.241271973,-36427440.64331055,-11960830.688476562,-16571407.318115234,570004.3439865112,-6873492.71774292,192890.59937000275,-4432331.562042236,-4589477.5390625,-5725899.219512939,1592843.770980835,-5244034.290313721,-11828318.59588623,-12671488.761901855,238619.55106258392,-3858822.3457336426,1632931.9477081299,4972583.293914795,-13042946.815490723,-2556443.691253662,-11664585.11352539,-15610133.171081543,-3582948.923110962,-4000936.0313415527,-1484349.8468399048,-2259341.4783477783,5469646.93069458,-6268881.797790527,-9099665.641784668,-5023265.361785889,-2029409.8854064941,-2469422.1019744873
0.39,-2990530.490875244,-30659761.428833008,-14943360.328674316,-24893737.79296875,-36984199.52392578,-5656920.433044434,-10645418.167114258,-20471511.840820312,-7741100.311279297,-16310544.967651367,-27143871.307373047,-31093818.66455078,-31350194.931030273,-31252407.07397461,-18607486.724853516,25169513.702392578,23327877.044677734,1331697.3447799683,643031.8355560303,-694820.8808898926,169197.84247875214,-30256059.646606445,-38355682.373046875,-23053770.065307617,-16816631.317138672,-29583621.978759766,-6998116.970062256,-1097737.6699447632,658940.7920837402,-4120436.668395996,-8351331.71081543,-42703170.77636719,-20258741.37878418,-23565446.853637695,-4345196.723937988,-8383667.945861816,182222.97728061676,-3368246.31690979,-3912242.650985718,-5843821.5255737305,-55581.21204376221,-11734665.870666504,-16728458.404541016,-17765621.185302734,-1256377.935409546,-3989189.863204956,2094225.6450653076,8155312.538146973,-12880578.994750977,-3043587.6846313477,-15032149.314880371,-19059110.641479492,-5986683.368682861,-4222436.428070068,-3221941.7095184326,-4057280.5404663086,6474838.733673096,-10815543.174743652,-12280350.685119629,-6345523.834228516,-3869005.4416656494,-4246859.073638916
0.395,-6839516.639709473,-32791664.123535156,-18008911.1328125,-29070045.471191406,-41021144.86694336,-10391759.872436523,-14215331.077575684,-23017107.009887695,-10368151.664733887,-18529911.041259766,-30603717.803955078,-35278404.235839844,-35610931.396484375,-35497119.90356445,-24161676.40686035,26253849.029541016,22736902.236938477,-1251512.7658843994,608916.6402816772,-884276.1516571045,113336.58546209335,-34510494.232177734,-42428653.717041016,-26912107.467651367,-21021032.333374023,-31381452.560424805,-9135182.38067627,-154082.44729042053,1491397.738456726,-4797825.336456299,-6571323.394775391,-46873889.9230957,-25993017.196655273,-27825962.06665039,-7818989.7537231445,-8557392.120361328,-103288.54620456696,-3881655.9314727783,-4673715.591430664,-7283395.290374756,-2699666.0232543945,-17320402.145385742,-20695297.241210938,-21786106.10961914,-2441809.1773986816,-5737175.941467285,948160.1119041443,8898283.958435059,-14817437.171936035,-5916468.620300293,-19374904.63256836,-23085977.55432129,-9318925.857543945,-6157021.045684814,-6084072.589874268,-6938866.61529541,4547490.119934082,-15411972.045898438,-16492874.145507812,-9026724.815368652,-6830807.209014893,-7077316.2841796875
0.4,-875772.5358009338,-25250570.29724121,-9981751.441955566,-20753753.662109375,-32649948.120117188,-8050309.181213379,-11728535.652160645,-18747428.89404297,-4945502.281188965,-10251191.139221191,-25609539.031982422,-31004762.649536133,-31451911.92626953,-31220010.75744629,-21277444.83947754,27261007.30895996,25762699.127197266,3110341.3105010986,6334255.218505859,4895536.89956665,5823605.537414551,-30345434.188842773,-37695507.04956055,-25554918.28918457,-20071115.493774414,-28295450.21057129,-5951269.626617432,3767996.7880249023,4058827.4002075195,-5294139.862060547,-4923973.560333252,-42293693.54248047,-25193487.1673584,-26599493.0267334,-7225332.260131836,-5848217.487335205,-344049.5431423187,-4518041.610717773,-5102993.488311768,-6761972.904205322,-2518927.574157715,-17154851.91345215,-20210962.295532227,-21109460.830688477,-3275328.3977508545,-7718620.777130127,-610926.2108802795,5979008.197784424,-16420484.54284668,-7059512.615203857,-20019903.1829834,-22811613.082885742,-9856313.705444336,-8266719.818115234,-7661920.070648193,-8530142.784118652,1219777.7032852173,-15910204.887390137,-17113683.700561523,-10622153.282165527,-8393902.778625488,-8657988.548278809
0.405,7358725.547790527,-15996502.876281738,1205065.6080245972,-8916859.62677002,-19343744.2779541,-3970472.574234009,-7669468.879699707,-13371862.411499023,1481899.2614746094,449817.62766838074,-16050010.681152344,-21308719.635009766,-21866294.860839844,-21461158.752441406,-15402896.881103516,25256015.77758789,28382675.170898438,9895689.010620117,13268945.693969727,12017787.93334961,12839943.885803223,-20826297.760009766,-27431953.43017578,-21815826.416015625,-17406858.444213867,-24670036.31591797,-931600.4514694214,8309503.555297852,7921191.692352295,-4454913.61618042,-1693504.3334960938,-31798549.65209961,-20965650.55847168,-23102411.2701416,-4208806.991577148,-2329192.1615600586,-270477.14591026306,-4110698.699951172,-4224246.501922607,-3437747.7169036865,1855818.510055542,-12670628.547668457,-16928632.736206055,-17534671.783447266,-4083523.2734680176,-9108859.062194824,-1508991.8375015259,2353372.812271118,-16130783.081054688,-4512608.528137207,-16098304.748535156,-18365640.64025879,-7616701.602935791,-9638216.972351074,-7620182.037353516,-8535079.956054688,128042.39988327026,-13207236.289978027,-14219438.552856445,-10741064.071655273,-8267240.524291992,-8653009.414672852
0.41,7248067.378997803,-15131775.856018066,4607592.582702637,-7193376.541137695,-14400156.021118164,-4262544.15512085,-7668366.432189941,-13567399.024963379,1219753.384590149,1952085.256576538,-11379923.820495605,-15678058.624267578,-16342039.108276367,-15851941.108703613,-15005827.903747559,23098463.05847168,27719865.798950195,10981299.40032959,14688494.682312012,13590209.9609375,14478738.784790039,-15330887.794494629,-21854280.471801758,-21070619.583129883,-17817274.09362793,-25495851.516723633,-434023.6783027649,9135263.442993164,9979192.733764648,-3543905.019760132,2155162.3344421387,-26568847.65625,-20420085.906982422,-23065498.35205078,-3232745.885848999,-1854628.086090088,-22625.68101286888,-3580647.9454040527,-3381902.9331207275,-889409.8401069641,5993884.563446045,-11156103.134155273,-16397781.372070312,-16886564.254760742,-5739037.51373291,-10867923.736572266,-2129867.7921295166,2099813.222885132,-15251457.214355469,-1904330.0151824951,-14279919.624328613,-17282194.137573242,-7938855.6480407715,-11318845.748901367,-8029204.368591309,-9014620.780944824,1647283.3156585693,-13374865.531921387,-14264512.062072754,-11926048.278808594,-8679862.976074219,-9039072.99041748
0.415,-135702.75902748108,-22241352.081298828,-956199.2287635803,-15038772.583007812,-20426486.96899414,-7562468.0519104,-11063106.536865234,-18160291.67175293,-3947437.524795532,-6094672.679901123,-15284594.535827637,-18770406.72302246,-19514781.951904297,-19090435.028076172,-19923803.329467773,24624855.041503906,25336692.810058594,5009750.3662109375,9318044.662475586,8234738.349914551,9261446.952819824,-18397565.841674805,-25694740.295410156,-23813266.75415039,-21254241.943359375,-29965112.686157227,-4967216.014862061,5324800.01449585,8043488.502502441,-4455457.2105407715,3006468.2960510254,-31941598.892211914,-24826438.903808594,-27074821.47216797,-5782303.810119629,-4959200.382232666,56692.26497411728,-4554360.866546631,-4338531.017303467,-2342153.310775757,5345948.219299316,-15438035.011291504,-20318227.767944336,-20928222.65625,-8103738.784790039,-13384046.55456543,-3398826.837539673,4750634.670257568,-15646913.528442383,-3095444.917678833,-18860393.524169922,-23157163.619995117,-12930689.811706543,-13808735.847473145,-10118181.228637695,-11141384.12475586,2474307.7754974365,-18490301.13220215,-19743455.88684082,-15146685.600280762,-10917394.638061523,-11061129.570007324
0.42,-4852406.5017700195,-28949501.037597656,-7847950.9353637695,-20442289.352416992,-28488018.035888672,-8365077.018737793,-12857938.766479492,-20945482.25402832,-6940884.113311768,-14166670.799255371,-22475868.225097656,-25960140.228271484,-26687545.776367188,-26381088.256835938,-22611059.188842773,28529750.82397461,24420621.871948242,-1434327.1255493164,1986128.568649292,806818.5448646545,1804181.2181472778,-25438867.568969727,-33485061.645507812,-25035760.8795166,-23786285.400390625,-33008987.426757812,-8557787.895202637,422780.305147171,3641300.2014160156,-7071162.700653076,-246471.49443626404,-40972404.47998047,-27998172.760009766,-29975465.774536133,-8528140.0680542,-8208519.93560791,-76645.8734869957,-7013827.323913574,-6885187.62588501,-6156525.135040283,1719088.4351730347,-19408950.805664062,-24066791.534423828,-24810602.18811035,-9325911.521911621,-14859704.01763916,-5228421.211242676,5843247.890472412,-17145658.493041992,-6420332.431793213,-24061384.201049805,-28761552.810668945,-16837985.99243164,-15263217.92602539,-12526208.877563477,-13512080.192565918,887443.482875824,-22643115.997314453,-23829786.30065918,-17457206.72607422,-13510475.158691406,-13504963.874816895
0.425,-3473044.3954467773,-31472398.75793457,-10923392.295837402,-18868843.07861328,-31967237.47253418,-6084789.752960205,-11492400.169372559,-19987291.33605957,-6116648.197174072,-16499507.904052734,-26727993.01147461,-30689241.409301758,-31285575.86669922,-31023603.439331055,-19953378.677368164,30323242.1875,25506555.557250977,-2544413.3281707764,-2233402.2521972656,-3518924.2362976074,-2700526.475906372,-30040092.46826172,-38138683.3190918,-22122882.843017578,-23849172.592163086,-32127368.927001953,-6864581.58493042,-1901228.0702590942,265817.9998397827,-9495763.778686523,-4093611.240386963,-44848258.97216797,-25848669.052124023,-28537992.477416992,-8313826.560974121,-8891215.324401855,-99149.60712194443,-9332120.895385742,-9242650.032043457,-8266896.2478637695,177911.47530078888,-17242530.822753906,-23795989.990234375,-24474391.93725586,-8268115.043640137,-14002202.987670898,-6672197.341918945,3189641.9525146484,-18561767.578125,-7661595.821380615,-22718570.709228516,-26697740.55480957,-14683568.000793457,-14263459.205627441,-13585579.872131348,-14500342.36907959,-1171128.273010254,-20934061.05041504,-20866258.62121582,-16499738.693237305,-14666045.188903809,-14742755.889892578
0.43,-2271855.592727661,-33242351.531982422,-11929691.314697266,-17581920.623779297,-32820400.23803711,-5340640.068054199,-10240368.843078613,-18756053.924560547,-5491638.660430908,-15826393.127441406,-27405733.108520508,-31746459.9609375,-32216346.740722656,-31913330.078125,-16995119.094848633,28666198.73046875,26864994.049072266,865835.9050750732,-2250252.4852752686,-3542499.06539917,-2829182.8632354736,-31065877.91442871,-38898593.90258789,-18655179.977416992,-23779388.427734375,-29440546.0357666,-2090888.0233764648,-1165371.6564178467,-364177.5846481323,-10447010.99395752,-5045793.533325195,-43691116.33300781,-22113597.869873047,-25643177.032470703,-6222144.12689209,-7850996.971130371,193567.87204742432,-10290841.102600098,-10243662.83416748,-7592647.075653076,1367455.8401107788,-12072453.498840332,-21893337.24975586,-22341386.795043945,-6631429.195404053,-12780641.555786133,-7271188.259124756,-471623.2419013977,-19859899.520874023,-6483392.715454102,-17920019.149780273,-21214397.430419922,-10755295.753479004,-12822309.494018555,-13704946.517944336,-14605962.753295898,-2082785.3679656982,-17528589.248657227,-16319271.087646484,-14798337.936401367,-14753165.245056152,-15003677.368164062
0.435,-4486617.088317871,-35444602.966308594,-12847669.60144043,-20207923.889160156,-33466270.446777344,-7433601.379394531,-11129319.190979004,-18806684.494018555,-5891953.468322754,-14983029.36553955,-26693483.352661133,-31338077.545166016,-31815681.45751953,-31454803.466796875,-17560783.38623047,26549222.946166992,27973615.646362305,4818676.948547363,178003.50487232208,-953734.7555160522,-213710.12926101685,-30685462.951660156,-38440601.34887695,-17798213.958740234,-24762033.462524414,-27161207.19909668,1288895.4877853394,1142487.88356781,730896.2941169739,-10301571.8460083,-3915663.480758667,-42763999.938964844,-21494380.950927734,-24827482.223510742,-4665978.43170166,-6931293.01071167,542326.3907432556,-10116560.935974121,-10172469.139099121,-6472385.883331299,1642438.8885498047,-10156435.9664917,-21994697.57080078,-22221208.572387695,-6505006.790161133,-13725320.816040039,-7326410.293579102,-1890282.154083252,-21482433.319091797,-5740014.07623291,-17629316.329956055,-20993759.155273438,-11687522.888183594,-13701603.889465332,-13984265.327453613,-14953318.59588623,-2836699.4857788086,-18716888.427734375,-18181650.161743164,-15999377.250671387,-14874437.33215332,-15210059.16595459
0.44,-4224688.529968262,-33469047.54638672,-11480978.012084961,-19563032.150268555,-31438224.79248047,-7710490.2267456055,-12289992.332458496,-17393404.006958008,-3398735.0463867188,-11973680.49621582,-25014078.14025879,-30155654.907226562,-30737947.463989258,-30343454.360961914,-18049133.30078125,26575750.35095215,29917013.16833496,7347896.099090576,3083315.849304199,2222737.3123168945,2983782.0529937744,-29545175.552368164,-37032691.955566406,-16540456.771850586,-24336746.215820312,-24678123.474121094,2211400.032043457,3772984.743118286,1823513.8654708862,-10030031.204223633,-3633685.350418091,-43012226.10473633,-22021886.825561523,-24548759.46044922,-3066051.244735718,-6105607.986450195,532859.9810600281,-9724637.031555176,-9869533.53881836,-6697546.005249023,-61484.54546928406,-10360453.605651855,-22262063.98010254,-22384140.014648438,-6623382.568359375,-15532852.172851562,-7129168.0335998535,-1650203.4664154053,-22673347.47314453,-5936894.416809082,-20761348.724365234,-24280321.12121582,-14773363.11340332,-15713469.505310059,-14015765.190124512,-15055964.469909668,-3941099.166870117,-21992074.966430664,-22933547.973632812,-18699878.692626953,-14642887.115478516,-15013944.625854492
0.445,2516829.252243042,-25607135.772705078,-6433808.326721191,-11160510.063171387,-25680650.71105957,-3314357.5191497803,-12788421.630859375,-13739340.782165527,2360757.350921631,-5914571.285247803,-22149641.036987305,-27772449.493408203,-28404493.33190918,-27988498.68774414,-14298165.321350098,27905677.795410156,32402774.810791016,8361808.776855469,5174109.935760498,4498509.407043457,5240812.301635742,-27212249.755859375,-33779598.236083984,-10968792.915344238,-20896938.32397461,-21507087.70751953,2342128.276824951,5826550.483703613,2271580.696105957,-9872920.036315918,-4622189.044952393,-41621845.24536133,-19079290.39001465,-21660184.860229492,332503.7956237793,-4728354.454040527,151615.03851413727,-9506700.51574707,-9649273.872375488,-7490965.366363525,-432592.9582118988,-6732316.970825195,-18733657.836914062,-18886762.619018555,-3728399.5151519775,-14436400.413513184,-6499889.373779297,-1925950.8848190308,-22153120.040893555,-4700763.22555542,-18657144.54650879,-21670845.03173828,-11644045.82977295,-14879772.186279297,-12661081.314086914,-13707289.695739746,-3399952.8884887695,-19748516.082763672,-20179168.701171875,-18132196.4263916,-13034053.802490234,-13482069.01550293
0.45,9078355.78918457,-18488435.745239258,-1645484.0898513794,-3625439.405441284,-21363386.154174805,1205021.0237503052,-15728920.936584473,-12314435.958862305,5241090.774536133,-1268391.9668197632,-19912300.10986328,-25564882.278442383,-26152437.210083008,-25708578.10974121,-9646359.44366455,28332363.12866211,33038463.592529297,7599208.831787109,5966099.739074707,5232620.716094971,6003602.027893066,-25043098.44970703,-30649272.918701172,-4508557.7964782715,-17559579.849243164,-20046516.41845703,2300220.251083374,6475297.927856445,2465905.6663513184,-9320322.036743164,-4685231.2088012695,-39141185.76049805,-14079182.624816895,-17983032.2265625,3882593.3933258057,-3777132.272720337,-172351.10700130463,-9055564.880371094,-9148726.463317871,-7338914.394378662,2529614.9253845215,140118.21150779724,-13330642.700195312,-13624617.576599121,2225065.9465789795,-9983559.608459473,-5216840.744018555,-2235940.69480896,-20071235.65673828,-1446791.172027588,-10482205.390930176,-12838863.372802734,-2602045.2976226807,-10445999.145507812,-10307961.463928223,-11312333.106994629,-150282.621383667,-12329174.041748047,-10017664.909362793,-13593297.958374023,-10608219.146728516,-11083517.074584961
0.455,7322904.586791992,-18708127.975463867,-1686930.537223816,-6916448.593139648,-22772617.34008789,-328939.9445056915,-23377239.227294922,-16577173.233032227,1488218.5459136963,-1550434.947013855,-19945156.09741211,-25347320.556640625,-25907751.083374023,-25437194.82421875,-10840890.884399414,27306707.38220215,30784948.348999023,5571953.773498535,6282114.505767822,5341810.22644043,6122385.9786987305,-24798522.94921875,-30603654.861450195,-5057714.939117432,-18672391.891479492,-22717304.229736328,1371640.3245925903,5873618.602752686,3067522.0489501953,-7983521.938323975,-2493879.0798187256,-39542007.44628906,-13358571.05255127,-18638637.54272461,3567120.07522583,-4814639.091491699,-99754.96679544449,-7828869.819641113,-7909073.829650879,-5904671.192169189,6309525.012969971,2119684.2193603516,-12734096.52709961,-13179799.07989502,6941514.96887207,-6248490.333557129,-3471804.141998291,-337959.4087600708,-17874933.24279785,1411046.7433929443,-6990329.742431641,-9495923.042297363,1879829.1683197021,-6492549.896240234,-8626795.768737793,-9551565.170288086,3281984.329223633,-8789077.758789062,-4825134.27734375,-9874217.03338623,-9058414.459228516,-9390277.862548828
0.46,369304.2993545532,-23281158.447265625,-4703260.898590088,-16557611.465454102,-26013517.379760742,-6954393.38684082,-31890556.33544922,-22988281.25,-3551468.849182129,-3276872.6348876953,-20541080.474853516,-26139492.03491211,-26742095.947265625,-26267307.28149414,-17981603.622436523,25892311.096191406,28193355.560302734,4681082.248687744,7573955.535888672,6540860.176086426,7133639.812469482,-25488765.716552734,-32829395.294189453,-13885754.585266113,-23869527.81677246,-27729028.701782227,-16927.525401115417,5449488.639831543,4432833.194732666,-6304039.478302002,847528.0404090881,-43413188.93432617,-18693830.490112305,-24077941.89453125,-1098435.9979629517,-7372060.298919678,241214.97571468353,-6037817.95501709,-6159383.773803711,-3850529.432296753,7982501.029968262,-4283679.962158203,-18659557.342529297,-19125646.591186523,7121854.305267334,-6177299.022674561,-1847740.888595581,3408545.970916748,-16509002.685546875,2445729.970932007,-14590548.515319824,-17876438.14086914,-3520549.535751343,-6266072.2732543945,-8312512.397766113,-9059448.2421875,4257588.3865356445,-13185815.811157227,-10939580.917358398,-10207056.999206543,-8865262.985229492,-9012088.775634766
0.465,-1750185.9664916992,-24378622.05505371,-4876735.687255859,-19808866.500854492,-24871097.564697266,-11575853.34777832,-34962459.564208984,-25314157.485961914,-2638948.678970337,-1376629.5909881592,-19118064.880371094,-25606599.807739258,-26212345.123291016,-25765081.40563965,-23971138.00048828,25151149.74975586,28430738.44909668,6501619.815826416,9859412.19329834,8943644.523620605,9239862.442016602,-24849100.11291504,-33814037.32299805,-22851133.346557617,-28528663.635253906,-30596046.447753906,-206015.86997509003,6214261.531829834,6104358.196258545,-5474960.803985596,3544932.8422546387,-46618038.177490234,-24311658.85925293,-28507371.90246582,-5668715.476989746,-9194067.001342773,484439.4326210022,-4897596.836090088,-5086898.326873779,-2265550.8518218994,8087441.444396973,-11730363.845825195,-24783285.14099121,-25133056.640625,4545924.186706543,-7849600.791931152,-1131392.478942871,5533344.745635986,-16041885.375976562,2840756.1779022217,-24663232.803344727,-28319454.193115234,-10775473.594665527,-8020943.641662598,-8648241.04309082,-9121502.876281738,3910191.297531128,-18318094.25354004,-18957050.323486328,-12013036.727905273,-9110753.059387207,-9294312.477111816
0.47,3379408.597946167,-20826707.83996582,-953674.4952201843,-14056045.532226562,-20736761.09313965,-9777799.606323242,-31816604.614257812,-22807922.36328125,2875124.931335449,2474760.2939605713,-16775087.356567383,-24119939.80407715,-24620323.181152344,-24208324.432373047,-23698474.884033203,25344488.1439209,31169200.897216797,8995362.281799316,11208527.565002441,10419312.477111816,10666406.631469727,-23331481.93359375,-32623241.424560547,-24229488.372802734,-29427625.65612793,-29617237.091064453,1329172.134399414,7487878.799438477,6881921.768188477,-6287423.610687256,4808853.626251221,-46568283.08105469,-24523872.37548828,-27385484.69543457,-6241153.240203857,-8972669.60144043,463163.22684288025,-5481297.016143799,-5733428.478240967,-2216924.1905212402,8545619.96459961,-11832508.087158203,-25226200.103759766,-25504728.317260742,3165720.224380493,-8094858.169555664,-1779101.2525558472,3898581.7432403564,-16504608.154296875,3363238.0962371826,-25397867.20275879,-28710216.522216797,-10407559.394836426,-8415585.5178833,-9007214.546203613,-9292296.409606934,4844625.949859619,-16751895.904541016,-17902427.673339844,-11650539.39819336,-9258605.003356934,-9710367.202758789
0.475,8446182.250976562,-18688375.47302246,2062909.6031188965,-8752473.831176758,-19879999.1607666,-4411633.9683532715,-28008399.963378906,-20100019.454956055,5470473.766326904,2665457.9639434814,-16699165.344238281,-24070463.180541992,-24490407.943725586,-24077522.27783203,-19504241.943359375,25679845.809936523,33211521.14868164,9017096.519470215,10282405.853271484,9427083.015441895,9959941.864013672,-23345319.747924805,-31517620.086669922,-18980552.673339844,-27657089.233398438,-27627368.927001953,3222570.4193115234,8115748.405456543,6145525.4554748535,-7719902.038574219,4909405.708312988,-45202213.287353516,-20203697.204589844,-22834341.049194336,-3670716.2857055664,-7558568.477630615,283740.72909355164,-6980431.55670166,-7237399.578094482,-3289773.70262146,9589009.284973145,-5825537.204742432,-21637514.114379883,-21993019.104003906,4033256.5307617188,-6979931.831359863,-2914461.851119995,777318.8948631287,-17375257.49206543,3277757.167816162,-17939441.680908203,-20919349.670410156,-4598859.786987305,-7293365.955352783,-9013601.303100586,-9377740.859985352,7173131.465911865,-11180159.568786621,-10630148.887634277,-9647579.193115234,-9196127.891540527,-9845188.14086914
0.48,8379806.5185546875,-20957635.8795166,491500.97370147705,-9281167.030334473,-22393730.16357422,-968439.8174285889,-28013946.533203125,-19833959.579467773,2805846.929550171,-746910.9892845154,-18513362.884521484,-25327512.741088867,-25829540.252685547,-25391582.489013672,-16401826.858520508,24520488.739013672,32818740.844726562,7052947.044372559,8504569.053649902,7497981.548309326,8243569.374084473,-24729881.286621094,-31457670.211791992,-12967106.819152832,-25909986.49597168,-27845132.82775879,4156694.4122314453,8240815.162658691,4981611.728668213,-7426337.242126465,4543250.08392334,-44603096.00830078,-15537337.303161621,-19321161.2701416,-760297.4772453308,-6283093.9292907715,83950.7207274437,-6955436.706542969,-7119524.4789123535,-2880451.9176483154,10563517.570495605,-347259.67049598694,-18689617.156982422,-19093669.891357422,5411862.373352051,-6146073.818206787,-2446956.3961029053,60455.3185403347,-16754020.690917969,3257265.567779541,-12325677.871704102,-15358766.555786133,-1526693.7017440796,-6346214.294433594,-7500973.701477051,-8124573.707580566,9484092.712402344,-8315309.524536133,-6943127.632141113,-8169243.812561035,-7820355.415344238,-8366671.562194824
0.485,6599133.491516113,-23202880.859375,-3054788.35105896,-9514159.202575684,-21378253.936767578,-1320982.2177886963,-30248523.712158203,-19683794.021606445,402268.26071739197,-1648995.280265808,-18303377.151489258,-24997873.306274414,-25626365.661621094,-25227806.091308594,-15557164.192199707,20807952.880859375,31521640.77758789,6676843.166351318,8318751.335144043,7355880.260467529,7880132.675170898,-24547788.619995117,-30720182.418823242,-8549911.499023438,-25387332.916259766,-30109821.319580078,4330593.109130859,8790880.20324707,5051987.648010254,-4562139.511108398,4148539.5431518555,-43842407.2265625,-11846224.784851074,-17239028.930664062,2128157.615661621,-5143055.9158325195,-85427.92499065399,-4294993.4005737305,-4331757.068634033,988964.2000198364,11477381.706237793,3171784.1625213623,-16501104.354858398,-16713649.74975586,6561361.312866211,-5057083.606719971,600179.135799408,2284249.5441436768,-13299392.700195312,5604593.753814697,-11633119.583129883,-14565848.350524902,-1879885.5543136597,-5234411.716461182,-3554757.595062256,-4338831.901550293,11732285.499572754,-7968083.85848999,-7648125.171661377,-6397034.168243408,-4003603.458404541,-4272689.8193359375
0.49,7349139.69039917,-21150970.458984375,-4233729.362487793,-3846534.013748169,-14399500.846862793,-3096910.7151031494,-30748907.0892334,-17380073.54736328,2358779.6688079834,2323808.431625366,-15011016.845703125,-22470371.24633789,-23038085.9375,-22781520.84350586,-14883239.74609375,16052120.208740234,31506326.67541504,9199354.17175293,9782229.42352295,9121232.032775879,9196446.418762207,-22121034.622192383,-28762054.443359375,-4431318.283081055,-25944791.793823242,-32319007.873535156,4638354.301452637,9667501.449584961,6326220.0355529785,-1446354.7468185425,3542397.0222473145,-42088241.57714844,-8207322.120666504,-14283146.858215332,6055727.005004883,-3181432.4855804443,-170169.05546188354,-1172764.778137207,-1180538.8927459717,6189133.644104004,12056213.37890625,8214599.609375,-12274934.768676758,-12171506.881713867,8597353.9352417,-2103608.8466644287,4248703.479766846,4220474.2431640625,-9041114.807128906,9861648.559570312,-9796288.49029541,-12233018.87512207,460522.6516723633,-2356667.0417785645,1105183.2437515259,382976.233959198,14135951.042175293,-5168681.621551514,-5478388.30947876,-2345936.2983703613,701047.3012924194,596554.2197227478
0.495,8753508.567810059,-17597927.09350586,-3467529.535293579,2018141.269683838,-8963764.190673828,-3836573.362350464,-29217636.108398438,-15036647.79663086,5155381.679534912,5548426.628112793,-13036768.913269043,-21462879.180908203,-21816690.44494629,-21683660.50720215,-14020714.75982666,13605728.149414062,32796207.427978516,11567753.791809082,10458205.223083496,10115203.857421875,9990309.715270996,-21091997.146606445,-28346345.901489258,-1593229.2938232422,-27605175.018310547,-34027591.705322266,5156586.647033691,9615203.857421875,6911484.241485596,-1129886.1503601074,2380093.0976867676,-41724239.349365234,-6263178.34854126,-11511581.420898438,9561236.381530762,-264890.8793926239,-118018.38874816895,-698752.5820732117,-816562.1757507324,7983475.208282471,11071887.016296387,13723749.160766602,-7558721.542358398,-7337027.549743652,11524158.477783203,1636576.533317566,5403754.234313965,3443500.757217407,-8008350.372314453,11497661.590576172,-4752206.802368164,-7089152.812957764,6134369.850158691,1374642.7297592163,2809373.140335083,2214912.176132202,14660341.262817383,-384146.2433338165,479236.2451553345,2253607.2731018066,2512911.081314087,2364716.053009033
