time,Fp1,Fpz,Fp2,AF3,AF4,F7,F5,F3,F1,Fz,F2,F4,F6,F8,FT7,FC5,FC3,FC1,FCz,FC2,FC4,FC6,FT8,T7,C5,C3,C1,Cz,C2,C4,C6,T8,TP7,CP5,CP3,CP1,CPz,CP2,CP4,CP6,TP8,P7,P5,P3,P1,Pz,P2,P4,P6,P8,PO7,PO5,PO3,POz,PO4,PO6,PO8,CB1,O1,Oz,O2,CB2
0.0,-2507477.7603149414,-677803.3971786499,-480747.9679584503,359630.2270889282,772122.2639083862,-2011337.9955291748,393924.62372779846,412542.4921512604,307469.7256088257,678537.4283790588,902614.414691925,976299.2858886719,937418.3416366577,1051537.3945236206,-644496.500492096,-430342.31662750244,66834.38271284103,37450.142204761505,522588.25302124023,528459.6681594849,1014737.2484207153,68910.43484210968,1007545.8288192749,-621842.8611755371,-69872.46125936508,-346651.70311927795,149390.99550247192,-35502.41515040398,463023.841381073,867983.1027984619,949212.4319076538,-342144.1912651062,-524055.4213523865,-546294.3911552429,-209031.49247169495,-216808.69162082672,-16339.527443051338,126245.87118625641,-477746.8740940094,315040.79699516296,473764.65797424316,-593080.7590484619,233154.758810997,-123436.30939722061,-172385.67769527435,314273.2381820679,200884.8637342453,391877.05516815186,394127.7861595154,366872.4000453949,406467.7357673645,389311.13481521606,429903.20920944214,346800.20809173584,740692.5559043884,749832.808971405,783427.0000457764,10445.001535117626,455490.26131629944,490028.6793708801,794699.6688842773,757133.1858634949
0.005,7278399.94430542,34628566.74194336,27453308.10546875,48358009.338378906,31680431.365966797,1734043.1213378906,46822765.3503418,46284614.56298828,27605117.797851562,22985336.303710938,18905704.498291016,15767719.268798828,14270002.365112305,16406717.300415039,4996199.607849121,26200227.737426758,14339599.609375,13661479.949951172,8999418.258666992,11527363.777160645,12020949.363708496,13423508.644104004,15194808.006286621,5520956.993103027,15283761.024475098,7470371.246337891,4292719.841003418,-866677.1650314331,7097106.93359375,10583762.168884277,14212748.527526855,-8500694.274902344,6866139.4119262695,6287582.874298096,4975389.9574279785,-477928.102016449,-451920.86696624756,4898263.454437256,10161958.694458008,11062551.498413086,4516584.396362305,5326436.996459961,10227231.0256958,5719494.342803955,6558260.917663574,9719838.14239502,8895610.809326172,15720621.109008789,15923088.073730469,15905734.062194824,15674442.291259766,15298234.939575195,15942352.294921875,10811676.025390625,12153664.588928223,18605468.75,19362609.86328125,6801573.753356934,16743579.864501953,12521947.860717773,13069865.226745605,12685269.355773926
0.01,-760173.2611656189,34314197.5402832,25336572.647094727,61162490.84472656,39001255.03540039,3669821.7391967773,63347194.67163086,62576648.7121582,37730560.302734375,30872459.411621094,24808788.299560547,18616424.560546875,16295070.64819336,19407777.786254883,11140124.320983887,38054901.123046875,21983390.80810547,21190382.00378418,13779555.320739746,15816450.119018555,15794440.269470215,17939464.569091797,17920984.268188477,11670143.127441406,24173982.620239258,13079915.046691895,8048166.275024414,-1132037.2819900513,9685662.269592285,14859850.883483887,21292160.034179688,-9718146.324157715,13728462.219238281,12801728.248596191,9456826.210021973,1356455.2068710327,-601486.7424964905,6694494.724273682,15112001.419067383,17749902.725219727,8358124.732971191,11322368.621826172,17693189.62097168,11241978.645324707,11387590.408325195,16301900.863647461,13377810.47821045,24734167.098999023,24877714.157104492,25152709.9609375,26814392.08984375,26061405.181884766,27189245.223999023,17693307.876586914,22606225.967407227,32222023.010253906,33197841.64428711,13695571.899414062,28136198.043823242,22611370.086669922,23719348.907470703,23158548.35510254
0.015,-18648042.678833008,11836285.591125488,7879757.404327393,43868274.6887207,29786294.93713379,-2091807.3654174805,50535915.37475586,49878372.19238281,31240863.800048828,26456230.16357422,21705646.514892578,14747487.06817627,13622768.40209961,16688571.92993164,11971934.31854248,32386631.01196289,21216693.878173828,20735134.12475586,14737334.251403809,14928252.220153809,14408865.928649902,16451169.967651367,15525058.74633789,12244077.682495117,23014026.641845703,13663361.549377441,9353495.597839355,-980924.6063232422,9151067.733764648,14599072.456359863,22322601.318359375,-5423789.978027344,14457019.805908203,13546561.241149902,10513628.959655762,3148750.7820129395,-570235.550403595,5854071.140289307,14105895.042419434,18719041.82434082,9903628.3493042,11945577.621459961,19145965.576171875,13214332.580566406,12429424.285888672,17901254.653930664,12946022.033691406,24892726.89819336,24852247.23815918,25396829.60510254,29860912.322998047,28870222.091674805,30288160.32409668,18921548.84338379,27187829.971313477,36239364.62402344,37054061.88964844,16479242.324829102,30899568.557739258,26200990.676879883,28067613.60168457,27496328.353881836
0.02,-23757579.803466797,8527685.165405273,12673272.132873535,29606380.462646484,29675428.39050293,-18454944.610595703,33042129.516601562,32623867.03491211,22820287.704467773,23226942.06237793,22108278.274536133,19127740.85998535,21573368.072509766,24367872.23815918,1972215.4140472412,18422014.236450195,16108983.993530273,15838251.113891602,14889067.649841309,15904520.034790039,16176246.643066406,19423002.243041992,23223129.272460938,2276409.62600708,13683847.427368164,8597578.048706055,7129413.12789917,-917638.3018493652,9728874.206542969,15244620.323181152,22617977.142333984,-1633473.6347198486,4505574.703216553,3939258.337020874,6073514.938354492,1312554.955482483,-638284.8620414734,4816975.116729736,11369486.808776855,15684830.665588379,7847556.591033936,2270384.7885131836,12842270.851135254,8528882.026672363,8724631.309509277,14094086.647033691,9790137.29095459,19003110.885620117,18976709.365844727,19324964.52331543,23859443.66455078,22924631.118774414,24422359.466552734,14753011.703491211,22019763.946533203,29276426.315307617,30051307.678222656,10946762.084960938,24853031.158447266,20388004.302978516,22910079.956054688,22371393.20373535
0.025,-10823475.83770752,34594295.501708984,45078525.54321289,34847248.07739258,46436801.91040039,-38322723.388671875,27812301.635742188,27588317.87109375,22290100.09765625,27454555.51147461,29846088.409423828,34506011.962890625,40809997.55859375,43605442.04711914,-14357421.875,6554780.006408691,12153062.82043457,11766359.329223633,16280042.64831543,21278287.887573242,23858655.92956543,30142869.94934082,42025199.89013672,-13688438.415527344,2522473.8121032715,1476635.6945037842,3752436.1610412598,-1041794.3000793457,12990142.822265625,19127754.21142578,25470905.303955078,-601250.2908706665,-11237050.05645752,-11390514.373779297,-1495419.3830490112,-3561790.943145752,-811478.9128303528,4806756.019592285,10170879.364013672,12087979.316711426,4258524.8947143555,-13324724.197387695,2128069.1623687744,-583844.3636894226,1974324.8224258423,7444887.638092041,6339192.867279053,12770797.729492188,12984724.998474121,12829417.22869873,13429546.356201172,12764829.635620117,14180916.786193848,8120390.892028809,11319936.752319336,18230138.778686523,19253910.064697266,123435.8474612236,14827836.036682129,9609828.94897461,12557444.57244873,12032141.68548584
0.03,-13374.997302889824,56430664.0625,70191787.71972656,43543071.74682617,60984939.57519531,-51782825.4699707,28687198.638916016,28602705.001831055,24854833.602905273,31872850.41809082,35433910.36987305,46291034.69848633,54398311.614990234,57304988.861083984,-26136796.951293945,-508875.0123977661,10472187.042236328,9918015.480041504,17263031.005859375,25522544.860839844,30195800.78125,39391765.59448242,55500019.07348633,-25180311.20300293,-5081270.694732666,-3457422.4948883057,1983761.0721588135,-1099384.5462799072,15813112.258911133,22440366.744995117,28372426.986694336,-441878.8254261017,-22375246.047973633,-22296306.610107422,-6991101.264953613,-7067906.856536865,-865814.8050308228,5432811.737060547,10262779.235839844,10417946.815490723,2198095.0832366943,-24559322.357177734,-6207734.58480835,-7435096.263885498,-3245958.5666656494,3007753.849029541,4540164.470672607,10257954.597473145,10646837.23449707,10227901.458740234,6254170.4177856445,5851578.712463379,7142671.585083008,3848188.4002685547,4739532.470703125,12862548.828125,14111455.917358398,-6941762.447357178,8031659.126281738,3086633.9206695557,6169570.446014404,5669333.934783936
0.035,-9285126.686096191,45670604.70581055,62098571.77734375,36487030.029296875,56344829.55932617,-57663635.25390625,22824926.376342773,22843086.24267578,21421068.19152832,28519151.68762207,30822071.075439453,42355484.00878906,50587135.314941406,53457843.78051758,-28777763.36669922,-5961662.769317627,7916317.462921143,7415924.549102783,15134062.767028809,23059568.405151367,27788372.039794922,37929840.087890625,51969760.89477539,-27780118.942260742,-8853278.160095215,-5988007.068634033,987047.7318763733,-1069411.8738174438,15113888.74053955,21308446.884155273,27928871.154785156,-133086.72606945038,-24785861.96899414,-24670436.85913086,-8048261.642456055,-6888490.676879883,-771482.7656745911,6680243.492126465,10720818.519592285,11352470.397949219,2295280.933380127,-27005235.67199707,-8131128.311157227,-7845716.953277588,-2885686.3975524902,4571053.981781006,6176454.544067383,11884974.479675293,12211598.39630127,11895596.504211426,6677625.1792907715,6422192.573547363,7661017.894744873,5440023.899078369,7164892.196655273,15984607.696533203,17171724.319458008,-4554732.799530029,8469434.73815918,5598185.5392456055,8409858.703613281,7957538.604736328
0.04,-30398548.126220703,16831993.103027344,37215816.497802734,19245069.50378418,41029983.52050781,-61569122.314453125,11272124.290466309,11312497.13897705,12643373.489379883,20718154.907226562,21564741.134643555,30060314.178466797,38875709.533691406,41625743.8659668,-27307043.075561523,-11317532.539367676,3147651.433944702,2793859.4818115234,10861259.460449219,16676733.016967773,20096372.604370117,29972297.66845703,40528076.171875,-26311475.75378418,-11294908.52355957,-8527088.165283203,-1537992.5966262817,-1178338.4084701538,12538311.004638672,18224784.85107422,26151014.32800293,216254.47273254395,-23386739.73083496,-23299884.796142578,-7095458.984375,-5409630.77545166,-764072.0009803772,9030771.255493164,12641351.699829102,14722439.765930176,3775663.375854492,-25368080.139160156,-5604475.021362305,-4253659.248352051,2178825.855255127,10573145.866394043,11268035.888671875,16219860.076904297,16420358.657836914,16195428.848266602,12350399.9710083,12126034.7366333,13386335.372924805,11407981.872558594,14449852.94342041,22184272.76611328,23168819.427490234,3916095.972061157,13956331.253051758,13104714.393615723,15447312.355041504,15016186.714172363
0.045,-40494667.053222656,4054509.6397399902,28193584.442138672,11488480.567932129,35053932.189941406,-64658531.188964844,5935262.203216553,5911278.247833252,7605059.623718262,17846704.483032227,19109519.958496094,26153272.62878418,36440559.38720703,39133998.87084961,-27058906.55517578,-13813263.893127441,-28652.753680944443,-416623.14534187317,8959111.213684082,14285100.936889648,17353389.739990234,27970304.489135742,38043052.673339844,-26027839.66064453,-12770054.817199707,-10927796.363830566,-4321923.732757568,-1372962.9516601562,12197983.741760254,18651119.232177734,27814638.137817383,1902232.7661514282,-23231466.29333496,-23193771.362304688,-7184264.659881592,-5606277.942657471,-924759.3283653259,11417198.181152344,16672662.734985352,19210103.98864746,6470010.280609131,-24918186.18774414,-3170619.7261810303,-1947236.8955612183,6424279.689788818,15029320.71685791,16258432.388305664,21324764.251708984,21549642.56286621,21219648.361206055,17414171.21887207,17041690.826416016,18290218.353271484,15931262.016296387,19595474.243164062,25636798.858642578,26575321.197509766,10485585.21270752,18843189.239501953,18234262.466430664,20535457.611083984,20082103.729248047
0.05,-31627050.399780273,15764801.025390625,41003295.8984375,18876031.87561035,42510906.21948242,-62308490.75317383,11654595.375061035,11575720.78704834,10916326.522827148,22321279.525756836,25233589.17236328,34275753.021240234,45154026.03149414,47815193.17626953,-26964277.267456055,-11158067.70324707,2371417.284011841,1780734.896659851,11840205.192565918,18384622.57385254,22565917.96875,35563808.44116211,46529289.24560547,-26028465.270996094,-11284106.254577637,-10199130.058288574,-3513058.1855773926,-1291335.105895996,14664135.932922363,22351982.11669922,32347595.21484375,5454863.548278809,-23242521.286010742,-23312303.54309082,-7994848.251342773,-6912502.765655518,-971051.1565208435,11331760.40649414,19585977.55432129,21373565.673828125,9224522.590637207,-24894834.518432617,-2629908.561706543,-2814329.147338867,5687064.647674561,13897930.145263672,16509510.040283203,24013433.4564209,24339113.235473633,24008970.260620117,18402130.126953125,17631885.528564453,18785608.291625977,14863781.929016113,20100753.784179688,25595226.287841797,26690013.885498047,10959465.980529785,19590183.25805664,18095561.981201172,21028593.063354492,20572792.053222656
0.055,-18979097.366333008,29274959.564208984,53806610.107421875,27743795.39489746,49482360.83984375,-54552516.93725586,19812576.293945312,19757709.503173828,16668766.021728516,27156635.284423828,30570589.065551758,41650440.21606445,51560966.49169922,54138782.5012207,-24269914.627075195,-6105032.444000244,7919700.622558594,7192600.250244141,16034866.333007812,22820089.34020996,27671949.38659668,43079196.92993164,52815303.802490234,-23549482.345581055,-6910383.224487305,-6039618.015289307,978137.7911567688,-865190.0291442871,16019897.4609375,23068426.13220215,33431255.340576172,7566647.529602051,-20744516.372680664,-20925390.243530273,-7494938.850402832,-7026811.122894287,-652330.2793502808,8086532.5927734375,16991127.014160156,18042760.848999023,8880079.26940918,-22574438.095092773,-2501956.9396972656,-4497550.010681152,1885168.3139801025,9577411.651611328,11647612.571716309,21221509.93347168,21511781.692504883,21521068.572998047,16555559.158325195,15274924.278259277,16359941.482543945,10406899.452209473,18239809.036254883,24188461.303710938,25446788.787841797,7801914.215087891,17376026.153564453,15499668.12133789,19079582.21435547,18672540.66467285
0.06,-19400926.58996582,25399950.02746582,50856613.15917969,25722190.856933594,46312156.677246094,-49580047.607421875,20301309.58557129,20281574.249267578,16670320.510864258,25774967.193603516,28065773.010253906,38436477.66113281,47777183.532714844,50298023.22387695,-20958892.822265625,-4104140.281677246,9737956.047058105,9017398.834228516,16000802.993774414,21249063.49182129,25559305.19104004,42001991.271972656,49039012.90893555,-20292358.3984375,-3368329.5249938965,-3050739.049911499,3971753.8356781006,-523210.22748947144,13483902.931213379,18095989.227294922,28459007.263183594,5137128.829956055,-17598638.5345459,-17772249.221801758,-5986472.606658936,-6084672.451019287,-176057.68144130707,4401790.142059326,9909374.237060547,11038434.028625488,4443371.295928955,-19529731.75048828,-1827548.5038757324,-4814764.022827148,-12176.476418972015,7398777.961730957,6511601.448059082,14342170.715332031,14463423.728942871,14877625.465393066,14898760.795593262,13291707.038879395,14456209.182739258,7983547.210693359,16623262.405395508,22506210.327148438,23788330.078125,5702521.324157715,15396857.261657715,13936727.523803711,17497732.162475586,17099842.071533203
0.065,-30962989.807128906,11294936.180114746,40411701.20239258,16429224.014282227,39634056.091308594,-53514076.232910156,13436058.044433594,13377121.925354004,10487234.115600586,19431108.474731445,21461545.944213867,30682546.615600586,41720664.978027344,44308345.794677734,-21363294.60144043,-7250951.290130615,4985532.760620117,4254662.990570068,10804969.787597656,15229494.094848633,19903926.849365234,36697586.05957031,42992351.53198242,-20513164.520263672,-3857589.4832611084,-5249310.01663208,1493143.081665039,-597520.8282470703,9343493.461608887,13174555.778503418,23548410.415649414,1271304.3689727783,-17967506.408691406,-18037273.406982422,-6014211.177825928,-6458264.8277282715,2335.678320378065,3320037.603378296,5176671.981811523,6775519.847869873,460999.4888305664,-19865978.240966797,-1829880.1183700562,-4481421.47064209,1404445.4097747803,8806336.402893066,5595550.060272217,9752900.123596191,9784193.03894043,10258817.672729492,14594403.266906738,12983312.606811523,14303906.440734863,9348608.97064209,15891092.300415039,20822616.577148438,22023040.771484375,6164135.456085205,14959619.522094727,13762813.568115234,17049243.927001953,16516036.987304688
0.07,-37661231.994628906,6690497.398376465,39089557.64770508,11801428.79486084,40305534.36279297,-61864547.72949219,7566004.276275635,7453790.187835693,4773077.487945557,14155590.057373047,18633300.78125,29872741.69921875,43890949.24926758,46620372.7722168,-25428419.11315918,-12232969.284057617,-1640773.7731933594,-2504137.2776031494,5031212.80670166,11296781.539916992,18735521.31652832,36741912.841796875,45202823.638916016,-24469108.58154297,-7204591.751098633,-10573285.102844238,-4032048.225402832,-866349.6375083923,7560189.723968506,14421181.678771973,25353528.97644043,2071320.7721710205,-21854904.174804688,-21902984.619140625,-8429512.023925781,-8841646.194458008,-245777.59206295013,4512783.050537109,7352501.392364502,8858789.443969727,2034833.4312438965,-23781425.47607422,-3238411.6649627686,-4967422.4853515625,2984144.449234009,10533372.87902832,8162843.704223633,11814572.33428955,11918987.274169922,12123190.879821777,14786926.26953125,13345342.636108398,14693263.053894043,11325795.17364502,15820178.985595703,20061130.52368164,21185190.200805664,7107294.082641602,15107339.859008789,13568176.26953125,17225317.001342773,16487380.981445312
0.075,-30355457.305908203,18124343.872070312,50281417.84667969,16522733.688354492,48301868.4387207,-65976219.177246094,8162493.705749512,8108112.335205078,4547678.9474487305,13547599.792480469,21195045.471191406,36589130.40161133,52402099.609375,55262237.548828125,-28509967.803955078,-14651857.376098633,-4044292.92678833,-5056715.965270996,3140572.3094940186,12196437.83569336,22459625.244140625,42614402.770996094,53881664.27612305,-27728427.88696289,-9801740.646362305,-13630176.544189453,-7261014.938354492,-944929.4209480286,8329834.938049316,19199390.411376953,31390546.798706055,7574972.629547119,-24826681.13708496,-25016752.243041992,-10896850.5859375,-10976279.258728027,-599051.296710968,5207793.712615967,12797277.450561523,13296749.114990234,7406941.4138793945,-26876089.096069336,-4430777.549743652,-5796957.492828369,2382713.556289673,10216611.862182617,10328925.132751465,17010381.6986084,17171501.15966797,17134136.199951172,14928302.764892578,13624402.99987793,14807476.043701172,11289221.76361084,16570037.841796875,20854513.16833496,21963819.50378418,6754685.401916504,15173632.621765137,13352856.636047363,17868207.931518555,17085563.65966797
0.08,-17249597.549438477,33324554.443359375,63020721.435546875,24255926.13220215,54750999.450683594,-64747673.03466797,12516474.723815918,12612966.537475586,8124097.82409668,16249631.881713867,24300125.122070312,41517822.265625,57169872.28393555,60177715.30151367,-27882225.036621094,-14078564.643859863,-1854043.4837341309,-2904018.4020996094,4932100.296020508,14549178.123474121,24393852.23388672,46033397.67456055,58843826.29394531,-27333827.97241211,-10370869.636535645,-12749652.862548828,-6638199.329376221,-872248.1727600098,8540378.57055664,20098056.79321289,33615039.82543945,11263692.855834961,-24239994.049072266,-24604639.053344727,-11283930.778503418,-10904324.531555176,-758390.4266357422,4180496.2158203125,14605743.408203125,13959891.319274902,9962666.511535645,-26297178.268432617,-3971742.3915863037,-5730031.967163086,1140861.6304397583,9533267.974853516,10453570.365905762,18678314.208984375,18709568.02368164,18672454.833984375,15440244.674682617,14196058.27331543,15199584.007263184,10653491.973876953,18349136.352539062,22451625.82397461,23583045.959472656,6042174.816131592,15662589.073181152,14566442.489624023,19339519.500732422,18773756.02722168
0.085,-13072816.848754883,36971317.291259766,65945922.8515625,26316135.40649414,54175243.37768555,-64786689.75830078,14345487.594604492,14534298.89678955,10473992.347717285,18741685.86730957,24272789.001464844,39359020.2331543,54193859.1003418,57407272.33886719,-26301971.435546875,-13705295.56274414,528160.6316566467,-470077.7530670166,7207774.639129639,14691805.839538574,21558074.951171875,42655406.9519043,55895397.1862793,-25744932.174682617,-10748407.363891602,-11304187.774658203,-5037474.632263184,-987939.6557807922,6846292.495727539,16057832.717895508,29936931.610107422,9548071.86126709,-22734172.821044922,-23176113.12866211,-10726222.038269043,-9619104.385375977,-803742.3491477966,2992035.388946533,11686775.207519531,11005952.835083008,7603066.921234131,-24631540.298461914,-3465679.407119751,-5448884.963989258,1173318.2668685913,10456727.027893066,10072572.708129883,16247303.009033203,16059495.92590332,16151540.756225586,16001758.575439453,14784526.824951172,15774893.760681152,11451207.160949707,20565223.693847656,23908805.84716797,25046010.971069336,6458504.676818848,16335351.943969727,17187673.568725586,21454952.239990234,21164733.88671875
0.09,-21103746.41418457,27512588.500976562,58196338.65356445,21526847.83935547,49824844.36035156,-69778793.33496094,11734349.250793457,11891991.61529541,9754691.123962402,19278280.25817871,22754762.649536133,34766410.82763672,49141105.65185547,52514606.47583008,-27637861.251831055,-15268232.345581055,576759.2787742615,-366692.0065879822,8267106.056213379,13502142.906188965,18706604.00390625,37625000.0,50738029.47998047,-26918527.603149414,-12042000.770568848,-11973254.203796387,-4712176.79977417,-1338523.268699646,5538951.873779297,13752887.725830078,26676532.745361328,6626090.049743652,-24037357.330322266,-24499835.968017578,-11594429.969787598,-9269651.412963867,-942929.1486740112,3181497.097015381,9334666.25213623,10034307.479858398,5353213.787078857,-25858798.98071289,-5545785.427093506,-6879422.664642334,1105221.6291427612,11310372.352600098,10125898.361206055,15068442.344665527,14802043.914794922,14966741.561889648,15036134.719848633,13805447.578430176,14894244.194030762,12250177.383422852,21779361.724853516,25017715.454101562,26129486.083984375,7189487.457275391,15459749.221801758,18646810.53161621,22857343.673706055,22601949.69177246
0.095,-29465465.545654297,17791835.78491211,48830173.49243164,17285924.911499023,48179153.44238281,-74595191.9555664,9390868.186950684,9497549.057006836,9119711.875915527,19328845.977783203,23330564.498901367,34351459.50317383,48347812.65258789,51686717.98706055,-30759914.39819336,-15998050.689697266,610224.7834205627,-296141.53504371643,9164830.207824707,14146495.819091797,20609430.31311035,37633136.74926758,49929660.79711914,-29995128.631591797,-12084171.295166016,-12715880.393981934,-4458317.756652832,-1557421.5650558472,6811620.712280273,17483543.395996094,29218765.258789062,7799411.296844482,-27028074.264526367,-27533693.313598633,-13394520.75958252,-9950742.721557617,-1124909.9969863892,3950730.085372925,11109667.778015137,13464697.83782959,7474267.482757568,-28999286.651611328,-9257599.830627441,-9796738.624572754,-1268130.1832199097,9269429.206848145,9092986.106872559,17274547.576904297,17121995.92590332,17293434.143066406,12271209.716796875,10946998.596191406,12046917.915344238,10314535.140991211,20877424.240112305,25194023.13232422,26295207.977294922,6526589.393615723,12551765.441894531,16968467.712402344,22139053.344726562,21651475.90637207
0.1,-25580144.88220215,20581468.58215332,47979808.80737305,21142560.958862305,51508342.74291992,-71919059.75341797,12992228.507995605,13117677.688598633,12246149.063110352,21354368.209838867,26555908.203125,38270336.15112305,51820075.98876953,54954769.134521484,-30453178.40576172,-12006710.052490234,3822571.5160369873,2954819.2024230957,11118492.126464844,17193590.16418457,25270406.72302246,42612728.118896484,53535831.451416016,-29781383.514404297,-8266791.343688965,-10013071.060180664,-2226459.02633667,-1391104.5789718628,9416090.965270996,23054050.44555664,34992683.41064453,12145880.699157715,-26661987.3046875,-27194316.864013672,-13029343.605041504,-9842904.090881348,-1139129.5194625854,3550241.9471740723,14106730.461120605,17027770.99609375,11315836.906433105,-28778121.948242188,-10392641.067504883,-11318456.649780273,-4694608.688354492,5143417.3583984375,5802549.839019775,18257530.212402344,18251386.642456055,18486864.08996582,10071693.420410156,8599145.889282227,9564512.252807617,6312934.875488281,18192865.3717041,23072189.331054688,24211206.436157227,4926702.499389648,10040651.321411133,13540302.276611328,19434799.194335938,18736009.59777832
0.105,-12111330.98602295,33471794.12841797,56411968.23120117,31090740.203857422,55792987.82348633,-62443870.544433594,21618333.81652832,21778980.255126953,18049890.518188477,25021768.56994629,29364120.483398438,41480197.90649414,55324794.76928711,58282249.450683594,-24747835.159301758,-4356886.386871338,9340472.221374512,8511496.543884277,13423397.064208984,19977951.049804688,27377218.24645996,47405643.463134766,57155044.55566406,-24132295.608520508,-2011376.6193389893,-4378256.320953369,1438899.5170593262,-1084593.1768417358,10499001.502990723,24170120.239257812,37810615.53955078,14659349.44152832,-21133546.829223633,-21614387.51220703,-9479743.957519531,-8210521.697998047,-1011130.5713653564,1926804.3041229248,13791538.23852539,16016267.776489258,11563680.648803711,-23151760.10131836,-7338323.593139648,-9864912.033081055,-5937665.4624938965,2470355.749130249,1964151.0248184204,14248248.100280762,14290624.618530273,14706086.158752441,10198586.463928223,8602707.862854004,9437251.091003418,3641919.1360473633,15077983.856201172,18662950.51574707,19833274.841308594,4014972.20993042,9977897.644042969,10936457.633972168,16206356.048583984,15546159.744262695
0.11,-3785887.2413635254,41486820.220947266,64393211.364746094,36980583.19091797,55475467.681884766,-54753982.54394531,27905893.325805664,28035753.25012207,21491565.704345703,26989461.89880371,29018489.837646484,40598522.1862793,55676120.75805664,58622886.657714844,-18666513.442993164,813665.6284332275,12880904.197692871,12102348.327636719,14566751.480102539,20391523.361206055,25618568.420410156,48480831.146240234,57495506.286621094,-18043237.686157227,1816500.7829666138,-257152.14014053345,3855550.2891540527,-1061160.2067947388,9550698.280334473,21118495.94116211,35873729.70581055,13033373.832702637,-15419797.897338867,-15811556.816101074,-5967615.127563477,-6660285.949707031,-1000674.6053695679,780916.2735939026,10546595.573425293,11655599.594116211,7623699.188232422,-17220930.099487305,-3993298.5305786133,-7778270.244598389,-4851944.923400879,2328371.047973633,283053.2193183899,8688912.391662598,8722371.101379395,9330729.484558105,10504316.329956055,8885377.883911133,9719752.311706543,3409380.1975250244,12275662.422180176,14498128.890991211,15614421.844482422,3018122.434616089,10389264.106750488,8956157.684326172,13341837.882995605,12846585.273742676
0.115,-8995838.165283203,35289077.75878906,62557914.73388672,33130516.052246094,50430980.68237305,-54952140.80810547,26728868.48449707,26790069.580078125,19842988.967895508,25439893.72253418,26712459.564208984,37349113.46435547,53032676.696777344,56080123.90136719,-18187149.047851562,-534380.316734314,11850053.787231445,11166424.751281738,14361747.741699219,19504848.48022461,23577087.40234375,46813201.904296875,54792263.03100586,-17605514.526367188,684519.7081565857,-584663.8083457947,3423213.243484497,-1339989.185333252,8796351.432800293,19452035.903930664,32784378.051757812,9610795.974731445,-15230874.061584473,-15554712.295532227,-5820225.715637207,-6877576.82800293,-1168902.3971557617,1319656.491279602,8712142.944335938,9065693.855285645,3838486.433029175,-16946378.707885742,-4506383.895874023,-7996708.393096924,-4469507.217407227,2387997.3888397217,1208291.6498184204,7630460.739135742,7685393.333435059,8342139.24407959,8007343.292236328,6498568.534851074,7385982.036590576,3395040.988922119,9780305.862426758,13258625.984191895,14274803.161621094,-168134.6595287323,8171163.558959961,5785144.329071045,10809050.559997559,10318811.416625977
0.12,-20424592.971801758,22088502.883911133,52450935.36376953,25714567.184448242,46839031.21948242,-59633956.90917969,21415174.48425293,21448011.39831543,16069051.742553711,23015789.031982422,26190492.630004883,35874504.08935547,50073120.1171875,53183197.021484375,-22081813.81225586,-5129057.40737915,8241191.864013672,7668322.0863342285,13891252.517700195,19661306.381225586,24364568.71032715,45739196.77734375,51786914.82543945,-21561595.916748047,-2064563.274383545,-3368848.8006591797,1375200.867652893,-1506972.4321365356,9866678.237915039,21877782.821655273,32258850.09765625,8038757.32421875,-19100028.99169922,-19353792.190551758,-7749527.931213379,-8290634.1552734375,-1239356.0409545898,2898336.64894104,10436358.451843262,10838403.701782227,3896982.6698303223,-20847873.68774414,-6880734.920501709,-9456058.502197266,-5786427.974700928,1477052.8078079224,2993537.9028320312,11707856.178283691,11795906.066894531,12356851.577758789,4656485.557556152,3334195.137023926,4175009.250640869,2435103.178024292,8497513.771057129,14993860.244750977,15991553.30657959,-3949137.4492645264,4996222.496032715,2826226.234436035,9465937.614440918,8782584.190368652
0.125,-24938558.57849121,16574106.216430664,44976570.12939453,24794485.092163086,49905590.05737305,-60846988.677978516,19498157.501220703,19547863.006591797,15051051.139831543,23552225.11291504,29024782.180786133,38059162.13989258,49719459.533691406,52776931.76269531,-23322870.2545166,-6411065.101623535,6167344.570159912,5638879.776000977,13925881.385803223,21257436.752319336,27038030.62438965,47670860.290527344,51352550.5065918,-22729707.717895508,-1349030.0178527832,-4486585.1402282715,272638.0228996277,-1290327.6681900024,11694911.003112793,25296766.28112793,34325843.811035156,9893093.10913086,-20055864.334106445,-20255813.598632812,-7727645.8740234375,-8995074.272155762,-1027535.6769561768,3980758.6669921875,13327292.442321777,14845751.762390137,7426491.737365723,-21802312.85095215,-5536897.659301758,-8632436.752319336,-6028963.565826416,1755507.8268051147,4382978.916168213,16412496.566772461,16464138.03100586,16982545.852661133,5806207.180023193,4600872.51663208,5298909.1873168945,2591887.7124786377,10328733.444213867,17825258.255004883,18903028.48815918,-3327113.628387451,6046249.3896484375,4380242.347717285,11275579.452514648,10468274.116516113
0.13,-18508771.896362305,24037345.88623047,48517166.13769531,31586538.314819336,56965263.36669922,-56183097.83935547,23532335.28137207,23607410.430908203,17882566.452026367,27084571.838378906,32609977.72216797,41603233.337402344,52260478.97338867,55195606.23168945,-18773557.662963867,-2693765.640258789,7388379.096984863,6842136.383056641,14423675.537109375,22569252.014160156,28387170.791625977,51865295.41015625,53779308.3190918,-17992830.276489258,2923343.1816101074,-2778399.4674682617,1138459.6824645996,-955152.2731781006,12175874.710083008,25720092.7734375,36239162.44506836,13633425.71258545,-15256535.530090332,-15563965.797424316,-4998507.976531982,-8418375.015258789,-762731.7905426025,3821892.738342285,14153844.833374023,17398754.119873047,11408722.877502441,-17014244.079589844,308065.35482406616,-5280475.13961792,-3477928.400039673,4810618.4005737305,5669072.151184082,18509084.701538086,18450353.622436523,19141773.223876953,12114259.719848633,10849207.878112793,11454454.42199707,5417883.87298584,15339129.447937012,20398214.34020996,21512931.82373047,2938200.2353668213,12044174.194335938,11069341.659545898,16342132.568359375,15671082.496643066
0.135,-8289980.888366699,36267673.49243164,60276996.61254883,38262027.740478516,60622478.48510742,-50773483.27636719,28922492.98095703,29036745.071411133,21559169.76928711,30245159.149169922,33598644.2565918,42664226.53198242,54626892.08984375,57459274.29199219,-13447892.189025879,1478188.157081604,10042457.580566406,9524394.989013672,15277317.04711914,22299757.00378418,26670055.389404297,54646869.65942383,56100166.32080078,-12577798.843383789,5812715.05355835,-949776.828289032,2515294.5518493652,-956051.4092445374,10859245.300292969,23087285.9954834,35595485.68725586,15700794.219970703,-9920926.094055176,-10545230.865478516,-3257561.9220733643,-7806686.4013671875,-765598.1779098511,2961318.016052246,12619080.543518066,16779659.271240234,13107447.624206543,-11838768.005371094,4870305.061340332,-3341022.491455078,-763684.8092079163,8366105.079650879,7210493.564605713,18526060.104370117,18381141.662597656,19362735.748291016,17295089.721679688,15875620.84197998,16498096.466064453,8781836.50970459,20259893.4173584,22381305.694580078,23414049.14855957,9247383.117675781,16950092.315673828,17246049.880981445,21308237.075805664,20865453.720092773
0.14,-3971742.630004883,41091945.64819336,68467231.75048828,38267410.27832031,57608825.68359375,-50216407.775878906,29985294.342041016,30165134.42993164,22867212.295532227,30580549.240112305,31750879.287719727,39979934.69238281,53506420.13549805,56289321.89941406,-13407012.939453125,1537856.8172454834,11202505.111694336,10769795.417785645,16353523.254394531,20909025.192260742,22991424.560546875,52834644.31762695,55035602.56958008,-12639311.790466309,3955760.2405548096,-1764045.8345413208,2482836.7233276367,-1308000.8029937744,9147931.098937988,20175033.569335938,32510284.423828125,13622782.707214355,-10015911.102294922,-10914985.656738281,-5172174.93057251,-8067414.283752441,-968321.2637901306,2348846.673965454,10640405.654907227,13990110.397338867,11897759.437561035,-12141493.797302246,3671728.6109924316,-5264598.369598389,-1035205.1258087158,9146956.443786621,8219346.046447754,17775499.34387207,17667682.647705078,18811475.75378418,16331569.67163086,14844025.611877441,15484008.7890625,9611654.281616211,21680982.58972168,23473793.029785156,24451139.450073242,10090063.095092773,15949262.619018555,17692121.505737305,22699502.94494629,22257898.330688477
0.145,-9307858.46710205,33844299.31640625,63788642.88330078,32556854.248046875,51596454.62036133,-54476905.822753906,25691921.23413086,25914163.58947754,20937131.881713867,28396900.177001953,29153646.46911621,35839824.67651367,49064788.818359375,51797615.05126953,-18025129.318237305,-2430054.9030303955,9836197.853088379,9384378.433227539,16805166.244506836,19321872.71118164,19709859.84802246,47377330.7800293,50653739.92919922,-17400039.672851562,-474832.3857784271,-4676724.910736084,1194208.025932312,-1567602.038383484,8233794.212341309,18543601.989746094,29155593.872070312,8778786.659240723,-14679713.249206543,-15520240.783691406,-8553467.750549316,-8367357.25402832,-1039560.4372024536,2220177.8888702393,9297945.022583008,11110974.311828613,9285490.989685059,-16828989.028930664,-823244.4524765015,-8615694.999694824,-3333018.0644989014,7157010.078430176,7548121.929168701,16339183.807373047,16395395.278930664,17491077.423095703,11905061.721801758,10485194.206237793,11054931.640625,7920420.169830322,19761606.216430664,23234880.447387695,24351636.88659668,6744136.810302734,11708869.934082031,13975013.732910156,20763217.92602539,20050018.310546875
0.15,-19336448.669433594,21337190.628051758,50185173.03466797,26225116.729736328,47469051.361083984,-59526218.41430664,19509340.286254883,19699544.90661621,17074031.829833984,25245302.200317383,27078887.939453125,33060939.78881836,44617942.810058594,47238826.751708984,-22224123.001098633,-7536611.557006836,7295795.440673828,6634016.513824463,15690047.264099121,17751638.412475586,18170228.958129883,42523189.544677734,46213302.61230469,-21630588.53149414,-3478022.813796997,-6910443.7828063965,513901.35288238525,-1445039.3915176392,7889983.177185059,17304872.512817383,27225189.208984375,5146277.42767334,-18769474.029541016,-19292293.548583984,-9769505.500793457,-7537719.249725342,-895280.0631523132,2028663.6352539062,7983906.269073486,9251636.505126953,7288542.2706604,-20764377.59399414,-3647230.625152588,-10046466.827392578,-4526518.34487915,4851642.608642578,5193471.908569336,14339194.297790527,14568536.758422852,15567234.03930664,9456461.906433105,8116967.20123291,8617186.546325684,5911778.926849365,17140110.01586914,21718566.89453125,23082901.000976562,3953262.3291015625,9489358.901977539,11101100.92163086,18225564.95666504,17269014.358520508
0.155,-24361446.380615234,15591102.600097656,42259037.017822266,23215066.90979004,46336898.80371094,-62006069.18334961,15856215.476989746,15984916.687011719,13861114.501953125,22808376.31225586,25545028.686523438,32369396.209716797,43194625.85449219,45686889.6484375,-23327972.412109375,-11283157.348632812,5635605.812072754,4755935.192108154,13598124.504089355,16428806.30493164,17995101.928710938,41294452.66723633,44802120.208740234,-22696540.83251953,-4047210.693359375,-6873696.804046631,1198201.7755508423,-1153298.4972000122,7445919.513702393,15422644.61517334,26297538.75732422,5180254.4593811035,-19790479.66003418,-20099931.716918945,-8621463.775634766,-5909464.8361206055,-782262.6829147339,1490100.7413864136,6198431.968688965,8012493.133544922,6809081.554412842,-21657583.236694336,-3841368.4368133545,-9774241.44744873,-4024374.008178711,3535393.9533233643,2604413.7477874756,12717722.89276123,12964847.564697266,13998262.405395508,9615899.085998535,8244420.051574707,8808960.914611816,4625510.692596436,15421997.0703125,19602325.439453125,21064584.732055664,3387335.777282715,9738518.714904785,10718240.737915039,16615947.723388672,15724733.352661133
0.16,-19259895.32470703,21411262.51220703,48768981.93359375,24728521.3470459,46633262.634277344,-60223438.26293945,17362209.32006836,17471094.131469727,13736272.811889648,22664474.487304688,24910779.95300293,32805850.982666016,44962253.57055664,47446044.921875,-21704017.639160156,-11514227.867126465,5952117.919921875,5065386.772155762,12435936.92779541,16159452.438354492,18074367.52319336,42702709.19799805,46612911.224365234,-21067577.362060547,-3160224.676132202,-5247287.273406982,1821937.3226165771,-1032348.0367660522,6984337.329864502,13580637.93182373,25089376.44958496,7757234.573364258,-18298063.278198242,-18681293.487548828,-7250862.598419189,-4732395.648956299,-850727.7369499207,1150150.7759094238,4677842.617034912,6803895.473480225,7559181.213378906,-20111707.68737793,-3077275.7530212402,-9496150.016784668,-3508623.1231689453,2939234.495162964,1399768.4717178345,12006587.982177734,12066571.235656738,13281583.786010742,9989294.052124023,8444858.55102539,9163754.4631958,3810820.1026916504,14780528.06854248,17917299.270629883,19247621.536254883,4209985.733032227,9950280.18951416,11323506.355285645,15993527.41241455,15411606.788635254
0.165,-9201189.041137695,30693464.279174805,60963806.15234375,29762590.408325195,47272800.44555664,-52803649.90234375,23752698.89831543,23846961.975097656,16814624.786376953,24980072.021484375,25677484.5123291,33345466.61376953,47332569.12231445,49971107.482910156,-16989774.703979492,-6288946.628570557,8063514.709472656,7307586.193084717,13050682.067871094,17069065.09399414,17772991.180419922,43536407.470703125,48966941.833496094,-16381027.221679688,-415065.1693344116,-2999353.4088134766,1244696.9747543335,-1074486.9709014893,6882837.295532227,13036389.350891113,23502073.287963867,9878166.198730469,-13886681.55670166,-14468567.848205566,-5911603.927612305,-4269124.0310668945,-941598.2365608215,1408670.425415039,4123721.5995788574,5946012.9737854,8817331.314086914,-15612560.272216797,-754733.8008880615,-8439589.500427246,-3269486.18888855,3167942.523956299,1727108.8361740112,11656274.795532227,11503857.612609863,12931158.065795898,11216872.215270996,9394393.920898438,10168972.969055176,3834260.4637145996,15644470.21484375,17684486.389160156,18844070.434570312,6906301.975250244,10758790.016174316,12688336.372375488,16823995.59020996,16506540.298461914
0.17,-2818753.957748413,32850330.352783203,63545711.517333984,35661834.716796875,47828006.744384766,-40107597.35107422,31925632.47680664,31924751.28173828,20355205.535888672,27507896.423339844,26847986.221313477,33036392.211914062,46668640.13671875,49448322.29614258,-8893247.604370117,3122395.0386047363,11032872.200012207,10307366.371154785,14130596.160888672,17699419.021606445,17069181.442260742,41531612.396240234,48163337.70751953,-8307738.304138184,4821942.329406738,-58852.676302194595,745496.928691864,-1045497.0598220825,6739680.290222168,13436074.256896973,22052566.528320312,8986178.398132324,-6067108.631134033,-6773137.56942749,-3254029.7508239746,-3657834.529876709,-880865.3950691223,1512721.1809158325,3706923.246383667,5603696.346282959,9177729.606628418,-7719132.900238037,4450078.48739624,-5244163.036346436,-2203525.5432128906,4374642.848968506,2085167.1695709229,10969652.17590332,10835947.036743164,12359702.110290527,15210075.378417969,13130263.328552246,13763306.617736816,5015824.794769287,17840280.532836914,18874361.038208008,19991802.215576172,11422509.19342041,14272953.987121582,15230929.374694824,19022619.247436523,18772106.170654297
0.175,-2063704.490661621,27802850.7232666,53883552.55126953,39292118.072509766,47225582.122802734,-27073425.29296875,37771907.806396484,37640075.68359375,21494180.67932129,27641841.888427734,26449024.200439453,30789424.896240234,41080364.22729492,43779289.24560547,-857213.2587432861,11216336.250305176,13679050.44555664,12873473.167419434,14122423.17199707,16659063.339233398,16101511.001586914,36766937.255859375,42396312.71362305,-320702.37398147583,10463409.423828125,3464465.856552124,2153856.9927215576,-906182.2891235352,5779020.7862854,13109663.963317871,20325696.94519043,4470385.551452637,1830742.0015335083,1073191.76197052,45829.690992832184,-2506469.0113067627,-741996.9439506531,670352.6973724365,2209405.4222106934,4792081.832885742,6954510.21194458,61292.81967878342,9955295.56274414,-1907333.1356048584,-699394.2260742188,5459222.316741943,1429498.1956481934,10116254.806518555,10234687.805175781,11652343.75,19507978.439331055,17391239.166259766,17787691.116333008,6149425.983428955,19234054.565429688,19973178.86352539,21102956.771850586,14240354.537963867,18371206.283569336,16917322.158813477,20397743.225097656,20119747.161865234
0.18,-3771197.3190307617,22684623.71826172,42389900.20751953,38772670.74584961,44176166.53442383,-20933862.686157227,39079135.89477539,38934505.462646484,20017673.49243164,25332574.84436035,23993831.634521484,26665662.76550293,33059425.354003906,35517189.025878906,2316436.767578125,13474685.668945312,14904504.776000977,14126304.626464844,13122864.723205566,14646286.010742188,15133032.79876709,31520374.298095703,34305465.69824219,2752071.8574523926,13340703.010559082,5957551.002502441,4635081.768035889,-821173.9659309387,4300827.980041504,11704895.973205566,18023265.838623047,-991016.3283348083,4970873.832702637,4163507.9383850098,1425601.840019226,-1508941.411972046,-678055.2864074707,20308.900624513626,498999.9234676361,3125964.879989624,2845237.0166778564,2956895.351409912,11464406.01348877,-1665203.0944824219,-177058.47322940826,5683548.450469971,1235234.1413497925,10322831.153869629,10608549.118041992,11795907.974243164,19870864.868164062,17957391.7388916,18199205.39855957,6342947.959899902,18491065.979003906,20004701.614379883,21055381.774902344,12890284.538269043,18923488.61694336,15952423.095703125,19509677.88696289,19241456.985473633
0.185,-7935405.254364014,19042169.57092285,35939979.553222656,34554519.65332031,38898723.60229492,-23670177.459716797,36984741.2109375,36968013.763427734,17674163.818359375,22636047.36328125,21124645.233154297,22847070.693969727,28099946.975708008,30425678.253173828,943857.6102256775,11515199.661254883,14252593.040466309,13650264.739990234,12080137.252807617,13560071.94519043,14651071.548461914,28842847.82409668,29433973.31237793,1290535.807609558,13312371.253967285,5558604.717254639,5385005.950927734,-830825.924873352,3638721.466064453,11035328.86505127,16646203.994750977,-2765978.8131713867,3608110.6662750244,2770846.128463745,362615.82374572754,-1278487.5631332397,-695266.1275863647,1678326.6067504883,995202.7201652527,2442676.782608032,679507.4939727783,1543510.07938385,9365498.542785645,-3798372.0302581787,-115196.80917263031,6539370.059967041,3828821.1822509766,12788226.127624512,12910376.54876709,13963530.540466309,17603540.420532227,15806259.155273438,16062698.364257812,7150595.188140869,17995115.280151367,20318477.630615234,21219835.28137207,11148880.004882812,16885477.06604004,15097006.797790527,18831609.72595215,18573936.462402344
0.19,-15116672.51586914,14027525.901794434,32418033.599853516,30250425.338745117,34135509.4909668,-28544559.478759766,34936199.18823242,34997661.59057617,16212356.567382812,21234680.17578125,19810022.354125977,21824720.38269043,28727403.64074707,31119361.877441406,-129060.68563461304,10305308.34197998,12621614.456176758,12093040.466308594,11343247.413635254,14006525.039672852,14798166.275024414,29520715.713500977,30198295.59326172,205846.6374874115,12629318.237304688,2655127.52532959,3695460.557937622,-815998.7926483154,4309447.765350342,12229244.232177734,17327859.87854004,-117624.73732233047,2546230.5545806885,1721331.4771652222,-986750.8411407471,-1506169.7959899902,-740164.1011238098,5175452.709197998,3819058.418273926,4012913.703918457,2309067.964553833,741856.2173843384,7821084.499359131,-4869640.827178955,976184.0105056763,9032899.856567383,8201600.074768066,16465379.71496582,16281702.041625977,17391483.306884766,17512248.992919922,15452113.151550293,15858366.012573242,9726802.825927734,20088106.155395508,22141437.530517578,22953817.36755371,13301054.954528809,16675077.438354492,17547760.009765625,20908885.955810547,20571573.25744629
0.195,-18650945.66345215,11321112.632751465,31450023.651123047,30441659.927368164,32900531.768798828,-27764520.6451416,35344253.54003906,35282283.782958984,16545600.891113281,21365844.7265625,20389209.747314453,23036033.630371094,30709726.333618164,33144866.943359375,689014.4944190979,10943782.806396484,11731294.631958008,11037401.19934082,10870050.430297852,14759071.350097656,14600071.907043457,30202844.619750977,32174549.102783203,1046273.5891342163,11608674.049377441,1086.7746314033866,2256823.778152466,-788154.8404693604,5089493.751525879,13291913.032531738,17511632.919311523,703684.0915679932,3302105.42678833,2483753.442764282,-1498555.1834106445,-1583959.8178863525,-836784.5416069031,6766727.447509766,5327430.248260498,5027543.067932129,3272921.562194824,1793464.5414352417,7606142.044067383,-4684409.618377686,1830922.3651885986,10244576.454162598,9576630.592346191,17430061.34033203,17195381.16455078,18343112.94555664,18864240.646362305,16404088.973999023,16987646.102905273,11074096.6796875,21643243.78967285,23091703.414916992,23902662.27722168,15547903.060913086,17698760.986328125,19817384.719848633,22595554.35180664,22142024.993896484
0.2,-12933464.050292969,16109285.354614258,35759162.90283203,34374675.75073242,34385650.634765625,-23170999.52697754,36395015.716552734,36126495.361328125,17853618.621826172,21919301.986694336,21127037.048339844,22942640.30456543,28148250.579833984,30440612.79296875,-378865.45062065125,9747167.587280273,12024191.856384277,11160324.096679688,10671601.295471191,14421212.196350098,12656705.856323242,27001424.78942871,29372087.478637695,-39916.809648275375,8628248.21472168,-126230.67200183868,3454173.803329468,-918892.3239707947,4617152.690887451,11535939.21661377,13765151.023864746,-5701086.521148682,2092155.2181243896,1264438.0331039429,-2205418.348312378,-1249960.0648880005,-974319.2791938782,4012905.1208496094,2590579.2713165283,1799544.095993042,-1305493.1163787842,638413.5484695435,5737910.270690918,-6051770.6871032715,-174576.72953605652,6846690.654754639,5177494.049072266,13046712.875366211,13080487.251281738,14034489.631652832,16346975.326538086,13861304.28314209,14535416.603088379,7622565.746307373,18035175.323486328,20067420.959472656,20876922.607421875,11413516.0446167,15113981.246948242,16072088.241577148,19001930.236816406,18529981.61315918
0.205,-7969229.221343994,20072910.30883789,39671752.9296875,33892295.837402344,33565181.732177734,-24334613.800048828,33517513.275146484,33198570.251464844,17003156.661987305,20576492.309570312,19600351.333618164,19620401.38244629,22089414.596557617,24245077.13317871,-4829392.433166504,4845811.367034912,11764417.64831543,10978863.716125488,10104361.534118652,12748774.528503418,9294204.711914062,21718341.827392578,23012142.181396484,-4511464.595794678,4619204.998016357,1834289.1931533813,6085237.503051758,-1200075.0303268433,3273383.378982544,8102729.797363281,8532187.461853027,-13685635.566711426,-2372568.6073303223,-3144229.6504974365,-2922010.4217529297,-311641.06726646423,-979668.2000160217,-335634.7382068634,-1718937.1585845947,-3259119.5106506348,-7074800.491333008,-3947472.8107452393,2806133.270263672,-8254109.3826293945,-3419600.486755371,1743636.7273330688,-1005029.0822982788,7026610.374450684,7302661.418914795,8039849.281311035,11164688.110351562,9038479.804992676,9680280.685424805,2275610.92376709,12339916.229248047,15819938.659667969,16602155.685424805,4632737.636566162,10203080.177307129,9414419.174194336,13091474.533081055,12697840.690612793
0.21,-20563505.172729492,7875326.156616211,30723905.563354492,22703693.389892578,27378410.33935547,-35020027.16064453,25384916.305541992,25218379.974365234,11320394.515991211,15515696.52557373,15369212.15057373,16194118.49975586,20348403.930664062,22628318.786621094,-7610408.782958984,-144615.93329906464,9346018.79119873,8743250.846862793,7965439.796447754,10532794.952392578,7236137.866973877,21312053.680419922,21220891.95251465,-7200535.774230957,3525915.8611297607,3817235.4698181152,7298161.98348999,-1347015.9769058228,2534466.028213501,7510829.448699951,9342812.538146973,-11197559.356689453,-4795865.058898926,-5418239.116668701,-1247748.0173110962,1472771.7638015747,-722189.4860267639,-1433282.971382141,-1891001.582145691,-2784510.850906372,-3673251.6288757324,-6444733.619689941,3964487.075805664,-6433556.079864502,-2452986.001968384,2114897.0127105713,-2184814.691543579,6740167.617797852,6982450.96206665,7905517.578125,12236611.366271973,10304903.030395508,10878742.218017578,2543713.331222534,13546878.814697266,17387800.216674805,18199916.83959961,6567258.834838867,11477105.140686035,10248564.720153809,14103841.781616211,13753363.609313965
0.215,-47456249.23706055,-17010265.350341797,9979352.951049805,7113202.095031738,20056173.32458496,-46615829.46777344,17167692.184448242,17175462.72277832,3160865.306854248,8507658.958435059,11198639.869689941,17377792.358398438,27084724.42626953,29635540.008544922,-4480847.8355407715,-1039643.6452865601,6045197.9637146,5398477.554321289,4551044.940948486,8990005.493164062,8773888.58795166,28835983.276367188,28215147.018432617,-3854903.9363861084,6628955.841064453,4784829.139709473,6610980.51071167,-1179412.4841690063,2852603.9123535156,11821833.610534668,18580036.163330078,3240695.7149505615,-1077085.018157959,-1556066.632270813,3111184.1201782227,3706696.7487335205,-374995.1124191284,1382456.5410614014,3185325.3841400146,5226394.6533203125,10055530.548095703,-2679805.7556152344,9895451.545715332,191398.20337295532,4016071.319580078,9325011.253356934,2816795.825958252,13554018.020629883,13662014.961242676,15127593.040466309,22039066.314697266,19875352.85949707,20451793.670654297,9986605.644226074,23153179.168701172,25635198.59313965,26570343.017578125,18440280.91430664,21211887.35961914,20614404.678344727,23803392.41027832,23424797.05810547
0.22,-65652908.32519531,-32492874.145507812,-4839929.103851318,-631079.7929763794,17535251.61743164,-49615833.2824707,14441653.25164795,14497570.991516113,-1785449.2664337158,3861687.183380127,9626381.874084473,22107414.24560547,35618480.68237305,38268833.16040039,476356.77456855774,953736.424446106,4585679.531097412,3669535.3984832764,2134881.4964294434,8647180.557250977,12029231.071472168,37297092.43774414,37012008.66699219,1296862.006187439,9797186.851501465,5265811.920166016,5958431.720733643,-911305.9639930725,3064931.1542510986,17160127.639770508,27876405.715942383,15296558.380126953,4203882.694244385,3790454.149246216,6147338.390350342,5224872.589111328,-278160.4528427124,4133794.7845458984,7839963.912963867,12594578.742980957,20939889.907836914,2694637.0601654053,13311261.177062988,4857331.275939941,9933373.45123291,15857625.961303711,8276334.762573242,19538978.576660156,19705329.89501953,21446220.39794922,29771635.055541992,27375843.048095703,28009782.791137695,16805929.18395996,30660175.323486328,31663837.432861328,32712615.966796875,26756504.05883789,28912740.70739746,28904273.986816406,31586063.385009766,31223974.227905273
0.225,-64582374.572753906,-29930828.094482422,-4337080.955505371,668391.6449546814,17817945.48034668,-46561878.2043457,15367122.650146484,15393556.594848633,-2065762.996673584,2798929.214477539,8737042.427062988,22946231.842041016,35409832.00073242,37976016.998291016,-35984.594374895096,1054921.269416809,5108720.302581787,4031011.1045837402,1945771.0981369019,8280498.504638672,11825441.360473633,36540824.89013672,36825630.18798828,797573.8644599915,8715170.860290527,5479621.410369873,6225970.268249512,-882183.1345558167,1944745.3022003174,17775789.260864258,27002349.853515625,11698949.813842773,3487847.5666046143,3119817.4953460693,4329503.059387207,5227547.645568848,-529584.1097831726,4069221.4965820312,6473398.685455322,10490395.545959473,16982887.268066406,2039453.7448883057,8781952.857971191,1774148.5834121704,9662088.394165039,15091164.588928223,9219599.723815918,17006870.26977539,17393426.8951416,18736852.645874023,25287832.260131836,23049419.403076172,23698257.446289062,15985372.543334961,27048223.4954834,27887237.548828125,28923992.156982422,21539169.311523438,24639526.3671875,25202320.098876953,28109727.85949707,27854215.621948242
0.23,-59541358.947753906,-26197925.567626953,-655105.1139831543,272903.80001068115,13368438.720703125,-46947731.018066406,13609166.145324707,13644619.941711426,-2428251.9817352295,1663098.3352661133,4495546.340942383,15292296.409606934,25056510.92529297,27631652.83203125,-6198234.081268311,-2597367.04826355,4845966.339111328,3870544.195175171,2069950.819015503,5917428.016662598,5639322.757720947,25523942.947387695,26403182.983398438,-5538947.582244873,4303311.347961426,4385126.59072876,5999715.328216553,-1142249.1073608398,-404200.7327079773,12586754.79888916,16241342.544555664,-3038103.5804748535,-3083562.8509521484,-3378470.4208374023,-574402.2130966187,4135202.8846740723,-876714.8852348328,2912773.609161377,257439.7623538971,787119.6866035461,2973083.972930908,-4571664.333343506,773820.8174705505,-5845008.373260498,5337155.342102051,9831248.28338623,7076999.664306641,8394994.735717773,8885824.203491211,9571537.017822266,13573844.909667969,11595177.65045166,12212209.701538086,10391796.112060547,17094715.118408203,18572423.934936523,19495244.9798584,10175643.920898438,13074216.842651367,14709792.137145996,18053033.82873535,17854072.57080078
0.235,-63738700.86669922,-33303722.381591797,-5084966.659545898,-6141144.275665283,4299223.899841309,-52233264.9230957,8610877.03704834,8703443.52722168,-5844769.00100708,-1869492.0539855957,-2052498.5790252686,4981276.988983154,14353115.08178711,17056146.6217041,-11476786.613464355,-7230998.0392456055,2422439.5751953125,1587621.3312149048,333199.97787475586,1881465.6734466553,-2382911.6821289062,13943723.678588867,15777728.080749512,-11022626.876831055,418733.00075531006,1295820.5938339233,4173813.819885254,-1455927.9680252075,-2744017.8394317627,6145671.367645264,5645913.600921631,-13276467.323303223,-8512701.034545898,-8785079.002380371,-4286179.542541504,2842209.3391418457,-1020866.5132522583,3170034.885406494,-4895075.798034668,-6627729.415893555,-6016374.111175537,-10166171.073913574,-3377171.516418457,-10748888.969421387,2685262.441635132,7143430.709838867,6072028.636932373,2575818.3002471924,2934085.1306915283,3415445.327758789,7197872.161865234,5140831.94732666,5780401.706695557,7514922.142028809,12089328.76586914,13860092.163085938,14701992.988586426,5600386.619567871,6527427.673339844,9154799.461364746,12900927.543640137,12596175.193786621
0.24,-66851371.76513672,-37227191.92504883,-8021423.33984375,-8985772.132873535,776028.8715362549,-54777027.13012695,6614697.9331970215,6736527.442932129,-8380366.325378418,-4289349.07913208,-4287158.489227295,2348439.931869507,12633563.995361328,15250435.829162598,-12395535.469055176,-9955867.767333984,-351.1468239594251,-862227.4398803711,-1995489.5973205566,-350279.62923049927,-5345462.322235107,11079021.453857422,14165519.714355469,-12013136.863708496,-1802104.4731140137,-2596004.7245025635,1863030.9104919434,-1593670.8450317383,-3651065.3495788574,3621359.348297119,3144087.791442871,-11934022.903442383,-9289627.075195312,-9673447.608947754,-5823252.201080322,1644658.088684082,-883255.8989524841,4058129.31060791,-5365639.686584473,-6159258.842468262,-3592784.881591797,-11118929.862976074,-3865772.247314453,-11419775.96282959,2655038.595199585,8317937.850952148,6948466.3009643555,3468265.2950286865,3612366.6763305664,4440188.407897949,8988141.059875488,6694925.308227539,7433199.405670166,8810654.640197754,14640604.019165039,16311447.143554688,17188289.642333984,8287400.245666504,8165452.003479004,10736662.864685059,15416972.160339355,14949857.711791992
0.245,-57520717.62084961,-24873077.392578125,2206307.888031006,-2256802.558898926,7798889.636993408,-51572273.25439453,9729058.265686035,9817887.306213379,-6362481.594085693,-1919511.6758346558,749468.8630104065,9210602.760314941,18576625.82397461,20791450.50048828,-12277913.093566895,-11306453.704833984,-413221.150636673,-1336241.8413162231,-2014353.2752990723,1872505.54561615,-1462047.4576950073,16361022.94921875,19982744.216918945,-11813288.688659668,-4241405.963897705,-5505526.542663574,629822.9694366455,-1469928.1454086304,-2388753.4141540527,6139175.891876221,7625702.857971191,-5689291.954040527,-9020002.365112305,-9585587.501525879,-7425735.950469971,413839.1613960266,-567759.9906921387,3443743.2289123535,-2527880.6686401367,-1213924.527168274,3145131.3495635986,-10857571.601867676,-5370970.726013184,-11792812.34741211,1941576.600074768,9115469.932556152,7300106.525421143,7238398.551940918,7269653.797149658,8462034.225463867,11379213.333129883,9176369.667053223,9970225.33416748,9747499.465942383,18126686.096191406,19892688.751220703,20854528.427124023,9652111.053466797,10835518.836975098,12879177.09350586,18923957.82470703,18402351.37939453
0.25,-48276157.37915039,-11996002.197265625,14800107.955932617,3719249.725341797,15885301.58996582,-49094970.703125,11461315.155029297,11498089.790344238,-3732864.8567199707,2266042.947769165,7025068.283081055,16784980.77392578,24016471.86279297,25951383.590698242,-14133105.278015137,-13060093.879699707,-154677.03342437744,-967275.6195068359,184978.1572818756,6474569.797515869,4121764.659881592,22555322.647094727,25178939.819335938,-13542173.385620117,-7399155.616760254,-7017185.688018799,420223.80232810974,-1121157.169342041,343578.2790184021,10765737.533569336,13500532.150268555,-2265493.154525757,-10830843.925476074,-11505151.748657227,-9634165.76385498,-521119.8925971985,-230116.21832847595,1845156.7888259888,502961.27796173096,2718606.948852539,6446189.880371094,-12509118.08013916,-7106259.822845459,-13112274.169921875,79077.37046480179,7919698.715209961,6407512.187957764,9785526.275634766,9825693.130493164,11053532.600402832,10784884.452819824,8936848.640441895,9668274.879455566,8461762.428283691,18861766.815185547,20848703.384399414,21816984.176635742,8241484.642028809,10659312.24822998,13124964.714050293,19678638.458251953,19187919.61669922
0.255,-55557025.90942383,-19351903.915405273,12044456.481933594,-1481020.450592041,14624600.410461426,-51155002.59399414,7907248.973846436,7934324.264526367,-5693069.4580078125,2969453.811645508,7643803.596496582,17837638.85498047,25057794.57092285,27220911.026000977,-14965220.45135498,-14284944.534301758,-894272.6254463196,-1524210.810661316,1714843.8692092896,8951845.169067383,5935362.815856934,25101352.69165039,26232528.686523438,-14288499.83215332,-8568658.828735352,-7300226.211547852,633006.5131187439,-722116.4703369141,2512272.596359253,13786605.834960938,17427867.889404297,-1093874.454498291,-11641388.893127441,-12278491.973876953,-9884217.262268066,-341085.0465297699,-26017.094030976295,1676579.8330307007,2308309.316635132,4600607.872009277,7390038.013458252,-13167700.76751709,-3761305.570602417,-11953274.726867676,589091.1221504211,7802450.180053711,6303864.479064941,11685292.24395752,11775009.155273438,12959006.309509277,12437043.190002441,10677935.600280762,11320933.34197998,8202357.292175293,20456600.189208984,22287723.541259766,23157670.974731445,11089897.155761719,12209243.774414062,15670385.360717773,21379587.173461914,20870498.657226562
0.26,-68713699.34082031,-35867786.4074707,-100114.33809995651,-9563616.752624512,8351015.090942383,-51250225.06713867,5944389.343261719,6037287.23526001,-8982635.498046875,1178246.7365264893,4398396.968841553,15249847.412109375,25020826.33972168,27647932.052612305,-10359025.955200195,-12021250.72479248,-905012.4287605286,-1541439.6524429321,1386297.4643707275,7910226.345062256,4196335.315704346,25096708.297729492,26481475.830078125,-9612094.87915039,-5130729.198455811,-5431072.235107422,1773232.102394104,-512992.38204956055,2476531.505584717,13765033.721923828,19142223.358154297,1396678.6861419678,-7054944.99206543,-7548052.3109436035,-6520423.412322998,1330138.8025283813,-28276.69493854046,3413333.8928222656,3293956.518173218,6258644.104003906,10536479.949951172,-8510180.473327637,4627065.658569336,-6659189.224243164,4909544.467926025,10526068.687438965,8231243.133544922,14822291.374206543,14926404.95300293,16346031.188964844,19778556.82373047,17699590.6829834,18327795.028686523,11010272.026062012,25778398.513793945,27101097.106933594,27890945.434570312,20276887.893676758,18908277.51159668,21938829.42199707,26937486.64855957,26359525.680541992
0.265,-65382743.83544922,-34840045.92895508,-977488.4581565857,-5920096.397399902,8053257.942199707,-43435539.24560547,12613983.154296875,12829406.73828125,-6793478.965759277,1828422.6655960083,3522576.332092285,15080325.12664795,27001186.37084961,29771938.32397461,-1591123.8193511963,-5854635.238647461,1959180.474281311,1120688.0807876587,732742.3691749573,5740833.282470703,2572893.6195373535,24715871.810913086,28631708.1451416,-764203.5484313965,1872482.6574325562,-768469.3336486816,4163017.2729492188,-523922.9202270508,722719.3713188171,12075926.780700684,19267786.026000977,4374443.531036377,1553575.5157470703,1185254.5738220215,-1546535.1343154907,3859609.1270446777,-101135.94681024551,5158136.84463501,4236694.812774658,8359529.495239258,15836706.161499023,179897.65107631683,11470435.14251709,-593352.9734611511,9992783.546447754,13804702.758789062,10940319.061279297,18546976.08947754,18592081.06994629,20457759.857177734,28004062.65258789,25627519.607543945,26259960.174560547,14520151.138305664,31961341.857910156,32820129.39453125,33662513.732910156,28930797.576904297,26638151.168823242,27496246.337890625,33316188.81225586,32733360.290527344
0.27,-49541889.19067383,-18262418.746948242,10193334.579467773,5597098.827362061,12845197.677612305,-33470088.958740234,21898149.490356445,22201616.287231445,-1312526.4644622803,4220129.013061523,4995208.263397217,16541980.743408203,28935747.146606445,31483619.689941406,5575340.747833252,283021.12221717834,5148796.558380127,4171086.7881774902,318924.7250556946,4156869.411468506,2293854.236602783,23898639.678955078,30454387.664794922,6416445.255279541,8332457.542419434,4330546.3790893555,6040185.451507568,-483707.39817619324,-864964.1275405884,10899364.471435547,18902276.99279785,5243403.911590576,8529155.731201172,8097971.9161987305,1767975.4495620728,6081381.797790527,-6768.050603568554,5770057.678222656,5395716.667175293,10398692.13104248,20265802.38342285,7247837.543487549,13440964.698791504,2804774.284362793,13221781.730651855,15901165.962219238,13110373.497009277,21485567.092895508,21423151.01623535,23621042.251586914,31934118.270874023,29570171.356201172,30138895.03479004,16699386.596679688,36003795.6237793,36496879.57763672,37464370.72753906,32377906.799316406,30635900.497436523,30017997.74169922,37314052.58178711,36798366.54663086
0.275,-45291866.302490234,-12690567.970275879,14668896.675109863,8169295.310974121,12701646.80480957,-30685138.702392578,22370731.353759766,22619112.014770508,-1497123.9566802979,2772511.0054016113,3724686.38420105,15339775.085449219,28722700.119018555,31118360.51940918,8068601.608276367,2231323.003768921,4017313.4803771973,3096680.4027557373,-1288740.634918213,2488738.0599975586,1847166.2998199463,22668052.673339844,30132320.404052734,8805192.947387695,10894867.897033691,6038359.642028809,5306045.5322265625,-195820.46568393707,-1332469.8209762573,11072469.711303711,19831396.102905273,5687705.993652344,11026000.9765625,10289064.407348633,2482505.3215026855,7272429.943084717,274307.2211742401,5990674.018859863,6422669.887542725,12473953.247070312,23537784.576416016,9694441.795349121,14870030.403137207,4464550.018310547,15774522.78137207,18522045.135498047,15117817.878723145,24156532.287597656,24028802.8717041,26336503.982543945,33607719.42138672,31356401.443481445,31852447.509765625,19209436.416625977,39455085.75439453,39532890.31982422,40539196.0144043,34263774.87182617,32603950.50048828,32929382.32421875,40535449.98168945,40050239.56298828
0.28,-55392112.731933594,-23053606.033325195,8498688.697814941,140874.2368221283,7871880.531311035,-33611724.853515625,15412605.285644531,15471956.253051758,-7792244.434356689,-2030775.547027588,336379.7068595886,13591926.574707031,29826459.884643555,32307224.27368164,8262940.406799316,529126.4057159424,-546132.9817771912,-1364739.6564483643,-3720623.49319458,982402.2054672241,1516490.3402328491,23468519.21081543,31307083.129882812,8907480.239868164,10082692.14630127,4093511.1045837402,2922961.473464966,93251.8020272255,-1258886.694908142,12184983.253479004,23055641.174316406,9796946.52557373,11382081.031799316,10298331.260681152,2228114.128112793,7730101.585388184,457173.79450798035,6275615.692138672,6911584.377288818,14919418.334960938,27655216.217041016,9839015.007019043,19791744.232177734,6969892.978668213,19201095.581054688,22880170.822143555,17346740.72265625,27377738.95263672,27286828.994750977,29605266.571044922,37220752.71606445,34964881.896972656,35490356.4453125,23500715.255737305,44133037.56713867,43948131.5612793,44880783.08105469,38278823.85253906,36297145.84350586,38265384.674072266,45040363.31176758,44539184.5703125
0.285,-56777099.609375,-24842685.69946289,9046689.0335083,-1560183.2866668701,10149586.67755127,-33127128.60107422,14201976.776123047,14110216.14074707,-9475834.846496582,-2070601.9401550293,1871551.6328811646,17493400.57373047,35959671.02050781,38432300.56762695,9403985.023498535,-557981.1930656433,-2061417.1028137207,-2894968.7480926514,-3611352.6821136475,2062336.6832733154,3860057.830810547,27895254.135131836,37436820.98388672,10152327.537536621,9412745.475769043,2611883.8787078857,2159221.887588501,-15474.405139684677,-1095421.4334487915,13994037.628173828,27172557.830810547,16907192.23022461,12593955.039978027,11398339.27154541,2686421.3943481445,8328589.43939209,321742.9220676422,5793897.62878418,7097223.75869751,16951932.907104492,32038387.298583984,10888949.394226074,24833904.266357422,9811659.812927246,21698734.283447266,26122112.274169922,18431272.506713867,29663545.608520508,29666629.791259766,31914842.60559082,41014328.00292969,38746410.36987305,39369590.759277344,26826419.830322266,47262973.78540039,47210720.06225586,48106231.689453125,40975936.88964844,40019756.31713867,41713459.01489258,48167236.328125,47714591.97998047
0.29,-41984130.859375,-8940462.112426758,21116905.212402344,10244147.300720215,21700216.29333496,-27526868.82019043,23400632.858276367,23352422.7142334,-1092056.5128326416,5708982.944488525,9720798.49243164,25193021.774291992,42281978.607177734,44454345.703125,11185170.17364502,1258551.2399673462,2401806.116104126,1495543.0030822754,455010.8313560486,6178869.724273682,8627181.053161621,32317569.732666016,43498210.90698242,12170096.397399902,11206203.46069336,4408599.376678467,4063434.12399292,-476409.1372489929,-394296.1096763611,16304607.391357422,29186090.46936035,20363082.885742188,14319227.21862793,13228592.872619629,3766005.9928894043,9370087.623596191,19161.59689426422,4307892.322540283,7436715.602874756,17050310.134887695,32811416.625976562,12624063.491821289,24082105.63659668,10052546.501159668,20498834.60998535,24702770.233154297,16707632.064819336,28444021.224975586,28530574.798583984,30498180.389404297,39832614.89868164,37606525.42114258,38271682.73925781,25458215.713500977,45030948.638916016,45130371.09375,46110969.54345703,37695018.76831055,38849311.82861328,38812873.84033203,45998184.20410156,45652347.564697266
0.295,-33449974.060058594,700278.2821655273,25216869.354248047,20659763.33618164,28296623.22998047,-24289625.16784668,31844707.489013672,31966846.466064453,8401272.773742676,13281978.607177734,15627496.719360352,26730651.85546875,39684020.99609375,41584571.838378906,11233069.41986084,3832733.154296875,7845427.989959717,6960488.319396973,4974388.122558594,9675580.978393555,11330148.696899414,30873441.696166992,40667781.829833984,12291337.013244629,13872155.18951416,7184562.683105469,6130938.529968262,-805763.4234428406,869102.0011901855,17741292.95349121,27169176.10168457,14943818.092346191,14364469.528198242,13305780.410766602,4055168.628692627,10050174.713134766,-148909.86680984497,3092627.0484924316,7379381.17980957,14428857.803344727,27457920.07446289,12724406.242370605,17640121.459960938,6590879.440307617,16111276.626586914,19455305.099487305,12672122.955322266,23324493.408203125,23487592.697143555,25000066.75720215,33468673.706054688,31106067.657470703,31743474.96032715,20065082.550048828,38595867.15698242,38190742.49267578,39245414.73388672,30547069.549560547,32463638.305664062,31996084.213256836,39593406.677246094,39236709.59472656
0.3,-45244274.1394043,-11629865.646362305,11930701.25579834,16775650.024414062,21093629.837036133,-27203927.993774414,29736331.939697266,29923635.482788086,9056873.321533203,13334504.127502441,13987970.352172852,19184783.935546875,29128149.032592773,31126840.591430664,9110574.722290039,4238714.218139648,8730868.339538574,7990270.137786865,6342944.622039795,9623560.905456543,9410405.158996582,23812927.24609375,30200708.389282227,9938302.993774414,14191329.956054688,7395579.814910889,6229023.9334106445,-721860.5279922485,1643773.4365463257,16727300.643920898,22471221.923828125,3997571.4683532715,12252971.649169922,11065661.430358887,2687227.249145508,9442203.521728516,-145788.80369663239,3012025.833129883,5847345.82901001,10106799.125671387,18816343.307495117,10630593.299865723,11436221.1227417,1792935.0137710571,11922137.260437012,14802107.810974121,8889945.030212402,17218826.293945312,17457632.064819336,18652515.411376953,27716276.168823242,24939878.463745117,25569906.23474121,15173034.66796875,33333549.49951172,31822200.775146484,32784385.681152344,25727750.778198242,26424913.40637207,27648794.174194336,34371002.197265625,33820655.822753906
0.305,-57414470.67260742,-23956331.253051758,2874659.776687622,8360518.455505371,12455272.674560547,-30646060.943603516,22973882.6751709,23015605.926513672,4666313.648223877,10336131.09588623,10974027.633666992,13507761.95526123,23778001.78527832,26038206.100463867,6912280.559539795,2819663.2862091064,6703038.692474365,6141022.205352783,6122508.0490112305,8470754.623413086,6838110.92376709,19195604.32434082,25013711.92932129,7417548.179626465,11724896.430969238,5566906.452178955,5561521.053314209,-473147.1538543701,1386530.9953689575,14280550.003051758,19233158.111572266,-3137064.9337768555,9796957.969665527,8589703.559875488,459642.1420574188,7826750.2784729,-172098.71113300323,3098030.3287506104,3426789.0453338623,6767105.1025390625,13374861.717224121,8271502.494812012,9724811.553955078,-1208776.354789734,10229581.832885742,13532104.4921875,7370143.413543701,13970788.955688477,14200920.104980469,15460699.081420898,27021314.62097168,23889560.69946289,24546421.05102539,13775250.434875488,32695941.925048828,30338125.228881836,31112380.981445312,25568271.63696289,25321344.37561035,28156692.504882812,33825542.44995117,33095314.025878906
0.31,-47712039.947509766,-11478804.588317871,17350006.103515625,11382152.557373047,17627382.278442383,-28971097.946166992,22750068.66455078,22598009.10949707,5364410.877227783,12415509.223937988,14575536.727905273,19239273.071289062,31261402.130126953,33490913.39111328,6299847.12600708,1987023.5919952393,6903107.166290283,6460390.567779541,7865721.225738525,10213418.960571289,8650252.342224121,22798183.44116211,32319725.036621094,6661539.077758789,9226747.512817383,4784637.928009033,6216547.012329102,-418070.58453559875,1015774.3692398071,13522004.127502441,20335483.55102539,-1691483.3784103394,8668556.213378906,7692083.358764648,-1166283.130645752,6486010.0746154785,-292178.5116195679,2113444.3283081055,2320769.0715789795,6551049.709320068,14860473.6328125,7325150.489807129,11053650.856018066,-1658389.4491195679,10455769.538879395,14359105.110168457,7586207.389831543,14649953.842163086,14730207.443237305,16281036.376953125,29543735.50415039,26428663.25378418,27063510.89477539,14635469.436645508,34979816.43676758,32526359.55810547,33210025.787353516,27160732.26928711,27660476.684570312,30170820.236206055,36171791.076660156,35464832.3059082
0.315,-27849794.387817383,11619402.885437012,37934024.810791016,22264194.48852539,30202791.213989258,-24312698.364257812,28298963.54675293,28127372.74169922,10906733.512878418,17385248.1842041,21175840.377807617,29264469.146728516,40850475.3112793,42734661.10229492,6742764.949798584,2443347.692489624,9434041.976928711,8977016.44897461,10622850.41809082,13643809.31854248,13099431.037902832,29364389.419555664,41511985.778808594,7135658.264160156,8715502.738952637,5452381.610870361,7616702.079772949,-553257.7633857727,1337077.7368545532,15443239.212036133,23631505.966186523,2766250.1335144043,8781862.258911133,7983755.111694336,-1896915.1973724365,6180922.985076904,-344741.43385887146,625374.0191459656,3362216.7110443115,8572561.264038086,19972236.63330078,7457185.745239258,11700344.08569336,-1220940.9475326538,10972341.537475586,14595955.848693848,7580537.796020508,16505798.33984375,16420885.08605957,18099424.362182617,30511947.631835938,27587104.79736328,28119577.407836914,14985186.576843262,36148788.45214844,33882556.9152832,34586288.45214844,27272064.208984375,28662729.263305664,29840345.38269043,37280979.15649414,36702087.40234375
0.32,-23849819.18334961,14598247.528076172,36241230.01098633,24774122.23815918,31747770.309448242,-22148723.602294922,29498697.28088379,29485504.150390625,11871939.659118652,16347225.189208984,20946151.733398438,29737121.58203125,37959003.44848633,39620220.18432617,6586825.847625732,2328118.324279785,9660781.860351562,9038010.597229004,10201216.697692871,13934618.949890137,14189468.383789062,29473936.080932617,38514118.19458008,7024261.951446533,8895186.424255371,5022877.216339111,7609787.940979004,-637972.0568656921,1771292.0904159546,17547826.766967773,24431039.810180664,1862169.7425842285,8759361.267089844,7819738.388061523,-2705381.155014038,6420779.228210449,-240852.4453639984,450236.38010025024,4889340.400695801,9890205.383300781,22045686.721801758,7212585.44921875,10638525.009155273,-1493160.7246398926,11163815.49835205,13637156.48651123,6881471.157073975,16398958.206176758,16312347.412109375,17785577.77404785,28245828.62854004,25333223.342895508,25736213.68408203,14151979.446411133,34383136.74926758,32058746.337890625,32720409.393310547,25404479.98046875,26329191.207885742,27097995.75805664,35368606.56738281,34800910.94970703
0.325,-36613113.40332031,-1835068.3450698853,18416540.145874023,14942340.850830078,21094345.092773438,-26559562.68310547,21674224.853515625,21814441.680908203,5052954.67376709,8700201.988220215,13735266.68548584,21709499.35913086,27686891.555786133,29532316.207885742,3998545.6466674805,-1162053.7042617798,5621329.307556152,4810215.473175049,6239557.74307251,10479265.213012695,11442947.387695312,24207876.205444336,28564569.4732666,4516061.305999756,6819058.418273926,2166884.8991394043,5816640.377044678,-586113.3337020874,1849435.4486465454,18283452.9876709,22840417.861938477,-3175125.5989074707,6558579.444885254,5467049.598693848,-4153326.0345458984,6365976.333618164,-118533.26857089996,2514107.2273254395,5910220.146179199,10121257.781982422,19685655.59387207,4904417.037963867,10038490.295410156,-2214814.6629333496,11492962.837219238,13209067.344665527,7342344.760894775,15166911.125183105,15211071.014404297,16367889.404296875,25485675.811767578,22500274.658203125,22787382.125854492,13816611.289978027,31717741.012573242,29497520.446777344,30005306.243896484,22963657.37915039,23361366.271972656,24843391.41845703,32574001.31225586,31887254.71496582
0.33,-45237464.904785156,-8089215.278625488,17979131.6986084,4390699.38659668,17551752.0904541,-41567462.92114258,9039798.736572266,9234972.953796387,-2125094.6521759033,4084989.547729492,10324445.724487305,21515254.974365234,31508831.024169922,33763210.29663086,-3466160.297393799,-10489789.009094238,326567.53063201904,-473620.29552459717,3424513.578414917,8604740.142822266,11641949.653625488,25821535.110473633,32750514.98413086,-2650489.568710327,540674.4480133057,-2034532.7854156494,3733327.865600586,-514450.96731185913,2734008.0738067627,20105997.08557129,25228027.34375,-2017696.6190338135,-456321.4182853699,-1212329.2684555054,-5937135.696411133,5722808.361053467,-116232.41752386093,5880509.853363037,8052158.355712891,12635704.040527344,18847702.026367188,-1818867.802619934,11046532.63092041,-2614296.6747283936,12139369.96459961,14510541.915893555,10191242.218017578,16305072.784423828,16403167.724609375,17457752.227783203,24814186.096191406,22063070.29724121,22280433.654785156,15094074.249267578,31014268.87512207,29863168.716430664,30299909.591674805,21147655.487060547,22764005.661010742,24844680.786132812,31811719.89440918,31053260.803222656
0.335,-40665878.29589844,9854160.30883789,47713088.98925781,1445933.3419799805,33210155.487060547,-69254051.2084961,-4042565.8226013184,-3770180.9406280518,-3294598.8178253174,8564670.56274414,17314300.537109375,38245391.845703125,58418548.583984375,60981620.78857422,-17756082.53479004,-26243965.14892578,-3445904.493331909,-3975920.6771850586,4886067.867279053,12297621.726989746,19196380.615234375,41156822.204589844,59755146.02661133,-16437429.428100586,-10193545.3414917,-6958453.65524292,2110388.75579834,-518128.03745269775,5597084.045410156,25483585.357666016,35431838.98925781,10116138.458251953,-14036760.330200195,-14083720.207214355,-8445137.023925781,4437541.484832764,-186349.71976280212,8549219.131469727,12282691.955566406,18939451.217651367,24077545.166015625,-15005946.159362793,10322832.107543945,-3947501.6593933105,11930160.522460938,15772826.194763184,13085001.945495605,19855424.880981445,19849634.170532227,21085254.669189453,24147926.330566406,21999805.450439453,22285190.58227539,16169046.401977539,31385845.184326172,32161567.68798828,32767093.658447266,19090431.213378906,22768611.907958984,24835954.666137695,32193241.119384766,31489650.72631836
0.34,-33732856.75048828,34492279.052734375,83744941.71142578,2251550.9128570557,56190193.17626953,-102313606.26220703,-16664630.889892578,-16158767.700195312,-1044704.3180465698,16887916.564941406,28694135.665893555,60920669.55566406,90886657.71484375,93559066.77246094,-36751884.46044922,-44708930.96923828,-6312342.166900635,-6533188.343048096,8304992.67578125,18944992.065429688,29445379.25720215,60702236.17553711,92159698.48632812,-35031684.87548828,-23680732.72705078,-13119319.915771484,421555.22108078003,-595027.9235839844,9267910.00366211,31966270.446777344,47589172.36328125,24143892.288208008,-31988342.28515625,-31589347.83935547,-12947622.299194336,2296121.835708618,-230642.45283603668,9000301.361083984,15858632.08770752,24485282.89794922,30962335.58654785,-32942394.256591797,3078913.450241089,-8741517.066955566,9125250.816345215,13727158.546447754,12243698.120117188,20966085.43395996,20853830.337524414,22329282.760620117,18770858.764648438,17203073.501586914,17738809.58557129,13874917.030334473,28425397.872924805,30820770.263671875,31693611.14501953,14151660.919189453,18355859.756469727,20643167.49572754,29296777.725219727,28668031.692504883
0.345,-33414768.21899414,45311840.05737305,99666938.78173828,996740.0431632996,67259765.625,-125534301.7578125,-26757812.5,-25948930.740356445,-682853.4603118896,21011339.18762207,34949565.88745117,72766639.70947266,106012123.10791016,108674171.4477539,-53080524.44458008,-58471851.34887695,-9191058.158874512,-9322421.073913574,10089525.22277832,23274164.1998291,34664680.48095703,69565986.63330078,107271347.04589844,-51304264.068603516,-35774604.79736328,-19310285.568237305,-1183143.6157226562,-717772.6030349731,11292935.371398926,34750778.19824219,52466670.989990234,28471214.294433594,-47474529.26635742,-47156044.006347656,-18946416.8548584,-464544.71349716187,-266212.1653556824,7571291.446685791,15615242.004394531,23973613.739013672,31807405.471801758,-48735725.40283203,-9532006.26373291,-16589330.673217773,3934108.9725494385,8150970.458984375,7878528.118133545,16920040.130615234,16840881.34765625,18354337.692260742,8650948.524475098,7286414.14642334,8089554.786682129,8168011.665344238,20711986.541748047,23526247.024536133,24495065.689086914,6050375.938415527,8829387.664794922,12292916.297912598,21646268.844604492,21009714.126586914
0.35,-38576499.938964844,39637367.248535156,93345062.25585938,-2903444.766998291,62456859.58862305,-130981567.3828125,-31170133.590698242,-30220003.128051758,-3004459.3811035156,19510536.193847656,33970291.13769531,70459770.20263672,101608276.3671875,104183578.49121094,-59558170.318603516,-62683887.48168945,-11015248.29864502,-11277818.67980957,9880589.485168457,23467308.044433594,33271068.572998047,64988136.291503906,102902641.29638672,-57944335.9375,-41742900.84838867,-22389753.341674805,-1613715.8870697021,-817279.1004180908,10935475.34942627,32925399.780273438,49024364.47143555,23966794.967651367,-53881671.90551758,-53755104.064941406,-23073406.219482422,-2626276.2546539307,-338307.55949020386,6429102.420806885,12689506.530761719,19036369.32373047,26587579.72717285,-55315551.7578125,-18897283.55407715,-22852426.528930664,-442099.33280944824,3511026.8592834473,4894972.801208496,12019863.12866211,12045701.98059082,13351603.507995605,968561.5301132202,-588077.6047706604,257104.5160293579,3572750.0915527344,13807461.738586426,16183118.82019043,17029905.319213867,-67067.08669662476,1005030.9896469116,6050735.4736328125,14722744.941711426,14005172.729492188
0.355,-49271144.86694336,23607536.31591797,76153701.78222656,-9146339.416503906,51965141.29638672,-126873405.45654297,-31336698.532104492,-30485952.377319336,-6347184.181213379,15349489.212036133,29509342.193603516,62959995.26977539,92579841.61376953,94985404.96826172,-56434082.03125,-60328529.357910156,-11316349.983215332,-11720282.554626465,8848507.88116455,21100292.205810547,29403955.459594727,56627311.70654297,93898689.27001953,-54886604.30908203,-40715042.11425781,-21420318.603515625,-891478.3596992493,-778250.7538795471,9490917.205810547,29679325.103759766,44280399.322509766,20453687.66784668,-51207782.74536133,-51006103.515625,-22748291.015625,-2920993.8049316406,-404466.1819934845,7381320.476531982,10597607.612609863,15838707.92388916,22240407.943725586,-52550788.87939453,-18259870.529174805,-23726942.06237793,-820933.1631660461,4106375.217437744,6645224.571228027,11464994.430541992,11523502.349853516,12565258.026123047,2079546.4515686035,110662.60188817978,770171.6423034668,4260582.447052002,13891988.754272461,15919590.950012207,16637781.143188477,1152602.5533676147,1481630.4445266724,7237830.638885498,14710747.718811035,13873885.154724121
0.36,-66027839.66064453,3853438.138961792,56953159.33227539,-17784111.02294922,44651542.66357422,-125525596.61865234,-32342010.498046875,-31642030.715942383,-10392852.783203125,10287677.764892578,24439172.744750977,57384128.57055664,88536857.60498047,90749626.15966797,-51169300.0793457,-58522167.20581055,-12063736.915588379,-12463295.936584473,6694193.8400268555,17696125.030517578,26099897.384643555,52321659.088134766,89919609.06982422,-49503288.26904297,-37179317.474365234,-19651939.392089844,-684672.0576286316,-622361.1831665039,8011417.388916016,27135271.072387695,42599128.72314453,21389535.903930664,-46146060.943603516,-45800876.61743164,-20065549.850463867,-1570955.2764892578,-441188.5738372803,9622142.791748047,9891226.768493652,16005609.512329102,21882184.982299805,-47431076.04980469,-11770923.614501953,-21308223.724365234,1947468.1615829468,8346710.205078125,10369315.147399902,13435068.130493164,13441510.200500488,14377051.35345459,8521611.213684082,6133684.6351623535,6630908.966064453,8475184.440612793,18761449.813842773,20917917.251586914,21676067.352294922,6855525.493621826,7363295.078277588,12398601.531982422,19506879.806518555,18527221.6796875
0.365,-77827644.34814453,-7451631.06918335,44782035.82763672,-24099292.755126953,42111698.150634766,-127666961.66992188,-35056537.62817383,-34333816.52832031,-14301047.325134277,5776947.498321533,20136766.43371582,54076259.61303711,86695655.8227539,88810173.03466797,-50340950.01220703,-60112907.40966797,-14621427.536010742,-14884858.131408691,3258742.094039917,14317989.349365234,23384725.57067871,51242664.3371582,88202247.6196289,-48584266.662597656,-36452777.86254883,-20500349.044799805,-1967652.0824432373,-598986.6256713867,6580976.0093688965,24877563.4765625,41563041.68701172,21180324.55444336,-45068801.87988281,-44835258.48388672,-19659526.824951172,-296792.29855537415,-541720.5095291138,10627669.334411621,8603512.76397705,15579189.30053711,21607007.98034668,-46445335.388183594,-9747328.758239746,-20952524.185180664,3713725.0900268555,10442396.16394043,11269926.071166992,12746316.909790039,12707948.684692383,13711097.717285156,10746679.306030273,8169168.472290039,8694744.110107422,10405656.814575195,20348119.735717773,22821355.81970215,23735464.096069336,8227173.805236816,9490600.5859375,13279454.231262207,21072938.919067383,19986017.22717285
0.37,-69966537.47558594,1580070.972442627,49357456.20727539,-21419536.590576172,43190986.63330078,-125562019.34814453,-35198612.213134766,-34299873.35205078,-15306837.08190918,4732231.616973877,18624322.89123535,52521564.48364258,83971443.17626953,86152275.08544922,-53361755.37109375,-61914630.88989258,-17136360.16845703,-17229295.73059082,773799.8366355896,12834828.37677002,21701723.098754883,50608428.955078125,85562194.82421875,-51724922.18017578,-39159412.3840332,-23303504.943847656,-3551600.456237793,-884383.0227851868,5736664.295196533,23439548.49243164,39234104.15649414,17442461.013793945,-47950439.453125,-47940010.07080078,-22777856.826782227,-527356.207370758,-759257.7934265137,9517068.862915039,7298869.609832764,13293809.89074707,19219158.172607422,-49313301.08642578,-15071873.664855957,-24025791.16821289,2329858.7799072266,7931528.568267822,9277137.756347656,10387110.710144043,10354663.848876953,11412163.734436035,5989563.465118408,3552801.3706207275,4194168.0908203125,7743143.558502197,16452686.309814453,19185960.76965332,20203670.501708984,2926281.213760376,5015748.977661133,8514705.657958984,17106506.34765625,16035541.534423828
0.375,-48269607.54394531,22985078.811645508,66207199.09667969,-12424521.446228027,45452068.32885742,-117717987.06054688,-31764501.571655273,-30760179.51965332,-13075028.419494629,7302908.897399902,20062700.271606445,53358699.798583984,83147949.21875,85516654.96826172,-55015499.114990234,-61089756.01196289,-17322647.094726562,-17318244.93408203,1125751.7337799072,14178212.16583252,22345314.025878906,51007392.88330078,84738403.3203125,-53592876.43432617,-41567554.47387695,-24860597.610473633,-3849056.9591522217,-1241774.320602417,6502140.998840332,24880691.528320312,38597354.888916016,16242179.870605469,-49952323.91357422,-49933605.1940918,-25698860.16845703,-1836279.5114517212,-931379.3182373047,8237244.606018066,9010793.685913086,13625397.682189941,19143653.869628906,-51093490.60058594,-19565551.7578125,-26224784.85107422,445045.47119140625,4652854.919433594,8387684.8220825195,12545307.159423828,12551443.099975586,13497160.911560059,2130136.251449585,-66257.21603631973,603001.5349388123,4510769.844055176,14206184.387207031,17206748.962402344,18188533.782958984,-578803.1816482544,1383915.5435562134,5919612.407684326,14700160.026550293,13757405.281066895
0.38,-37075160.98022461,32097476.959228516,74979660.03417969,-8516865.730285645,44521545.41015625,-111132125.85449219,-29712400.436401367,-28806427.001953125,-11737868.309020996,8461204.528808594,20661783.21838379,54645320.892333984,85117210.3881836,87653167.72460938,-52345531.46362305,-59008888.244628906,-15990992.546081543,-16047134.399414062,2401005.983352661,16090188.980102539,24345359.802246094,52683692.932128906,86703804.01611328,-50969032.287597656,-40678173.06518555,-23778688.430786133,-2972132.921218872,-1233248.1145858765,8480712.890625,28739395.141601562,41674354.553222656,21418781.280517578,-47731967.92602539,-47527397.15576172,-24674736.02294922,-2479392.0516967773,-839050.9486198425,8750109.672546387,13545647.621154785,19020347.595214844,24655643.463134766,-48733650.20751953,-15740882.873535156,-23776113.510131836,1694641.4709091187,4994659.423828125,10150140.762329102,19888957.977294922,19971002.57873535,20714063.64440918,6306439.8765563965,4103333.9500427246,4674495.697021484,5116825.580596924,19171829.223632812,22396535.873413086,23238191.604614258,4765606.40335083,5378528.594970703,10945645.332336426,19574361.80114746,18751781.463623047
0.385,-46250907.89794922,19848039.627075195,65272743.225097656,-13853544.235229492,39014854.431152344,-109811180.1147461,-31473560.333251953,-30752826.690673828,-13840161.323547363,4783498.287200928,17746326.446533203,53063629.150390625,85216545.10498047,87741439.81933594,-47385345.458984375,-57629699.70703125,-15372395.515441895,-15623982.429504395,1480039.119720459,15604530.334472656,24992179.87060547,52845149.993896484,86801956.17675781,-45835636.138916016,-37370506.286621094,-21391838.07373047,-2076292.9916381836,-799238.5625839233,9695295.333862305,31207757.9498291,44750038.146972656,26719280.242919922,-42799491.88232422,-42574954.986572266,-20507467.26989746,-1421041.3694381714,-509631.6337585449,10299365.997314453,16380401.611328125,24596084.594726562,30818723.678588867,-43942226.40991211,-7100401.878356934,-18547584.533691406,5654851.43661499,7983296.3943481445,11736440.658569336,25015047.073364258,25238153.4576416,25866462.70751953,14605377.197265625,12171145.43914795,12569795.608520508,8388170.24230957,26472471.237182617,29680381.774902344,30372995.376586914,13404127.12097168,13201724.0524292,18261026.38244629,26989210.12878418,26185722.35107422
0.39,-56754375.45776367,7122038.841247559,53092163.0859375,-18437248.22998047,34751487.731933594,-109547554.01611328,-32069698.333740234,-31413940.4296875,-15604559.898376465,682810.1873397827,14811388.969421387,49778919.2199707,81263282.7758789,83565910.33935547,-44026821.13647461,-55985900.87890625,-15432099.342346191,-15849071.502685547,-920934.2002868652,13373333.930969238,24011011.123657227,50021114.349365234,82718955.99365234,-42314994.81201172,-34696529.388427734,-19320703.506469727,-1538120.7466125488,-382969.4092273712,9083756.446838379,30106664.657592773,43568004.6081543,24328189.849853516,-39144344.329833984,-39117347.717285156,-17074417.114257812,491862.2672557831,-207136.48200035095,10664571.762084961,14859064.102172852,24488897.3236084,30486505.50842285,-40469512.939453125,-2829399.1088867188,-15419473.648071289,8434164.047241211,9292342.185974121,10887264.251708984,22814901.35192871,23210374.83215332,23806804.656982422,17496545.791625977,14999871.253967285,15217525.482177734,9757004.737854004,27218805.31311035,30221181.869506836,30859123.22998047,14378737.449645996,15802927.97088623,18915725.708007812,27940319.061279297,27064283.37097168
0.395,-49279655.45654297,14681443.214416504,57617477.41699219,-13098897.933959961,37384670.25756836,-106146881.10351562,-27240846.633911133,-26478374.481201172,-12675279.61730957,2261702.537536621,16503004.07409668,48976608.27636719,77200355.52978516,79237922.66845703,-44139095.306396484,-52973163.60473633,-14552651.405334473,-14965796.47064209,-1324305.534362793,12570116.996765137,23597675.323486328,46455421.447753906,78398002.62451172,-42481533.05053711,-34408145.904541016,-18015211.10534668,-909035.9807014465,-375343.32275390625,7717988.49105835,27625736.236572266,39388454.43725586,15708508.491516113,-39116569.51904297,-39202423.095703125,-16605550.765991211,1626958.1317901611,-109188.2660984993,9289661.407470703,11637576.10321045,19640140.533447266,23992425.9185791,-40387268.06640625,-5764537.334442139,-16389039.993286133,7669511.795043945,7326446.056365967,9082833.290100098,17248924.255371094,17749706.268310547,18200729.370117188,12436351.776123047,10226356.506347656,10376292.22869873,7588846.683502197,20377088.54675293,23256298.065185547,23983818.05419922,6378177.165985107,10927721.977233887,12259860.038757324,21189620.971679688,20192394.256591797
0.4,-33761066.43676758,30983995.43762207,70168930.05371094,-4455537.31918335,42027263.64135742,-102433380.12695312,-21810976.028442383,-20909090.042114258,-8145783.424377441,6954708.099365234,20119857.788085938,49689769.74487305,74818824.7680664,76769470.21484375,-46711708.068847656,-50955768.58520508,-13197469.711303711,-13510306.358337402,661081.9697380066,13594069.480895996,23782062.530517578,43386505.126953125,75877929.6875,-45245975.494384766,-35836082.458496094,-17535459.518432617,-253092.76580810547,-645556.3306808472,6866525.650024414,26421781.539916992,36012176.513671875,8230337.142944336,-41845817.56591797,-41809474.94506836,-17900377.27355957,1554128.4084320068,-140576.64573192596,7806178.092956543,10041461.944580078,15340633.392333984,17954084.396362305,-42938774.10888672,-10355503.08227539,-19171342.849731445,5063404.560089111,4623777.866363525,8386730.194091797,14564520.835876465,15050333.976745605,15174139.976501465,5881824.493408203,3940040.111541748,4251968.3837890625,4613686.084747314,13247172.355651855,16089162.826538086,16979822.158813477,-1468782.7825546265,4751558.780670166,5772333.145141602,14038045.883178711,12907781.600952148
0.405,-34290695.19042969,28677839.279174805,66057571.41113281,-5952561.378479004,38211765.28930664,-103477493.28613281,-23842071.533203125,-22929327.0111084,-9200090.408325195,6192533.016204834,18338726.043701172,45922092.43774414,69875457.76367188,71943008.42285156,-49675968.170166016,-53223003.38745117,-13899076.461791992,-14184034.34753418,1376873.8508224487,13349137.306213379,21918867.111206055,38752174.377441406,71078987.12158203,-48320091.247558594,-37614479.064941406,-18113332.748413086,-317993.96872520447,-760975.1224517822,6413385.86807251,26057569.50378418,34182174.68261719,5105093.955993652,-44987529.75463867,-44775505.06591797,-18819963.455200195,1322806.3583374023,-130553.9608001709,7711136.341094971,9628870.010375977,13929512.023925781,16373741.149902344,-46033641.81518555,-11641678.810119629,-20950592.041015625,3602541.68510437,3640264.5111083984,8118599.891662598,14835251.808166504,15246382.713317871,15071466.445922852,3417292.833328247,1306139.588356018,1911199.8081207275,3482240.676879883,11259338.37890625,13900556.564331055,14876390.45715332,-3117589.235305786,2351609.468460083,4376763.343811035,12043216.705322266,10844546.3180542
0.41,-53294170.37963867,5966475.486755371,43598316.19262695,-17911293.029785156,26479429.244995117,-109437149.04785156,-32846675.872802734,-32079444.885253906,-16283311.84387207,-1337018.9666748047,10985687.255859375,38007446.2890625,62348667.14477539,64546882.62939453,-52002918.2434082,-58962802.88696289,-17154279.708862305,-17488235.473632812,-1026848.9122390747,10816994.667053223,18460937.5,33447151.18408203,63771137.23754883,-50622940.06347656,-39525562.28637695,-19524814.60571289,-1256402.1348953247,-523608.2673072815,6177944.660186768,25633304.595947266,33387077.33154297,4996049.404144287,-47327640.533447266,-47016662.59765625,-18991493.225097656,1735676.5270233154,-10705.582797527313,8735681.533813477,8978474.617004395,14404721.2600708,18015043.258666992,-48424285.888671875,-11159102.439880371,-21529766.082763672,3824331.045150757,3813906.192779541,6778787.612915039,14619701.385498047,14990982.055664062,14756991.386413574,3367632.1506500244,833330.3332328796,1574627.5186538696,3638798.952102661,12351791.381835938,14722891.807556152,15640671.730041504,-2471094.6083068848,2013000.9651184082,5279003.143310547,13101229.667663574,11983872.413635254
0.415,-66767433.166503906,-7414559.364318848,32278594.970703125,-25592880.249023438,21949663.162231445,-115706565.8569336,-39393222.80883789,-38818904.876708984,-20899469.37561035,-5774699.2111206055,7907086.8492126465,37046432.49511719,63187042.236328125,65390014.6484375,-53916988.372802734,-63312255.859375,-19617179.87060547,-19923780.44128418,-3096863.031387329,10004162.788391113,18978540.420532227,34973312.37792969,64592178.34472656,-52512622.83325195,-41850811.00463867,-20590970.993041992,-1901398.6587524414,-120014.20557498932,7215044.4984436035,26975030.89904785,36141254.42504883,8585887.908935547,-49201278.68652344,-48744503.021240234,-19377086.639404297,2250934.839248657,175212.3385667801,9556652.069091797,9408053.398132324,16863613.12866211,21454368.591308594,-50251632.69042969,-12573666.5725708,-22369316.10107422,3859837.055206299,3346588.134765625,5012641.429901123,13787639.617919922,14154601.097106934,14043817.520141602,1719762.682914734,-870249.2117881775,-271447.21150398254,3175802.707672119,12020916.938781738,14496086.120605469,15323863.983154297,-4936911.582946777,246280.2678346634,4037855.625152588,12553970.336914062,11636664.390563965
0.42,-55934234.619140625,10783218.383789062,54652072.90649414,-17931791.305541992,36120185.85205078,-117759796.14257812,-36309196.47216797,-35838001.2512207,-15924425.12512207,1460303.9026260376,16781272.888183594,51693416.595458984,81568733.21533203,83751358.03222656,-55015735.6262207,-62240280.15136719,-17682834.62524414,-17843767.166137695,-624220.609664917,14769873.61907959,27112596.51184082,48745441.43676758,82761260.98632812,-53649635.314941406,-43081878.662109375,-19792152.404785156,-864480.3762435913,172916.17393493652,10232825.27923584,31954168.31970215,44966960.90698242,18354682.92236328,-50314300.537109375,-49600784.30175781,-19905654.907226562,2170471.19140625,347450.1073360443,9436412.811279297,12558552.742004395,22471063.6138916,27688026.428222656,-51241432.189941406,-15089179.039001465,-23667907.71484375,2601192.4743652344,2285713.4342193604,4531988.620758057,14905674.934387207,15220712.661743164,15260007.858276367,-761612.7133369446,-2836759.567260742,-2434811.592102051,2102945.08934021,10242306.70928955,13273194.313049316,14128779.411315918,-8271016.1209106445,-1846182.5847625732,1605357.6469421387,10457594.871520996,9708339.69116211
0.425,-32322978.973388672,43923900.60424805,93085975.64697266,-2147852.897644043,59541149.1394043,-114998466.49169922,-26904264.450073242,-26395833.96911621,-5001115.798950195,15538825.988769531,31780761.71875,73680213.92822266,108315902.70996094,110629959.10644531,-53725776.67236328,-56551586.15112305,-12064193.725585938,-12115867.614746094,5236582.7560424805,22466749.19128418,37888233.18481445,67605926.51367188,109452972.41210938,-52349163.05541992,-40531791.68701172,-16759334.564208984,1677168.0116653442,256557.8818321228,13516318.321228027,38062808.990478516,55951004.02832031,31461570.739746094,-48992431.640625,-48119842.529296875,-19034498.21472168,2053932.6667785645,427438.55714797974,8927082.061767578,16420999.526977539,29240051.26953125,36258804.32128906,-49893882.751464844,-14421015.739440918,-23769336.700439453,1469086.2894058228,2558426.856994629,5493089.67590332,18046892.166137695,18239099.502563477,18470006.942749023,128815.93406200409,-1443482.9950332642,-1033145.0700759888,2411152.3628234863,10863909.721374512,14399783.13446045,15384840.965270996,-6486667.633056641,-495396.4054584503,2489192.485809326,10967079.162597656,10251064.30053711
0.43,-24263347.625732422,55239917.75512695,108091300.96435547,4265313.148498535,70074935.91308594,-111912437.43896484,-21073965.072631836,-20461988.44909668,1082224.0114212036,23074665.069580078,39051933.28857422,84164916.9921875,121890464.78271484,124447341.91894531,-50395221.71020508,-51607345.58105469,-7641628.742218018,-7717929.363250732,8949709.89227295,26039623.260498047,42143405.91430664,76578086.85302734,123315109.25292969,-48880748.7487793,-35136322.021484375,-13539972.305297852,3629088.6402130127,201391.22009277344,14283272.743225098,40201419.830322266,60643688.2019043,39001399.993896484,-45465175.62866211,-44698764.80102539,-16388160.705566406,2805095.911026001,388630.5093765259,9251129.150390625,17470111.846923828,32280773.162841797,42477741.24145508,-46442024.23095703,-9869855.880737305,-21916118.621826172,2383792.1619415283,5190877.437591553,6934213.638305664,20614339.82849121,20715175.62866211,21191417.694091797,4788503.170013428,3058297.1572875977,3643389.940261841,5164829.730987549,15313193.321228027,19028930.6640625,20074481.964111328,-63589.23763036728,4019354.820251465,7378402.233123779,15612534.523010254,14843112.94555664
0.435,-43166736.6027832,32100223.541259766,85281517.0288086,-6388789.176940918,58144927.978515625,-115050102.23388672,-25174661.63635254,-24508666.9921875,-3764589.309692383,17565156.936645508,32458564.75830078,74998748.77929688,112323852.5390625,114970199.58496094,-49575511.93237305,-53286815.64331055,-8646428.108215332,-8742852.210998535,7173663.139343262,22441690.44494629,37023956.298828125,69097122.19238281,114140327.45361328,-47899654.388427734,-33280181.884765625,-13632902.145385742,2864179.6112060547,110527.8804898262,12063588.14239502,36770114.89868164,55445751.19018555,35188858.03222656,-44360889.43481445,-43773452.75878906,-14629053.115844727,3795866.7278289795,309598.6247062683,10896080.017089844,15548573.49395752,29343681.33544922,41364784.240722656,-45366798.400878906,-7276944.160461426,-20483825.68359375,4652909.278869629,8356919.288635254,8568338.394165039,21209039.68811035,21328918.45703125,21825260.162353516,7637854.57611084,5283139.705657959,6000536.918640137,8478968.620300293,19419940.948486328,23405349.731445312,24331119.537353516,3195431.709289551,6230629.444122314,10812559.127807617,19954135.89477539,19149251.93786621
0.44,-70560722.35107422,-31889.941543340683,51159191.1315918,-23964393.615722656,37319202.4230957,-125497421.26464844,-36282768.24951172,-35643562.31689453,-14932477.951049805,5920518.398284912,19864141.4642334,57677089.69116211,92071411.1328125,94481719.97070312,-55407966.61376953,-62315567.01660156,-14371864.318847656,-14302835.464477539,2245920.181274414,16172449.111938477,28778184.89074707,54114955.90209961,94008506.77490234,-53676033.02001953,-39819557.189941406,-18338554.38232422,-387934.6251487732,27999.551966786385,9278351.783752441,31410226.821899414,45797786.712646484,24213569.64111328,-50007202.1484375,-49365295.41015625,-16707044.60144043,3401387.4530792236,297863.27481269836,12756409.645080566,13476041.793823242,23520828.247070312,33648265.83862305,-50972488.40332031,-12188153.266906738,-22513843.536376953,5432562.351226807,9060914.039611816,10301710.12878418,20350519.18029785,20519199.37133789,20529163.360595703,4024612.4267578125,1429429.292678833,2181715.488433838,9268486.022949219,18006107.330322266,22625038.146972656,23329076.766967773,-1698420.763015747,2375900.0301361084,7747018.814086914,18559751.510620117,17771600.7232666
0.445,-80677078.24707031,-10222266.19720459,39066204.07104492,-32905830.38330078,27461168.28918457,-134840728.75976562,-45459163.665771484,-44842624.66430664,-22867431.640625,-616167.6049232483,13225788.116455078,48974822.998046875,80428260.80322266,82438491.82128906,-64175247.19238281,-71892120.36132812,-19893783.569335938,-19529481.887817383,-1133140.8023834229,13410156.25,24939573.287963867,45553585.052490234,82139862.06054688,-62474609.375,-49865032.19604492,-24159500.122070312,-3478378.5343170166,-62686.68174743652,8181280.136108398,28444717.407226562,40030487.060546875,15873011.589050293,-58787734.98535156,-57886592.864990234,-21288948.05908203,1563883.4238052368,347549.08084869385,13209568.02368164,12772064.208984375,19613843.91784668,26267759.323120117,-59736480.712890625,-21002569.1986084,-26867059.7076416,3744679.2125701904,7072760.581970215,11296956.062316895,18792860.03112793,18928550.720214844,18243148.803710938,-2516908.1687927246,-4610522.270202637,-3828265.1901245117,7259274.959564209,12300032.615661621,17295680.99975586,17854194.64111328,-9343445.777893066,-3579544.3058013916,1193681.8361282349,12748292.922973633,11995970.726013184
0.45,-69992118.83544922,2096744.5373535156,50813510.89477539,-29196882.247924805,32528705.596923828,-133048034.66796875,-46150043.48754883,-45458202.36206055,-22807479.858398438,1454290.3900146484,15769916.534423828,52476783.752441406,82650810.24169922,84441802.97851562,-66023651.123046875,-73096862.79296875,-20901576.99584961,-20366907.119750977,-1004417.6578521729,14831598.281860352,26495212.55493164,47787109.375,84072692.87109375,-64380378.72314453,-52424160.00366211,-25603580.474853516,-3993084.43069458,-177008.5096359253,8390552.520751953,28383314.13269043,41019317.626953125,15663538.932800293,-60822635.650634766,-59787071.228027344,-23302486.419677734,310196.3400840759,349961.4894390106,12059894.561767578,12485219.00177002,19188083.64868164,25766254.425048828,-61760246.27685547,-23245449.06616211,-28414680.48095703,2274822.235107422,5797398.567199707,11140707.015991211,17542192.459106445,17626003.26538086,16751337.051391602,-3401160.24017334,-4934254.169464111,-4120922.088623047,5863440.51361084,9748055.458068848,14049726.486206055,14643687.24822998,-9810183.52508545,-3804306.5071105957,-125401.45218372345,10187161.445617676,9450616.836547852
0.455,-56825218.200683594,13442174.911499023,62142974.853515625,-21190893.173217773,40341300.96435547,-120562812.80517578,-39440982.818603516,-38592555.99975586,-17595508.575439453,6786681.652069092,21043867.111206055,58240142.822265625,88526779.17480469,90421684.26513672,-57107601.165771484,-64457328.79638672,-17590444.564819336,-17172172.54638672,893167.4957275391,16252788.543701172,28793390.27404785,53596076.96533203,89872261.04736328,-55599700.927734375,-43999240.87524414,-21379293.44177246,-2196000.099182129,-273199.588060379,8085299.491882324,28593984.603881836,44789604.18701172,20353713.989257812,-52183338.1652832,-51316024.78027344,-20340539.932250977,953265.1901245117,263553.4703731537,10741104.125976562,11858077.049255371,20030458.450317383,31261940.002441406,-53026527.404785156,-15212138.175964355,-24888959.884643555,3517998.456954956,7770465.37399292,10976057.052612305,18111602.783203125,18271369.93408203,17892875.67138672,3690303.087234497,1976912.1408462524,2727443.4566497803,7672150.611877441,14465853.691101074,17354486.4654541,18122535.705566406,-1519092.4406051636,3076107.978820801,6876718.997955322,14987681.38885498,14224241.256713867
0.46,-53662315.368652344,12147644.04296875,59479751.58691406,-15923501.968383789,40865848.541259766,-107919830.32226562,-31285654.067993164,-30320144.653320312,-12364044.189453125,9662774.085998535,22452173.233032227,57401115.41748047,87609458.92333984,89724060.05859375,-46116104.12597656,-54129745.48339844,-13696961.402893066,-13579968.452453613,2248505.3539276123,15101936.340332031,28087350.845336914,54193706.51245117,89053970.33691406,-44869094.84863281,-33947673.79760742,-16235582.35168457,-391159.8324775696,-310481.6973209381,6718657.01675415,27013694.763183594,45592136.38305664,22443822.860717773,-41469779.96826172,-40893127.44140625,-16343687.057495117,2115943.431854248,165398.65732192993,10245358.46710205,11233880.043029785,19131536.48376465,35078704.833984375,-42225532.53173828,-7059126.853942871,-21059272.76611328,5609070.301055908,10456027.98461914,11568218.231201172,20046709.060668945,20370805.740356445,20451663.970947266,10356852.531433105,7973386.287689209,8566753.387451172,10260293.960571289,20567424.774169922,22731046.676635742,23668918.60961914,5725908.279418945,8926334.381103516,14165802.001953125,21106559.75341797,20286279.678344727
0.465,-53074119.567871094,10389767.64678955,54031871.7956543,-11926316.261291504,36480182.64770508,-102565261.84082031,-26168010.711669922,-25239498.138427734,-9444681.167602539,9730145.454406738,20039098.739624023,51234790.80200195,79986068.72558594,82166259.765625,-43993366.24145508,-50626678.466796875,-12332771.301269531,-12453001.022338867,2680771.589279175,13212430.953979492,25150264.739990234,48328594.20776367,81476684.5703125,-42972660.064697266,-32648532.86743164,-15277985.572814941,-152190.29784202576,-353435.36734580994,5418944.835662842,24168197.631835938,41451786.041259766,18044847.48840332,-39558242.79785156,-39135429.38232422,-16464555.740356445,1864876.389503479,100900.85864067078,9876729.965209961,10384045.600891113,15608020.782470703,31524620.056152344,-40438819.885253906,-10539478.302001953,-22708820.343017578,4790748.119354248,9259080.88684082,11390340.805053711,20071828.842163086,20451766.967773438,20284908.294677734,7898951.053619385,5337650.775909424,5796796.798706055,9132151.60369873,19399257.65991211,22264890.670776367,23231561.6607666,3058502.674102783,6208996.295928955,12466138.83972168,19881635.665893555,19041702.270507812
0.47,-46256851.19628906,17797574.996948242,57135398.864746094,-7416122.4365234375,33339149.475097656,-101530799.86572266,-24723289.489746094,-23989315.032958984,-8851424.217224121,9362034.797668457,17751825.3326416,46023723.60229492,72632369.99511719,74746307.37304688,-49730197.90649414,-53432415.00854492,-13468217.849731445,-13611850.73852539,3010191.4405822754,12969416.618347168,23135156.631469727,41838226.318359375,74071205.13916016,-48667602.5390625,-38377532.958984375,-17974390.029907227,-962006.7477226257,-503756.46352767944,5086007.595062256,22082075.119018555,35736366.271972656,10772481.918334961,-45419654.846191406,-44998382.568359375,-19903133.392333984,763922.7509498596,8237.283676862717,8863768.577575684,8664203.643798828,11471018.79119873,24110809.326171875,-46605403.900146484,-21806478.50036621,-28007778.16772461,1527714.729309082,4611112.117767334,8999672.889709473,16740036.010742188,17041927.337646484,16283166.885375977,-221538.78211975098,-2199203.0143737793,-1785400.2714157104,4685852.527618408,12237542.152404785,16163463.592529297,17002799.98779297,-5082545.280456543,-1247848.5107421875,4515384.197235107,12735163.688659668,11962445.259094238
0.475,-40930301.666259766,22835262.298583984,60440956.115722656,-6727707.386016846,31628902.435302734,-98702766.41845703,-25660345.07751465,-25153583.526611328,-10264554.023742676,9356803.894042969,17683879.852294922,44790138.244628906,70514785.76660156,72666442.87109375,-52284938.81225586,-55338703.15551758,-14941184.997558594,-14966196.060180664,3482883.2149505615,13725204.467773438,23714878.08227539,40637256.62231445,71996307.37304688,-50947250.36621094,-41016830.44433594,-19560400.009155273,-1400071.7401504517,-695732.7127456665,5302309.989929199,21995010.375976562,33796714.782714844,8039433.479309082,-48031127.9296875,-47642765.045166016,-21170890.80810547,996152.4605751038,-138020.54524421692,8113252.639770508,7106427.6695251465,9859101.295471191,21645076.751708984,-49403812.408447266,-24994478.225708008,-29508285.522460938,561272.0847129822,2492043.2567596436,6436750.411987305,14007608.413696289,14300442.695617676,13524394.035339355,-2137050.6286621094,-3655034.065246582,-3224557.638168335,2729691.982269287,9725402.83203125,13423271.179199219,14118388.175964355,-6212231.636047363,-2585371.0174560547,2292863.8458251953,10365206.718444824,9666611.671447754
0.48,-46722324.37133789,14459076.881408691,53558712.005615234,-11567054.748535156,29808753.967285156,-93400154.11376953,-26550594.329833984,-26138776.779174805,-11867155.075073242,9698322.296142578,19324081.420898438,46712810.51635742,73467620.84960938,75797874.4506836,-45839618.68286133,-52016983.03222656,-14604936.599731445,-14560724.258422852,3862193.1076049805,13899566.650390625,26036479.949951172,45339199.06616211,75139900.20751953,-44297443.38989258,-36097862.243652344,-17274791.717529297,-745624.840259552,-702490.0317192078,5514051.43737793,23509187.698364258,37665397.64404297,13313395.500183105,-41587554.931640625,-41356559.75341797,-17918266.29638672,2803885.4598999023,-226563.4834766388,9006181.716918945,8033372.87902832,12152323.722839355,27483125.686645508,-42871814.7277832,-14022021.293640137,-24603139.877319336,4059306.1447143555,6515235.900878906,7419075.012207031,16560237.884521484,16970487.594604492,16934181.213378906,6363117.218017578,4429594.51675415,4938147.54486084,6742074.489593506,17324232.10144043,19453804.01611328,20160879.135131836,3225157.0224761963,5486026.287078857,10716849.327087402,18115159.98840332,17356342.315673828
0.485,-52778392.79174805,7216883.659362793,47723880.767822266,-12798154.830932617,31653703.689575195,-87939407.34863281,-23709438.32397461,-23200336.456298828,-9863512.03918457,11820002.555847168,22151041.03088379,50613456.72607422,78618949.89013672,80982040.40527344,-36527137.756347656,-45643573.76098633,-11619614.601135254,-11649459.838867188,4529998.779296875,14325179.100036621,28468906.40258789,51839569.091796875,80342025.75683594,-35049690.24658203,-28967929.84008789,-12849988.93737793,761640.191078186,-446053.1771183014,6208011.627197266,25699720.38269043,44157920.837402344,22346576.690673828,-32254337.310791016,-32172538.75732422,-13756881.713867188,3871015.0718688965,-167780.60793876648,11047676.086425781,11854677.200317383,16748264.31274414,35836086.27319336,-33369342.803955078,-1601710.7963562012,-18995199.20349121,8261546.1349487305,12823860.168457031,12166462.898254395,22989681.243896484,23397575.37841797,24057256.6986084,16043230.056762695,13337592.124938965,14009833.335876465,12917967.796325684,27561117.17224121,28580154.418945312,29468463.897705078,12816033.363342285,14262939.453125,20917407.989501953,28375881.19506836,27449426.651000977
0.49,-39709148.40698242,23319555.282592773,61959186.55395508,-1249148.964881897,41122055.05371094,-82016708.37402344,-15459568.02368164,-14777205.467224121,-2740566.2536621094,16804630.279541016,26076433.181762695,55328498.84033203,82926727.29492188,84973800.65917969,-32621501.922607422,-40060104.37011719,-6923801.422119141,-7071201.324462891,6289690.4945373535,16850660.32409668,30369047.164916992,55747207.64160156,84311119.07958984,-31360530.853271484,-25484081.268310547,-9194813.72833252,2492545.1278686523,-162841.63296222687,8017387.390136719,28187057.495117188,48399467.46826172,27359073.638916016,-28419494.62890625,-28280321.12121582,-12578164.100646973,2663722.038269043,-57999.856770038605,12184369.087219238,15918792.724609375,20544675.827026367,39201923.37036133,-29504518.508911133,-1537199.1395950317,-18213745.1171875,8869883.53729248,15263278.96118164,16529125.213623047,27430841.44592285,27565259.93347168,28199621.200561523,16871528.62548828,14095132.827758789,14927473.068237305,15265584.945678711,30170928.955078125,31993820.190429688,33046390.533447266,12144125.938415527,14923997.87902832,22472795.486450195,30847078.323364258,29870195.388793945
0.495,-11423903.465270996,56070716.857910156,90981895.44677734,16470148.086547852,53547176.361083984,-75051338.19580078,-6160992.14553833,-5399432.65914917,5288898.468017578,22615581.512451172,30136838.912963867,58536254.8828125,84298728.9428711,85930290.22216797,-34420520.7824707,-36647430.419921875,-2834528.4461975098,-2999113.7981414795,9151220.321655273,20674018.85986328,31988485.33630371,55671535.49194336,85175529.47998047,-33314216.61376953,-25147872.924804688,-7280960.0830078125,3802037.239074707,-108637.19135522842,10205203.05633545,30418777.465820312,48335643.76831055,24407646.17919922,-30491048.81286621,-30073255.53894043,-13665877.342224121,511270.04623413086,-61483.77060890198,11364703.178405762,17247764.587402344,21150484.085083008,36020515.44189453,-31601341.247558594,-10274167.06085205,-20532972.33581543,6682558.536529541,12981761.932373047,16813398.361206055,27064420.700073242,26909938.81225586,27080993.65234375,10473278.045654297,8410263.061523438,9226916.313171387,13009263.99230957,24767957.68737793,28504892.349243164,29519735.33630371,3522503.37600708,9247555.73272705,16276725.769042969,25204021.453857422,24420547.485351562
0.5,6487016.677856445,75629447.93701172,108804351.80664062,24533397.674560547,60080192.56591797,-70524177.55126953,-2883415.699005127,-2161426.544189453,8727150.917053223,26180044.174194336,33109237.670898438,58611557.00683594,82426933.28857422,83975090.02685547,-37610820.77026367,-35665626.525878906,-1319311.1419677734,-1408160.924911499,12168592.45300293,22921493.530273438,33296134.94873047,52749881.744384766,83078079.22363281,-36545024.87182617,-25628583.908081055,-7199628.829956055,4191671.848297119,-218130.97596168518,11234800.338745117,30743719.10095215,44971881.86645508,15683789.253234863,-34071182.25097656,-33368228.912353516,-14653352.737426758,-788548.1715202332,-183637.8127336502,9503970.1461792,15124673.843383789,17705965.042114258,29120416.64123535,-35060108.18481445,-15060895.919799805,-21788618.087768555,4813441.753387451,9519762.03918457,13353654.861450195,23853986.740112305,23702766.41845703,23673917.770385742,4816812.038421631,3314926.3858795166,3924149.990081787,9616204.261779785,18071168.899536133,22704036.712646484,23517620.086669922,-4288184.642791748,4182826.519012451,9952398.300170898,18302043.914794922,17768409.729003906
0.505,2480512.857437134,70407073.97460938,104288917.5415039,19116250.99182129,58822952.27050781,-72226608.27636719,-7072659.492492676,-6374619.483947754,7332911.491394043,26881259.91821289,34471996.30737305,56234172.82104492,77992187.5,79823516.84570312,-41640369.4152832,-37942634.58251953,-2485951.9004821777,-2523920.2976226807,14102689.743041992,22366708.755493164,33228660.583496094,47841026.306152344,78767097.47314453,-40557422.63793945,-28299362.182617188,-9831842.422485352,3472674.608230591,-261144.60825920105,10622795.104980469,27657838.821411133,39329841.61376953,5220256.328582764,-38337245.94116211,-37572242.736816406,-16278121.948242188,-1778415.7991409302,-291922.59907722473,7825603.485107422,10522863.388061523,10568044.662475586,20029134.75036621,-39103664.39819336,-14599666.595458984,-23069671.630859375,3023898.3631134033,6508037.567138672,8746343.612670898,19157480.239868164,19192712.783813477,19352140.426635742,1221340.8946990967,-418564.46862220764,16898.18874001503,6613268.852233887,12454462.051391602,16147138.595581055,16815979.00390625,-9731580.73425293,418310.0163936615,5281066.89453125,12662148.475646973,12156727.79083252
