time,Fp1,Fpz,Fp2,AF3,AF4,F7,F5,F3,F1,Fz,F2,F4,F6,F8,FT7,FC5,FC3,FC1,FCz,FC2,FC4,FC6,FT8,T7,C5,C3,C1,Cz,C2,C4,C6,T8,TP7,CP5,CP3,CP1,CPz,CP2,CP4,CP6,TP8,P7,P5,P3,P1,Pz,P2,P4,P6,P8,PO7,PO5,PO3,POz,PO4,PO6,PO8,CB1,O1,Oz,O2,CB2
0.0,220013595.5810547,219747802.734375,219048904.4189453,219686065.67382812,219263549.8046875,219297332.76367188,220703079.2236328,220506439.20898438,223462890.625,218749160.76660156,217877288.81835938,218013305.6640625,217962524.4140625,219207489.01367188,219252777.09960938,216964523.3154297,217232192.99316406,218423614.50195312,218722290.0390625,217676330.56640625,217643417.35839844,217734451.2939453,217265670.7763672,221549545.28808594,217619506.8359375,217951950.0732422,218697784.42382812,218122604.3701172,218336822.50976562,217560195.92285156,217543289.1845703,215138076.78222656,219083999.63378906,217559677.12402344,219447341.9189453,217869354.24804688,218300125.1220703,218339385.98632812,218161407.47070312,218019927.97851562,218169082.64160156,219232772.82714844,219168685.91308594,219124145.5078125,216106826.78222656,218764511.10839844,218412445.06835938,219227874.75585938,219197845.45898438,218190597.5341797,219170928.95507812,219136566.16210938,219198318.4814453,218767395.01953125,218402557.37304688,218961471.5576172,219048385.6201172,217699310.30273438,219300659.1796875,218838714.59960938,218535430.90820312,218552841.18652344
0.005,2551642822.265625,2540477539.0625,2538031982.421875,2548127197.265625,2544750488.28125,2542595947.265625,2551199707.03125,2549052978.515625,2635298095.703125,2544246337.890625,2538645996.09375,2540809570.3125,2540302978.515625,2543526855.46875,2542230957.03125,2526664550.78125,2540277587.890625,2549970947.265625,2543794677.734375,2538408935.546875,2537262939.453125,2527348388.671875,2525353515.625,2592470703.125,2514964111.328125,2535670166.015625,2536048583.984375,2538320556.640625,2532519287.109375,2532088867.1875,2525009277.34375,2476913574.21875,2541432861.328125,2514117675.78125,2542605957.03125,2531425781.25,2530264404.296875,2532312255.859375,2533298095.703125,2530569824.21875,2532458740.234375,2543140136.71875,2542350341.796875,2541730957.03125,2527899414.0625,2526889648.4375,2526141601.5625,2545318359.375,2544969238.28125,2532612792.96875,2541845703.125,2541964599.609375,2519833984.375,2526152099.609375,2526078613.28125,2541895507.8125,2543355224.609375,2513467529.296875,2522000976.5625,2527381347.65625,2527242675.78125,2527197021.484375
0.01,3015766601.5625,2999991455.078125,2996967041.015625,3008572998.046875,3004726074.21875,3000421630.859375,3012727539.0625,3010207031.25,3142004150.390625,3004234863.28125,2996393310.546875,2998970703.125,2998257324.21875,3003016845.703125,3000249511.71875,2976311523.4375,2999440673.828125,3020020751.953125,3003527343.75,2998280517.578125,2996416503.90625,2982791992.1875,2978545898.4375,3068823730.46875,2960834716.796875,2991286376.953125,2991408691.40625,2996086425.78125,2991042968.75,2988842773.4375,2978735595.703125,2910834228.515625,3006746582.03125,2959654541.015625,3005540527.34375,2991616699.21875,2985788085.9375,2990761962.890625,2991719238.28125,2986890625.0,2989475830.078125,3008263427.734375,3007802734.375,3006724365.234375,2981403320.3125,2980039794.921875,2981197753.90625,3007875000.0,3007570312.5,2989443603.515625,3006971191.40625,3007185302.734375,2977455322.265625,2979074462.890625,2981138671.875,3003023925.78125,3004864990.234375,2954934570.3125,2980634033.203125,2980758056.640625,2982421142.578125,2982572998.046875
0.015,2046428955.078125,2033528076.171875,2030616088.8671875,2039046752.9296875,2035228393.5546875,2031429565.4296875,2043559204.1015625,2041833740.234375,2160688232.421875,2036042846.6796875,2028436157.2265625,2030200805.6640625,2029531127.9296875,2035290161.1328125,2031654907.2265625,2006380249.0234375,2031551147.4609375,2059994140.625,2035770996.09375,2033847412.109375,2031869995.1171875,2020069458.0078125,2013087524.4140625,2093718750.0,1995636352.5390625,2023985595.703125,2023846923.828125,2028907470.703125,2030352050.78125,2025468505.859375,2015782836.9140625,1952552612.3046875,2048594726.5625,1994509765.625,2044963867.1875,2033888183.59375,2022307617.1875,2030205444.3359375,2030402099.609375,2024402832.03125,2026600219.7265625,2048822753.90625,2049166015.625,2047935180.6640625,2014971923.828125,2015941528.3203125,2020186157.2265625,2044503906.25,2044474243.1640625,2026247680.6640625,2048289794.921875,2048499023.4375,2024743286.1328125,2015208496.09375,2020247558.59375,2039873413.0859375,2041282104.4921875,1981776000.9765625,2027803466.796875,2016686279.296875,2020963378.90625,2021371948.2421875
0.02,1528536132.8125,1521787597.65625,1519101074.21875,1526307250.9765625,1521102539.0625,1520611816.40625,1530937500.0,1529556274.4140625,1598222167.96875,1524463012.6953125,1517687255.859375,1519030639.6484375,1518435424.8046875,1525250000.0,1520796752.9296875,1498068359.375,1519491088.8671875,1545575683.59375,1525444213.8671875,1524796630.859375,1523125122.0703125,1513340942.3828125,1504392944.3359375,1576611816.40625,1493007202.1484375,1515677856.4453125,1515585937.5,1518785766.6015625,1525028564.453125,1519824951.171875,1510241088.8671875,1455062011.71875,1538730346.6796875,1491940795.8984375,1537283935.546875,1528311035.15625,1516284423.828125,1525161376.953125,1525376831.0546875,1518722412.109375,1520335571.2890625,1538520629.8828125,1538862182.6171875,1537833129.8828125,1505471923.828125,1510228027.34375,1515650146.484375,1536708618.1640625,1536786254.8828125,1519937988.28125,1538155395.5078125,1538279296.875,1521071289.0625,1509722167.96875,1515911987.3046875,1532531005.859375,1533641479.4921875,1470948120.1171875,1523615234.375,1510941772.4609375,1516326660.15625,1516717163.0859375
0.025,2236040771.484375,2233654052.734375,2232062255.859375,2238526123.046875,2233306396.484375,2234309326.171875,2242854492.1875,2240771728.515625,2272079345.703125,2237892333.984375,2231185546.875,2233113281.25,2232463134.765625,2241007568.359375,2234014892.578125,2211261718.75,2230794433.59375,2245483886.71875,2240271484.375,2236321044.921875,2234910400.390625,2224731201.171875,2215476318.359375,2292984619.140625,2207018066.40625,2228737548.828125,2229931396.484375,2231725097.65625,2236070556.640625,2233941650.390625,2222183837.890625,2165912597.65625,2239679199.21875,2205866943.359375,2242977539.0625,2232854248.046875,2229077148.4375,2236418212.890625,2237966064.453125,2230014160.15625,2231651611.328125,2240385986.328125,2239877929.6875,2239135986.328125,2211664062.5,2223029296.875,2226812988.28125,2248419189.453125,2248342041.015625,2231503417.96875,2239335693.359375,2239373535.15625,2219954101.5625,2222463867.1875,2227192626.953125,2244080810.546875,2245479736.328125,2182357666.015625,2222183349.609375,2223765136.71875,2227980224.609375,2228153320.3125
0.03,3197039306.640625,3195894531.25,3196288818.359375,3198912109.375,3196935546.875,3196644775.390625,3202981689.453125,3200065917.96875,3223126464.84375,3200860839.84375,3193336425.78125,3195985351.5625,3195249755.859375,3205510498.046875,3195995849.609375,3167877685.546875,3190661132.8125,3192867187.5,3204405517.578125,3195163818.359375,3193739501.953125,3182389892.578125,3173677978.515625,3256424804.6875,3161151367.1875,3186550048.828125,3190620605.46875,3193336914.0625,3191844482.421875,3193250488.28125,3178555175.78125,3118003906.25,3186860595.703125,3159920166.015625,3190863769.53125,3179637695.3125,3187373046.875,3192129150.390625,3195139648.4375,3184966796.875,3187181396.484375,3188574707.03125,3187459472.65625,3186763916.015625,3159286132.8125,3179954589.84375,3181552001.953125,3204643066.40625,3204406494.140625,3187199462.890625,3186916259.765625,3186924072.265625,3158319824.21875,3179176025.390625,3181838134.765625,3199983154.296875,3201860595.703125,3142137695.3125,3160419677.734375,3180729736.328125,3183224365.234375,3183302978.515625
0.035,3436867431.640625,3436526611.328125,3436864257.8125,3438528808.59375,3437637207.03125,3440780273.4375,3444114257.8125,3441027099.609375,3443303710.9375,3442982177.734375,3433950439.453125,3436655273.4375,3436028320.3125,3446557128.90625,3440151855.46875,3405739990.234375,3429046875.0,3422801513.671875,3448051269.53125,3435037597.65625,3433601318.359375,3421787109.375,3412996826.171875,3494782470.703125,3397538330.078125,3425207031.25,3432728759.765625,3436301025.390625,3431212158.203125,3433070312.5,3416757324.21875,3357530517.578125,3425072998.046875,3396319335.9375,3424033935.546875,3414785400.390625,3428446533.203125,3431170898.4375,3434393310.546875,3422177001.953125,3424871093.75,3426960449.21875,3425933349.609375,3425035644.53125,3390241943.359375,3417977294.921875,3419112548.828125,3441106201.171875,3440854492.1875,3424772705.078125,3425312011.71875,3425328613.28125,3388086669.921875,3417084716.796875,3419157470.703125,3436609863.28125,3438686279.296875,3388002929.6875,3390007812.5,3418727539.0625,3420884521.484375,3421021484.375
0.04,3153905517.578125,3156419189.453125,3151945556.640625,3163848632.8125,3155555908.203125,3171926757.8125,3173290527.34375,3170351318.359375,3110403320.3125,3166972656.25,3155860351.5625,3158177734.375,3157881103.515625,3167563232.421875,3171436035.15625,3135196044.921875,3148288574.21875,3137402343.75,3174016845.703125,3159006591.796875,3157867187.5,3145679443.359375,3136624267.578125,3222116943.359375,3126396972.65625,3152217773.4375,3162469726.5625,3163687988.28125,3159156005.859375,3158259521.484375,3141907714.84375,3088095703.125,3156967773.4375,3125190673.828125,3150308837.890625,3144811035.15625,3157495117.1875,3158835205.078125,3161096923.828125,3147923583.984375,3150598388.671875,3158599365.234375,3157713378.90625,3156611816.40625,3114762451.171875,3143561523.4375,3145697509.765625,3164621337.890625,3164356689.453125,3150337158.203125,3157151855.46875,3157184814.453125,3117550781.25,3142725097.65625,3145538574.21875,3160559570.3125,3162571533.203125,3122463867.1875,3119289306.640625,3144262939.453125,3147335449.21875,3147475585.9375
0.045,2886929199.21875,2892742675.78125,2881112792.96875,2908861572.265625,2888584472.65625,2919614501.953125,2921856689.453125,2918833984.375,2806145507.8125,2905970214.84375,2892842041.015625,2894784912.109375,2894773681.640625,2904922607.421875,2919259277.34375,2884288574.21875,2883020019.53125,2870761962.890625,2913690429.6875,2897041748.046875,2896261230.46875,2883532714.84375,2876290771.484375,2973307373.046875,2872411865.234375,2895837646.484375,2907721923.828125,2904992431.640625,2901958251.953125,2897929199.21875,2882315429.6875,2831974365.234375,2901985595.703125,2871194824.21875,2893171875.0,2890514892.578125,2901699462.890625,2901728759.765625,2903027832.03125,2889586669.921875,2891968261.71875,2903435791.015625,2902384521.484375,2901197021.484375,2859062255.859375,2886258300.78125,2889293945.3125,2905346435.546875,2904970703.125,2891767333.984375,2902044921.875,2902111328.125,2866840087.890625,2885576171.875,2889083007.8125,2901343750.0,2903245361.328125,2866804199.21875,2868609863.28125,2887044921.875,2890741943.359375,2890896728.515625
0.05,2608226074.21875,2613252929.6875,2598160644.53125,2631921142.578125,2606097656.25,2640822509.765625,2644920654.296875,2641800048.828125,2562313720.703125,2622551025.390625,2608442138.671875,2609964111.328125,2609902099.609375,2623025146.484375,2640802734.375,2604273681.640625,2599897460.9375,2590248779.296875,2627963134.765625,2610621337.890625,2609747070.3125,2597397216.796875,2594547363.28125,2697084716.796875,2587543212.890625,2611259033.203125,2623765869.140625,2619758300.78125,2616895751.953125,2611307128.90625,2596712402.34375,2547389160.15625,2616581298.828125,2586416015.625,2607408203.125,2606343505.859375,2617838623.046875,2617074951.171875,2618066406.25,2604443847.65625,2606706787.109375,2617692138.671875,2616731689.453125,2615492919.921875,2576117187.5,2603990722.65625,2607352783.203125,2621630615.234375,2621189208.984375,2606703369.140625,2616550292.96875,2616658691.40625,2587848876.953125,2603498046.875,2607232177.734375,2617199707.03125,2619003906.25,2576306640.625,2589870605.46875,2605079345.703125,2608451904.296875,2608921875.0
0.055,2211005371.09375,2208887451.171875,2196370605.46875,2222596679.6875,2201008056.640625,2229532470.703125,2232383789.0625,2229604248.046875,2260476562.5,2210715332.03125,2196634521.484375,2197644042.96875,2197231201.171875,2213614990.234375,2229960205.078125,2187226562.5,2194593505.859375,2190308105.46875,2212156250.0,2196859130.859375,2195446289.0625,2184427978.515625,2185184326.171875,2279857177.734375,2169665771.484375,2194265380.859375,2206303710.9375,2203486328.125,2201482177.734375,2195287597.65625,2181335937.5,2133763427.734375,2204680664.0625,2168741943.359375,2194355224.609375,2194423583.984375,2201860595.703125,2201962646.484375,2202863281.25,2189116943.359375,2191539794.921875,2205220458.984375,2204902587.890625,2203646240.234375,2161677490.234375,2190870117.1875,2194692626.953125,2208646484.375,2208285888.671875,2191622070.3125,2204662109.375,2204758544.921875,2178284667.96875,2190537353.515625,2194752685.546875,2203749755.859375,2205501953.125,2154177734.375,2180548095.703125,2192323974.609375,2195400390.625,2196355712.890625
0.06,2121387939.453125,2109131591.796875,2101065429.6875,2119296386.71875,2103321777.34375,2127884033.203125,2126045654.296875,2123816162.109375,2246940917.96875,2108418212.890625,2094142089.84375,2095043701.171875,2094332031.25,2111714111.328125,2128316406.25,2079144287.109375,2099520263.671875,2100548339.84375,2107609619.140625,2096235107.421875,2094422119.140625,2084070556.640625,2083836669.921875,2169737304.6875,2067740966.796875,2090721191.40625,2101746093.75,2097589843.75,2099367187.5,2092565673.828125,2077803222.65625,2032621215.8203125,2112266357.421875,2066928466.796875,2101384521.484375,2101197998.046875,2097099365.234375,2099719726.5625,2100255126.953125,2086261962.890625,2088868164.0625,2112701171.875,2112808349.609375,2111717041.015625,2060470703.125,2086889892.578125,2091705810.546875,2107344726.5625,2107035644.53125,2088879882.8125,2112443359.375,2112453369.140625,2082754882.8125,2086586425.78125,2091978271.484375,2102260253.90625,2104127685.546875,2051164062.5,2085090332.03125,2088495361.328125,2092450927.734375,2093460693.359375
0.065,2615279296.875,2596402099.609375,2590008789.0625,2609514160.15625,2593201171.875,2620610107.421875,2615520996.09375,2613483642.578125,2742492919.921875,2599749511.71875,2584353759.765625,2585857421.875,2585182128.90625,2602349121.09375,2620408447.265625,2568512939.453125,2590172119.140625,2595783203.125,2599602050.78125,2590527099.609375,2588760742.1875,2578008300.78125,2572863281.25,2661560302.734375,2565211669.921875,2585664794.921875,2596709228.515625,2586842773.4375,2593250000.0,2586531494.140625,2569443603.515625,2524639648.4375,2613965332.03125,2564285156.25,2605394287.109375,2602150390.625,2588014160.15625,2593209960.9375,2593409667.96875,2578388916.015625,2580988037.109375,2615103271.484375,2614744628.90625,2613979248.046875,2553882568.359375,2575199462.890625,2581211181.640625,2599691894.53125,2599233154.296875,2580908935.546875,2614411376.953125,2614364257.8125,2581422119.140625,2574757812.5,2581647460.9375,2594632812.5,2596733886.71875,2548670166.015625,2583688964.84375,2576625976.5625,2582475341.796875,2582907470.703125
0.07,3105937500.0,3087737792.96875,3080953857.421875,3104238281.25,3084751464.84375,3114658203.125,3111202880.859375,3108930175.78125,3180094482.421875,3094802978.515625,3078310302.734375,3080498535.15625,3080067871.09375,3098761718.75,3113853027.34375,3061849121.09375,3075123535.15625,3084942871.09375,3095832763.671875,3085846679.6875,3084199951.171875,3073720214.84375,3064531982.421875,3161812744.140625,3061239746.09375,3081873779.296875,3094759033.203125,3079976562.5,3087691162.109375,3082604492.1875,3063424316.40625,3017224121.09375,3105589599.609375,3060148193.359375,3100343505.859375,3092977050.78125,3081157226.5625,3087427490.234375,3087832031.25,3071019042.96875,3073486572.265625,3107360107.421875,3106251953.125,3105657226.5625,3043342041.015625,3064448242.1875,3071523437.5,3091340576.171875,3090678710.9375,3073340576.171875,3106059814.453125,3106082763.671875,3075686767.578125,3063824462.890625,3072000488.28125,3086403564.453125,3088547363.28125,3043901611.328125,3077809814.453125,3065524414.0625,3073108154.296875,3072995361.328125
0.075,2917855224.609375,2905523437.5,2899628906.25,2919691406.25,2900227539.0625,2929300781.25,2928895751.953125,2926236083.984375,2930037109.375,2911945068.359375,2895531494.140625,2897674560.546875,2897305908.203125,2919235351.5625,2928642089.84375,2876395019.53125,2881121337.890625,2892654296.875,2912409423.828125,2900646728.515625,2898817382.8125,2889893798.828125,2881063964.84375,2981191894.53125,2871869628.90625,2894799316.40625,2909747802.734375,2896384521.484375,2901222412.109375,2898071533.203125,2878606933.59375,2832146972.65625,2907870117.1875,2870811767.578125,2902892578.125,2894836181.640625,2895480468.75,2901073730.46875,2901988769.53125,2883527587.890625,2885918701.171875,2909282714.84375,2908161132.8125,2907359375.0,2848586181.640625,2876805419.921875,2884597412.109375,2902251220.703125,2901574707.03125,2885672363.28125,2907995361.328125,2908146484.375,2884913085.9375,2876123291.015625,2884981201.171875,2897473876.953125,2899325927.734375,2854178222.65625,2886845214.84375,2877618164.0625,2885846435.546875,2885928466.796875
0.08,2363374023.4375,2356515869.140625,2352593261.71875,2366281982.421875,2348801269.53125,2381489257.8125,2380011718.75,2376845703.125,2324639160.15625,2362119140.625,2346418457.03125,2347959960.9375,2347320068.359375,2371103759.765625,2381507812.5,2328702636.71875,2328308837.890625,2336882080.078125,2361211425.78125,2349318115.234375,2347259765.625,2339017333.984375,2333907470.703125,2432673339.84375,2318647216.796875,2341951904.296875,2356952880.859375,2349982421.875,2350753417.96875,2347508544.921875,2328934814.453125,2284094482.421875,2347807373.046875,2317796630.859375,2339195312.5,2335928955.078125,2346988281.25,2350827636.71875,2351815185.546875,2332447753.90625,2334849121.09375,2348337158.203125,2347828369.140625,2346644287.109375,2292146240.234375,2329446289.0625,2337230957.03125,2350232666.015625,2349674316.40625,2334517333.984375,2347534912.109375,2347741943.359375,2330099365.234375,2328837402.34375,2337437500.0,2345465087.890625,2346999755.859375,2304075195.3125,2331894287.109375,2330197021.484375,2338002685.546875,2338788818.359375
0.085,2239330322.265625,2233540039.0625,2229655273.4375,2242711181.640625,2224705322.265625,2267956054.6875,2262479248.046875,2258729492.1875,2173612060.546875,2241041992.1875,2225161132.8125,2226404785.15625,2225486572.265625,2248696777.34375,2268367919.921875,2215674560.546875,2212872802.734375,2217246826.171875,2239905761.71875,2228687011.71875,2226766357.421875,2216950439.453125,2215504394.53125,2316816406.25,2203131347.65625,2223792968.75,2237058105.46875,2235561279.296875,2233699951.171875,2228065429.6875,2209950683.59375,2166491699.21875,2229228515.625,2202416015.625,2215854003.90625,2219235595.703125,2231896240.234375,2233840576.171875,2234234863.28125,2214741699.21875,2217126708.984375,2229507324.21875,2229282226.5625,2227911132.8125,2174035644.53125,2216760742.1875,2223958251.953125,2233264648.4375,2232738037.109375,2216875244.140625,2228903320.3125,2229113281.25,2211530273.4375,2216209716.796875,2223978759.765625,2228190673.828125,2229719726.5625,2195263916.015625,2213398437.5,2217586425.78125,2224783691.40625,2225954589.84375
0.09,2610954833.984375,2602350585.9375,2596804687.5,2611769287.109375,2592875488.28125,2639398437.5,2634227050.78125,2630314697.265625,2571399169.921875,2609014648.4375,2592012207.03125,2593549316.40625,2592722412.109375,2615945312.5,2639610351.5625,2587401367.1875,2588132080.078125,2593600341.796875,2608254638.671875,2596479492.1875,2594902343.75,2583636718.75,2583861572.265625,2688008056.640625,2576117919.921875,2594762939.453125,2606925537.109375,2606890625.0,2603862304.6875,2596178466.796875,2578110595.703125,2534930419.921875,2604505615.234375,2575343017.578125,2587977783.203125,2594254882.8125,2602787109.375,2603892822.265625,2603595947.265625,2585129638.671875,2587456054.6875,2605371826.171875,2604825683.59375,2603532958.984375,2544668212.890625,2587904296.875,2595419921.875,2605291748.046875,2604733886.71875,2587442138.671875,2604509765.625,2604769287.109375,2582171630.859375,2587316894.53125,2595328613.28125,2599845947.265625,2601572021.484375,2573562011.71875,2584328613.28125,2588848632.8125,2596605224.609375,2597555908.203125
0.095,2901947998.046875,2890443359.375,2885787109.375,2893880126.953125,2880239501.953125,2908048339.84375,2910747314.453125,2907456787.109375,2946890869.140625,2888121826.171875,2870926513.671875,2872823486.328125,2872337890.625,2898869140.625,2907893554.6875,2856569580.078125,2870336914.0625,2882735107.421875,2886302978.515625,2873374267.578125,2871873535.15625,2862310791.015625,2862570312.5,2957152587.890625,2848542724.609375,2869177246.09375,2882051269.53125,2880909179.6875,2877537841.796875,2870877929.6875,2853697998.046875,2811377685.546875,2885180908.203125,2847623046.875,2868529541.015625,2872780517.578125,2875092529.296875,2877368896.484375,2876844726.5625,2860513671.875,2862876220.703125,2886721923.828125,2885894042.96875,2884732421.875,2817024414.0625,2855940429.6875,2866203125.0,2881124023.4375,2880677490.234375,2863020507.8125,2885649658.203125,2885948486.328125,2855488281.25,2855330322.265625,2866130615.234375,2875755126.953125,2877564941.40625,2844446777.34375,2857936279.296875,2857014404.296875,2867406982.421875,2868043457.03125
0.1,2890682128.90625,2879207763.671875,2879748291.015625,2871539306.640625,2868895263.671875,2863587402.34375,2876114990.234375,2873724853.515625,3020685302.734375,2864505126.953125,2849149658.203125,2851041503.90625,2850681884.765625,2882546875.0,2863304931.640625,2815137695.3125,2845510498.046875,2863764160.15625,2860286621.09375,2847866455.078125,2846146240.234375,2840640869.140625,2840437011.71875,2911519042.96875,2810198974.609375,2835963378.90625,2849751220.703125,2846881835.9375,2844220703.125,2841405761.71875,2825864013.671875,2786017089.84375,2856477783.203125,2809182617.1875,2843690673.828125,2845012695.3125,2838970214.84375,2843791259.765625,2843386962.890625,2828545166.015625,2831064208.984375,2858320556.640625,2857625488.28125,2856522705.078125,2782100830.078125,2812476562.5,2826918457.03125,2847431396.484375,2847197265.625,2831101562.5,2857301757.8125,2857489501.953125,2819742919.921875,2811984863.28125,2826975097.65625,2842686279.296875,2844454345.703125,2799068603.515625,2822285400.390625,2813676025.390625,2827856689.453125,2828509521.484375
0.105,2745089355.46875,2735976074.21875,2741931152.34375,2720687500.0,2725916992.1875,2697782714.84375,2714772705.078125,2712842773.4375,2888879882.8125,2715343505.859375,2702197753.90625,2703820312.5,2703254394.53125,2739791748.046875,2697578125.0,2655470214.84375,2693788330.078125,2711883544.921875,2709813720.703125,2699472167.96875,2697601074.21875,2695307617.1875,2695106933.59375,2744082275.390625,2651821533.203125,2682479736.328125,2695469238.28125,2690629394.53125,2689787841.796875,2690495117.1875,2675802734.375,2638723388.671875,2701096679.6875,2650759765.625,2695461181.640625,2696482421.875,2682596435.546875,2689126464.84375,2688736572.265625,2673335449.21875,2675873291.015625,2702952392.578125,2702458251.953125,2701398437.5,2628250732.421875,2651267089.84375,2667876464.84375,2689564208.984375,2689358398.4375,2675639892.578125,2701949462.890625,2701972900.390625,2662677001.953125,2650964111.328125,2668085693.359375,2685478515.625,2687294189.453125,2636448242.1875,2665129150.390625,2652540039.0625,2668797607.421875,2669573730.46875
0.11,2349443359.375,2342421875.0,2349482421.875,2327058105.46875,2331020263.671875,2304542724.609375,2320208251.953125,2318446777.34375,2432053955.078125,2324853515.625,2311614990.234375,2312891113.28125,2312208984.375,2352462158.203125,2304473144.53125,2267943359.375,2301215332.03125,2316164794.921875,2320422607.421875,2311079101.5625,2309213867.1875,2308394042.96875,2309297119.140625,2352092773.4375,2263980224.609375,2296948242.1875,2308085693.359375,2301555908.203125,2302729492.1875,2303570068.359375,2288573242.1875,2253386474.609375,2307006835.9375,2262894531.25,2308070312.5,2310410888.671875,2296196289.0625,2302084472.65625,2301513183.59375,2285462402.34375,2287671142.578125,2308511474.609375,2308058593.75,2307014160.15625,2242235839.84375,2267730468.75,2282255371.09375,2300054199.21875,2299636474.609375,2287254150.390625,2307417968.75,2307508789.0625,2275329101.5625,2267475097.65625,2282567382.8125,2296169921.875,2298119873.046875,2253179687.5,2277620605.46875,2268976074.21875,2283336914.0625,2283982177.734375
0.115,1545108764.6484375,1539496215.8203125,1544315917.96875,1526761474.609375,1524675292.96875,1514079467.7734375,1527776977.5390625,1526441650.390625,1553182739.2578125,1528076660.15625,1512187011.71875,1513080444.3359375,1512678222.65625,1556633300.78125,1514199462.890625,1478979370.1171875,1502162963.8671875,1515909545.8984375,1525813476.5625,1515039062.5,1513087402.34375,1513682617.1875,1516643798.828125,1566360839.84375,1475402099.609375,1507884765.625,1518746459.9609375,1512201049.8046875,1514771362.3046875,1512289672.8515625,1497421508.7890625,1463781127.9296875,1508967773.4375,1474371337.890625,1512546752.9296875,1515014038.0859375,1510603271.484375,1514474243.1640625,1513901367.1875,1500261230.46875,1502062744.140625,1509619628.90625,1509347167.96875,1508150756.8359375,1451674560.546875,1491249389.6484375,1501357421.875,1514993896.484375,1514404541.015625,1501639526.3671875,1508707275.390625,1509103393.5546875,1488775878.90625,1490829589.84375,1501698730.46875,1510883422.8515625,1512846923.828125,1474185180.6640625,1490864746.09375,1492371704.1015625,1502194702.1484375,1502601562.5
0.12,863923950.1953125,861821533.203125,865205505.3710938,848583496.09375,844133850.0976562,843499206.5429688,858055175.78125,857136474.609375,831765380.859375,854359436.0351562,835903503.4179688,836538513.1835938,836504577.6367188,883328247.0703125,843837707.5195312,806801330.5664062,824240783.6914062,838702819.8242188,853506042.4804688,840463562.0117188,838330993.6523438,840706970.2148438,845572998.046875,901031372.0703125,805954101.5625,836350769.0429688,850004272.4609375,845632995.6054688,848775512.6953125,842610229.4921875,829266845.703125,796811767.578125,833854919.4335938,805117248.5351562,835942932.1289062,837346313.4765625,846253112.7929688,848888732.9101562,848787719.7265625,839490112.3046875,841316528.3203125,833656372.0703125,833816955.5664062,832288757.3242188,778531555.1757812,834049804.6875,841639404.296875,855442138.671875,854871704.1015625,840932250.9765625,833269897.4609375,833836608.8867188,822296813.9648438,833447692.8710938,841935729.9804688,850977905.2734375,852820312.5,810214416.5039062,824141235.3515625,835029235.8398438,841846618.6523438,842335021.9726562
0.125,957751220.703125,962870544.4335938,967061401.3671875,945327636.71875,945039306.640625,939238525.390625,956774719.2382812,955576477.0507812,915408508.3007812,956510131.8359375,938021789.5507812,938681213.3789062,938661499.0234375,986125183.1054688,939738708.4960938,902371704.1015625,920196105.9570312,935000183.1054688,955893615.7226562,941672058.1054688,939569763.1835938,942564208.984375,948214172.3632812,1000444885.2539062,905105102.5390625,933454772.9492188,951529479.9804688,950354370.1171875,952893249.5117188,946007324.21875,934392944.3359375,900913696.2890625,932596984.8632812,904533386.2304688,931414672.8515625,932996093.75,950146179.1992188,953142089.84375,953735168.4570312,946057189.9414062,948320007.3242188,932258666.9921875,932678466.796875,930856140.1367188,874809204.1015625,936596496.5820312,945461730.9570312,962978881.8359375,962414245.6054688,947904113.7695312,932215515.1367188,932619506.8359375,922904113.7695312,936029418.9453125,945681823.7304688,958196716.3085938,959967590.3320312,907531433.1054688,924572998.046875,937517028.8085938,945317321.7773438,946255981.4453125
0.13,1417573608.3984375,1430156494.140625,1435864868.1640625,1406848510.7421875,1413787231.4453125,1393029418.9453125,1413997436.5234375,1412154174.8046875,1380621093.75,1422398315.4296875,1406221191.40625,1406931274.4140625,1406678833.0078125,1453685791.015625,1393686157.2265625,1359610473.6328125,1381367797.8515625,1396482299.8046875,1421098754.8828125,1407069946.2890625,1405243164.0625,1407708374.0234375,1413529541.015625,1457739868.1640625,1363971801.7578125,1391451293.9453125,1412439575.1953125,1413944458.0078125,1414589111.328125,1410335083.0078125,1399576293.9453125,1362679931.640625,1395238525.390625,1363573852.5390625,1389088989.2578125,1392961425.78125,1410536132.8125,1414713989.2578125,1415657714.84375,1406130493.1640625,1408569091.796875,1395283813.4765625,1395536499.0234375,1393654541.015625,1333241943.359375,1389826416.015625,1401588745.1171875,1422600463.8671875,1421881958.0078125,1408130859.375,1395052246.09375,1395272094.7265625,1382268798.828125,1389500488.28125,1401808105.46875,1417654907.2265625,1419402099.609375,1363252563.4765625,1383965942.3828125,1390817871.09375,1401558105.46875,1402900756.8359375
0.135,1302621459.9609375,1317118041.9921875,1324678222.65625,1289256591.796875,1302322753.90625,1266417846.6796875,1290668090.8203125,1288878540.0390625,1295856567.3828125,1305892456.0546875,1292387695.3125,1292823608.3984375,1292524536.1328125,1340394042.96875,1267292968.75,1238180908.203125,1266085449.21875,1282288085.9375,1303212280.2734375,1290338623.046875,1288679321.2890625,1291839721.6796875,1298499267.578125,1335772827.1484375,1241923339.84375,1269886718.75,1290359985.3515625,1292897949.21875,1291896972.65625,1290963500.9765625,1281154663.0859375,1242509643.5546875,1281618286.1328125,1241507324.21875,1268324096.6796875,1274609985.3515625,1286505981.4453125,1291915283.203125,1292613525.390625,1282784301.7578125,1284749023.4375,1281817138.671875,1281829956.0546875,1280103637.6953125,1214376708.984375,1261176147.4609375,1274274169.921875,1297302734.375,1296480834.9609375,1284445556.640625,1281227050.78125,1281556152.34375,1262735473.6328125,1261057617.1875,1274611450.1953125,1292554199.21875,1294146972.65625,1243459228.515625,1264610839.84375,1262299194.3359375,1274323242.1875,1275666381.8359375
0.14,727773681.640625,737462158.203125,748195556.640625,709601562.5,725739013.671875,680019042.96875,706643005.3710938,705652770.9960938,778297973.6328125,724104736.328125,712098754.8828125,712182922.3632812,712073669.4335938,761990051.2695312,680974182.1289062,655954223.6328125,690837158.203125,706929199.21875,720354614.2578125,709235717.7734375,707469055.1757812,713520263.671875,721680175.78125,751858581.5429688,659165283.203125,688845153.8085938,706597229.0039062,707836547.8515625,707611389.1601562,708024841.3085938,700322021.484375,665492431.640625,710053710.9375,658600646.9726562,691577575.6835938,698251831.0546875,701160583.4960938,707648742.6757812,707855895.9960938,702179443.359375,703554748.5351562,710162902.8320312,710204223.6328125,708725830.078125,638100402.8320312,677235046.3867188,689747192.3828125,714604431.1523438,713941467.2851562,703498596.1914062,709520019.53125,710050598.1445312,684496337.890625,677105407.7148438,690158264.1601562,710417663.5742188,711782775.8789062,667258056.640625,686464721.6796875,678403015.1367188,689652648.9257812,690676025.390625
0.145,683924560.546875,688111694.3359375,701861145.0195312,666349304.1992188,681949157.7148438,632750427.2460938,659801086.4257812,659234741.2109375,779854064.9414062,677990783.6914062,665952941.8945312,666155273.4375,666130859.375,717230041.5039062,633433227.5390625,610489257.8125,649163146.9726562,663059082.03125,675172363.28125,665035766.6015625,663112731.9335938,671984619.140625,680610961.9140625,700950317.3828125,615016174.3164062,647408874.5117188,663620300.2929688,661974426.2695312,664503173.828125,664086181.640625,658302185.0585938,630106018.0664062,672198242.1875,614343017.578125,656644653.3203125,661574951.171875,657613830.5664062,664541564.9414062,664516418.4570312,662947143.5546875,664319580.078125,672590148.9257812,672744934.0820312,671510803.2226562,599869201.6601562,636411071.7773438,648675964.3554688,674727966.3085938,674316040.0390625,664395019.53125,672106201.171875,672585327.1484375,643397827.1484375,636101806.640625,648917114.2578125,671054199.21875,672419311.5234375,627468627.9296875,645216064.453125,637453308.1054688,648620910.6445312,649361450.1953125
0.15,1269299438.4765625,1275183593.75,1287982543.9453125,1260885742.1875,1273296508.7890625,1225825561.5234375,1251970092.7734375,1250975219.7265625,1348444458.0078125,1271786621.09375,1258632812.5,1259297851.5625,1259139648.4375,1310962036.1328125,1226157470.703125,1202770751.953125,1238589721.6796875,1252088134.765625,1272174804.6875,1260410644.53125,1258432861.328125,1268018798.828125,1275086669.921875,1287655273.4375,1209759765.625,1244609130.859375,1262687622.0703125,1259388671.875,1263251098.6328125,1261378784.1796875,1255283569.3359375,1229233154.296875,1261796386.71875,1209134399.4140625,1256017211.9140625,1258648925.78125,1257223144.53125,1263193847.65625,1263263061.5234375,1260313964.84375,1262086181.640625,1262733642.578125,1262832275.390625,1261710815.4296875,1194794067.3828125,1235080932.6171875,1248719360.3515625,1272952636.71875,1272581665.0390625,1262063720.703125,1262263549.8046875,1262568603.515625,1238416503.90625,1234617431.640625,1248658447.265625,1269320922.8515625,1270950195.3125,1221593261.71875,1239937255.859375,1235921997.0703125,1248995239.2578125,1249712036.1328125
0.155,1547821533.203125,1564476562.5,1571561279.296875,1551313720.703125,1560873413.0859375,1518339721.6796875,1544404663.0859375,1542884277.34375,1546596923.828125,1564609619.140625,1550441894.53125,1551257568.359375,1550980834.9609375,1605917114.2578125,1518692993.1640625,1493324584.9609375,1520926757.8125,1538347167.96875,1568380126.953125,1553052001.953125,1551025024.4140625,1560291870.1171875,1565487182.6171875,1580019165.0390625,1501853149.4140625,1536782348.6328125,1558754150.390625,1557322998.046875,1558933959.9609375,1556222290.0390625,1548383544.921875,1517584472.65625,1540744018.5546875,1501359741.2109375,1541740234.375,1543527221.6796875,1554872192.3828125,1558778076.171875,1558998168.9453125,1551193847.65625,1553038208.0078125,1541716674.8046875,1541712768.5546875,1540434814.453125,1480576538.0859375,1529826660.15625,1544830322.265625,1564760864.2578125,1564226196.2890625,1552861206.0546875,1541108886.71875,1541456909.1796875,1530377319.3359375,1529367553.7109375,1544708740.234375,1560789062.5,1562588989.2578125,1511698486.328125,1531699462.890625,1530587890.625,1545325805.6640625,1546153686.5234375
0.16,1385022583.0078125,1414624267.578125,1415489379.8828125,1395646728.515625,1405360961.9140625,1368280883.7890625,1395986206.0546875,1394252441.40625,1298810302.734375,1412813842.7734375,1399101074.21875,1399748657.2265625,1399436889.6484375,1459965087.890625,1368836791.9921875,1343438598.6328125,1362440185.546875,1382810913.0859375,1417839599.609375,1400520751.953125,1398516967.7734375,1408150390.625,1413873901.3671875,1438455200.1953125,1350779296.875,1383183349.609375,1407540649.4140625,1409938842.7734375,1407661743.1640625,1405026733.3984375,1396857055.6640625,1360432250.9765625,1379082763.671875,1350286376.953125,1376961669.921875,1380703002.9296875,1405152709.9609375,1407434448.2421875,1407782592.7734375,1397853271.484375,1399402954.1015625,1379680786.1328125,1379661621.09375,1378038452.1484375,1322023437.5,1379734008.7890625,1394000976.5625,1411528930.6640625,1410848144.53125,1399221191.40625,1379010864.2578125,1379469726.5625,1380087036.1328125,1379426147.4609375,1394163452.1484375,1407249267.578125,1408927490.234375,1361002563.4765625,1381482421.875,1380641113.28125,1394602050.78125,1395387451.171875
0.165,1703582763.671875,1738041137.6953125,1736420166.015625,1714358276.3671875,1726543823.2421875,1692231323.2421875,1721742675.78125,1719583496.09375,1595333618.1640625,1733828613.28125,1721825805.6640625,1722637451.171875,1722200317.3828125,1786488647.4609375,1692555297.8515625,1671390136.71875,1686400024.4140625,1702620971.6796875,1737746093.75,1721948242.1875,1720254760.7421875,1730197265.625,1738893798.828125,1770768432.6171875,1674750366.2109375,1704938598.6328125,1728374511.71875,1732714111.328125,1728146850.5859375,1726410156.25,1719832031.25,1683368774.4140625,1701183715.8203125,1674028198.2421875,1691124633.7890625,1698706542.96875,1725648559.5703125,1727802124.0234375,1728371582.03125,1720206787.109375,1721771850.5859375,1701925537.109375,1701844848.6328125,1700027954.1015625,1643031860.3515625,1702017578.125,1714286254.8828125,1733699829.1015625,1732963867.1875,1721669433.59375,1701290283.203125,1701529052.734375,1703795776.3671875,1701900268.5546875,1714673950.1953125,1729340332.03125,1730876708.984375,1685805297.8515625,1705492187.5,1703195068.359375,1715299316.40625,1715838012.6953125
0.17,2406779296.875,2433885986.328125,2433084716.796875,2412129394.53125,2426080566.40625,2389983154.296875,2419561279.296875,2416896240.234375,2356744140.625,2430705810.546875,2419205566.40625,2420438964.84375,2419881591.796875,2482864257.8125,2389769287.109375,2373181396.484375,2391744384.765625,2400964843.75,2432457519.53125,2418975097.65625,2417642089.84375,2426374755.859375,2437362792.96875,2467877685.546875,2372334228.515625,2403313476.5625,2424198730.46875,2427536132.8125,2422642578.125,2422094726.5625,2416155761.71875,2384026123.046875,2403060546.875,2371371826.171875,2390358398.4375,2400269287.109375,2419351806.640625,2422224121.09375,2422854003.90625,2415692382.8125,2417691650.390625,2404314453.125,2404163085.9375,2402528320.3125,2342357421.875,2395087890.625,2407258544.921875,2429301757.8125,2428537597.65625,2417548583.984375,2403727294.921875,2403642089.84375,2399095703.125,2395079345.703125,2407427001.953125,2425006591.796875,2426653320.3125,2380218505.859375,2401076660.15625,2396437744.140625,2408647216.796875,2409047363.28125
0.175,1867302490.234375,1881272949.21875,1881814086.9140625,1863440917.96875,1877104736.328125,1836817749.0234375,1864372802.734375,1862431152.34375,1911922973.6328125,1879484863.28125,1865205932.6171875,1866066162.109375,1865781005.859375,1924592773.4375,1836750488.28125,1818128417.96875,1847107177.734375,1855961914.0625,1879202270.5078125,1865001831.0546875,1863419433.59375,1870468261.71875,1880696655.2734375,1907702758.7890625,1816497924.8046875,1849950317.3828125,1869322387.6953125,1871550170.8984375,1866467895.5078125,1866238647.4609375,1858094970.703125,1828909912.109375,1853073364.2578125,1815627319.3359375,1844820678.7109375,1852783935.546875,1862989746.09375,1866265502.9296875,1866218872.0703125,1856974731.4453125,1858974853.515625,1853737792.96875,1853906982.421875,1852615722.65625,1788968017.578125,1834317871.09375,1849692016.6015625,1870570556.640625,1869852905.2734375,1858712158.203125,1853327270.5078125,1853546997.0703125,1841531738.28125,1834264404.296875,1849415161.1328125,1866461059.5703125,1868281127.9296875,1817546386.71875,1843543334.9609375,1835586181.640625,1850334228.515625,1850971801.7578125
0.18,-418155334.47265625,-412963104.2480469,-411146301.26953125,-431774139.4042969,-418794250.48828125,-460095886.23046875,-436027618.4082031,-435711303.7109375,-304488189.6972656,-416702117.9199219,-435603485.1074219,-436210144.04296875,-435861297.6074219,-379938079.8339844,-458994781.4941406,-486626007.0800781,-445844726.5625,-431817840.5761719,-418096466.0644531,-435580383.30078125,-438103027.34375,-430998382.5683594,-423076965.33203125,-393148132.32421875,-484762115.4785156,-450830169.6777344,-431672241.2109375,-428603759.765625,-434223358.1542969,-435629791.2597656,-446481597.9003906,-475737579.3457031,-441703369.140625,-485179595.9472656,-446380157.4707031,-443497222.9003906,-437285247.8027344,-433958526.6113281,-435335083.0078125,-446025604.2480469,-444928497.3144531,-443058135.9863281,-442111389.16015625,-443288482.6660156,-512132446.2890625,-469917144.7753906,-450482055.6640625,-433175445.5566406,-433682647.7050781,-445132873.53515625,-443072448.73046875,-441888427.734375,-459111267.08984375,-470149078.3691406,-450875854.4921875,-436892089.84375,-435169403.0761719,-487919860.83984375,-457297698.9746094,-468939300.5371094,-451675659.1796875,-450667907.71484375
0.185,-2381343994.140625,-2378324218.75,-2374335937.5,-2401469970.703125,-2387757568.359375,-2423341796.875,-2403463134.765625,-2401256835.9375,-2249820800.78125,-2384497558.59375,-2406239257.8125,-2408051513.671875,-2407335449.21875,-2352335205.078125,-2421187500.0,-2456833740.234375,-2409862304.6875,-2395663574.21875,-2385566406.25,-2404954101.5625,-2408228515.625,-2399614501.953125,-2392478759.765625,-2354046142.578125,-2450469726.5625,-2419256347.65625,-2401020507.8125,-2396942382.8125,-2402262451.171875,-2405277832.03125,-2415789794.921875,-2444470214.84375,-2399426025.390625,-2450453125.0,-2408449707.03125,-2410141113.28125,-2405401367.1875,-2401741210.9375,-2404048583.984375,-2411623535.15625,-2411514892.578125,-2402317382.8125,-2400794433.59375,-2402119628.90625,-2480186767.578125,-2437471679.6875,-2416744384.765625,-2399980712.890625,-2400227539.0625,-2411447753.90625,-2401995117.1875,-2400171875.0,-2423643554.6875,-2437925292.96875,-2416795898.4375,-2403167724.609375,-2401763183.59375,-2449485595.703125,-2421981445.3125,-2436786865.234375,-2419137695.3125,-2418163330.078125
0.19,-2172913085.9375,-2172631591.796875,-2166561035.15625,-2196720214.84375,-2181304687.5,-2207591552.734375,-2191312011.71875,-2189204101.5625,-2051826904.296875,-2176705322.265625,-2198125000.0,-2199660400.390625,-2199176513.671875,-2145074218.75,-2205635986.328125,-2242035888.671875,-2196313964.84375,-2187236572.265625,-2176617187.5,-2194543945.3125,-2197673095.703125,-2188441650.390625,-2180366943.359375,-2134655273.4375,-2233603515.625,-2206037353.515625,-2190517333.984375,-2187351806.640625,-2191340087.890625,-2194904296.875,-2202272460.9375,-2227550292.96875,-2174230468.75,-2233509521.484375,-2193712646.484375,-2197536132.8125,-2195183593.75,-2191070312.5,-2193186035.15625,-2194735107.421875,-2194754150.390625,-2176635986.328125,-2175260009.765625,-2176657714.84375,-2266718750.0,-2222718750.0,-2204429931.640625,-2184091064.453125,-2184245849.609375,-2194502441.40625,-2176366943.359375,-2174867919.921875,-2205434570.3125,-2223346679.6875,-2204111572.265625,-2186855712.890625,-2185696777.34375,-2220804199.21875,-2203692382.8125,-2222152587.890625,-2206267822.265625,-2205816894.53125
0.195,-951722839.3554688,-959649108.8867188,-954018310.546875,-980328186.0351562,-964199157.7148438,-984019836.4257812,-969106872.5585938,-968005493.1640625,-838745910.6445312,-958462951.6601562,-978685363.7695312,-979176147.4609375,-979005310.0585938,-926098815.9179688,-983001037.5976562,-1015961547.8515625,-974400085.4492188,-961302001.953125,-958063537.5976562,-973242065.4296875,-975783874.5117188,-967478149.4140625,-959309753.4179688,-910078491.2109375,-1007753479.0039062,-982387512.2070312,-969639221.1914062,-967552185.0585938,-970457824.7070312,-974065124.5117188,-979293640.1367188,-1001109436.0351562,-942176452.6367188,-1007822814.9414062,-971022583.0078125,-975037231.4453125,-974480834.9609375,-970581237.7929688,-972222656.25,-970119140.625,-969729003.90625,-943240356.4453125,-942338562.0117188,-943574401.8554688,-1042670654.296875,-996221862.7929688,-982005371.09375,-959739746.09375,-959984375.0,-969558776.8554688,-943254577.6367188,-942342285.15625,-972916320.8007812,-996927001.953125,-981638183.59375,-962378356.9335938,-961337585.4492188,-981110595.703125,-970991027.8320312,-995601684.5703125,-982747131.3476562,-982751770.0195312
0.2,-935197387.6953125,-950571350.0976562,-947852478.0273438,-969172241.2109375,-954501831.0546875,-972641235.3515625,-956637573.2421875,-955503967.2851562,-829498962.4023438,-946803955.078125,-967296936.0351562,-967475463.8671875,-967145446.7773438,-914629821.7773438,-971939941.40625,-1003704162.5976562,-964961120.6054688,-934753479.0039062,-947444396.9726562,-961298461.9140625,-963672546.3867188,-956144042.96875,-949732299.8046875,-898837097.1679688,-995983032.2265625,-971187133.7890625,-958623779.296875,-954383666.9921875,-956868103.0273438,-962204284.6679688,-968565612.7929688,-990191589.3554688,-927690490.7226562,-996114990.234375,-960095092.7734375,-962778381.3476562,-960085632.3242188,-956945495.6054688,-959236877.4414062,-958659240.7226562,-958240539.5507812,-928552001.953125,-927809753.4179688,-928950927.734375,-1028376831.0546875,-975986816.40625,-965030517.578125,-947198669.4335938,-947546325.6835938,-958195129.3945312,-928654052.734375,-927608215.3320312,-945250549.3164062,-976654968.2617188,-964789428.7109375,-950071166.9921875,-949169311.5234375,-958978820.8007812,-943247924.8046875,-975267150.8789062,-965814941.40625,-965739624.0234375
0.205,-1772770385.7421875,-1785430908.203125,-1784931518.5546875,-1806218994.140625,-1794201293.9453125,-1812065185.546875,-1794067871.09375,-1792269775.390625,-1692448608.3984375,-1782822021.484375,-1804430053.7109375,-1805007080.078125,-1804388427.734375,-1752364868.1640625,-1810897705.078125,-1843894897.4609375,-1806861450.1953125,-1770001708.984375,-1783925292.96875,-1798313598.6328125,-1800908813.4765625,-1793231201.171875,-1788244995.1171875,-1737423828.125,-1836668701.171875,-1811589599.609375,-1796142211.9140625,-1786731933.59375,-1788501708.984375,-1797723022.4609375,-1806522705.078125,-1830694580.078125,-1768840087.890625,-1836740600.5859375,-1800102783.203125,-1800078125.0,-1791087036.1328125,-1788130859.375,-1792092041.015625,-1796073486.328125,-1795895507.8125,-1770348754.8828125,-1769592163.0859375,-1771032836.9140625,-1862765747.0703125,-1801708984.375,-1792385498.046875,-1781809204.1015625,-1782207641.6015625,-1795790039.0625,-1770341430.6640625,-1768703491.2109375,-1767262939.453125,-1802242309.5703125,-1792170410.15625,-1785267822.265625,-1784476074.21875,-1794883422.8515625,-1765238891.6015625,-1800905883.7890625,-1793865966.796875,-1793429931.640625
0.21,-1209782104.4921875,-1211046264.6484375,-1209749267.578125,-1234742065.4296875,-1223824951.171875,-1240805053.7109375,-1221026733.3984375,-1219933227.5390625,-1167897705.078125,-1208214721.6796875,-1230028442.3828125,-1230382934.5703125,-1230076538.0859375,-1180971557.6171875,-1239514038.0859375,-1271390869.140625,-1235718505.859375,-1227911132.8125,-1207410522.4609375,-1223537719.7265625,-1226025146.484375,-1218642333.984375,-1213017700.1953125,-1165043212.890625,-1265543579.1015625,-1239890258.7890625,-1220631713.8671875,-1207060791.015625,-1207951416.015625,-1220538574.21875,-1229893676.7578125,-1256490844.7265625,-1199660156.25,-1265746093.75,-1229597534.1796875,-1227984375.0,-1211002075.1953125,-1207361083.984375,-1212337036.1328125,-1219412353.515625,-1218788085.9375,-1200774780.2734375,-1200396484.375,-1202355590.8203125,-1286509399.4140625,-1218906372.0703125,-1210123779.296875,-1201790649.4140625,-1202241088.8671875,-1218620483.3984375,-1200883544.921875,-1199284179.6875,-1187573364.2578125,-1219285766.6015625,-1209877075.1953125,-1205965698.2421875,-1205041870.1171875,-1223008544.921875,-1185415283.203125,-1217971923.828125,-1211177001.953125,-1210657470.703125
0.215,1125916992.1875,1133127197.265625,1136957763.671875,1108954467.7734375,1122509765.625,1104945678.7109375,1126994995.1171875,1125853515.625,1145112792.96875,1140190063.4765625,1118749877.9296875,1119646118.1640625,1119095092.7734375,1163593627.9296875,1105453002.9296875,1077864990.234375,1114740600.5859375,1068597534.1796875,1143938842.7734375,1124780029.296875,1122906982.421875,1128937988.28125,1135746948.2421875,1181573364.2578125,1082355468.75,1107948730.46875,1129509033.203125,1143406005.859375,1141551269.53125,1128865478.515625,1121294799.8046875,1094072998.046875,1147492919.921875,1081727416.9921875,1115807739.2578125,1113775390.625,1137937988.28125,1141776245.1171875,1137457031.25,1131407836.9140625,1133281982.421875,1148123046.875,1147790527.34375,1145602416.9921875,1060938476.5625,1128636962.890625,1137116943.359375,1150560180.6640625,1150081054.6875,1133211791.9921875,1147530639.6484375,1148231079.1015625,1153756713.8671875,1128322631.8359375,1137265869.140625,1146011596.6796875,1147254882.8125,1124914916.9921875,1156043212.890625,1129790283.203125,1137758666.9921875,1138041015.625
0.22,3045892578.125,3051775634.765625,3057134765.625,3027449707.03125,3046111083.984375,3026200683.59375,3051494140.625,3048667968.75,3067907470.703125,3062405761.71875,3040174072.265625,3042219726.5625,3041083007.8125,3083759521.484375,3025812011.71875,3000623535.15625,3041946777.34375,2955561523.4375,3067187744.140625,3043816894.53125,3042484375.0,3048209472.65625,3054531494.140625,3104718750.0,3005711181.640625,3029299072.265625,3050995849.609375,3062495849.609375,3056949218.75,3046850097.65625,3041549072.265625,3015601074.21875,3072867919.921875,3004717529.296875,3037339355.46875,3025895507.8125,3054221191.40625,3056610839.84375,3053671142.578125,3051545410.15625,3054374511.71875,3074874023.4375,3074090087.890625,3072142578.125,2979010009.765625,3041212646.484375,3049004882.8125,3069517333.984375,3069106445.3125,3053900390.625,3073817626.953125,3073697021.484375,3063876220.703125,3040827392.578125,3048995117.1875,3065212402.34375,3066623291.015625,3049428955.078125,3065956542.96875,3042555664.0625,3050902587.890625,3051050537.109375
0.225,3115643066.40625,3115661376.953125,3120957763.671875,3088893066.40625,3110847412.109375,3091423339.84375,3118904785.15625,3116113281.25,3141268066.40625,3123797119.140625,3099819091.796875,3102008056.640625,3101003417.96875,3147609863.28125,3090851318.359375,3062777832.03125,3106696533.203125,3011723632.8125,3127163085.9375,3100388427.734375,3099166503.90625,3107978271.484375,3112885009.765625,3172549072.265625,3069877197.265625,3089572509.765625,3110231933.59375,3119082275.390625,3109610839.84375,3102152587.890625,3098710205.078125,3075764648.4375,3139724365.234375,3068917236.328125,3102289306.640625,3080898925.78125,3108752929.6875,3109075439.453125,3106872802.734375,3108277343.75,3111025878.90625,3141710449.21875,3140868896.484375,3139262207.03125,3036623046.875,3093462890.625,3100117431.640625,3124119873.046875,3123817871.09375,3110424560.546875,3140550292.96875,3140360107.421875,3119703369.140625,3092915771.484375,3100123779.296875,3120369628.90625,3121670166.015625,3114775390.625,3121243896.484375,3094785156.25,3101921386.71875,3102163574.21875
0.23,2468634521.484375,2466281005.859375,2471886718.75,2436973144.53125,2457868164.0625,2444380371.09375,2470159667.96875,2467904296.875,2476863281.25,2467541992.1875,2443435546.875,2445240722.65625,2444698730.46875,2498610107.421875,2444049804.6875,2410839599.609375,2450134521.484375,2355678955.078125,2469462402.34375,2442615722.65625,2441402587.890625,2456024169.921875,2460956787.109375,2525194335.9375,2418521484.375,2434491943.359375,2454325439.453125,2460926025.390625,2450726562.5,2445093017.578125,2443899902.34375,2425057373.046875,2487851806.640625,2417829101.5625,2452631103.515625,2426382812.5,2450641601.5625,2450360107.421875,2448450439.453125,2451306884.765625,2453544189.453125,2489396728.515625,2488452148.4375,2486909179.6875,2379101318.359375,2436138916.015625,2441621337.890625,2465896240.234375,2465642578.125,2453190917.96875,2488337646.484375,2488410644.53125,2467533447.265625,2435417724.609375,2441818115.234375,2462529052.734375,2463706054.6875,2463856933.59375,2468661865.234375,2437191650.390625,2443004882.8125,2443186523.4375
0.235,2573087890.625,2572389160.15625,2580422851.5625,2544426269.53125,2562313232.421875,2554885253.90625,2575482421.875,2572944091.796875,2554109375.0,2569032714.84375,2547816650.390625,2549531250.0,2549291015.625,2608932373.046875,2554550781.25,2519007080.078125,2548615722.65625,2439657714.84375,2571252441.40625,2547497314.453125,2546517089.84375,2566520996.09375,2573150634.765625,2630468017.578125,2524644287.109375,2538951904.296875,2559120361.328125,2563179199.21875,2555726074.21875,2552442382.8125,2553901855.46875,2538809082.03125,2589975341.796875,2524028564.453125,2558186767.578125,2532046875.0,2554681152.34375,2555454589.84375,2554566162.109375,2557846923.828125,2560024414.0625,2591753906.25,2590510498.046875,2588881591.796875,2480027099.609375,2542625732.421875,2547059570.3125,2571551757.8125,2571342529.296875,2559900146.484375,2590669677.734375,2590750976.5625,2574506103.515625,2541787353.515625,2547354980.46875,2568375976.5625,2569640380.859375,2572768310.546875,2575668457.03125,2543328857.421875,2548726806.640625,2548497558.59375
0.24,3094235107.421875,3095208984.375,3106817382.8125,3072264404.296875,3088800048.828125,3081039794.921875,3097557128.90625,3094379638.671875,3060783447.265625,3092775634.765625,3075011474.609375,3076912841.796875,3076789794.921875,3138238281.25,3080497558.59375,3046264892.578125,3068175781.25,2944820312.5,3096161621.09375,3074852294.921875,3074133544.921875,3096611328.125,3104615234.375,3150156494.140625,3049314208.984375,3063678466.796875,3085666503.90625,3086758300.78125,3082508544.921875,3082094726.5625,3084719482.421875,3071764648.4375,3111606933.59375,3048506835.9375,3079713867.1875,3054240722.65625,3080785156.25,3082077636.71875,3082878906.25,3086678955.078125,3089160156.25,3113919433.59375,3112557617.1875,3111058593.75,3002840087.890625,3070961181.640625,3073980224.609375,3098943115.234375,3098859619.140625,3088941894.53125,3112666015.625,3112676269.53125,3096510253.90625,3070138671.875,3074135742.1875,3096002685.546875,3097423583.984375,3105154541.015625,3097872314.453125,3071475830.078125,3076149902.34375,3075589599.609375
0.245,3021662109.375,3023592773.4375,3036854492.1875,3005423095.703125,3021279296.875,3009465576.171875,3027560791.015625,3024352294.921875,2987500244.140625,3024708496.09375,3006715332.03125,3008652343.75,3008562744.140625,3069119628.90625,3008973144.53125,2976620117.1875,2995384521.484375,2893630371.09375,3028716308.59375,3005003417.96875,3004279785.15625,3026216552.734375,3034258544.921875,3076859619.140625,2979042968.75,2993316894.53125,3018135498.046875,3016445068.359375,3013140380.859375,3013243408.203125,3014341552.734375,3001675048.828125,3042410400.390625,2978111083.984375,3006235351.5625,2979986816.40625,3013014160.15625,3012605712.890625,3014094238.28125,3017662109.375,3020197021.484375,3044715576.171875,3043577636.71875,3042396484.375,2935223876.953125,3004457763.671875,3005586914.0625,3029338134.765625,3029336181.640625,3019759033.203125,3043383789.0625,3043644531.25,3020487304.6875,3003816894.53125,3005529052.734375,3026500732.421875,3027929199.21875,3042070312.5,3021754882.8125,3005058593.75,3007602050.78125,3007271240.234375
0.25,2498149169.921875,2501708740.234375,2512949951.171875,2485726562.5,2497505126.953125,2486731201.171875,2511583007.8125,2508726562.5,2465088134.765625,2504898925.78125,2481670898.4375,2483497802.734375,2483230712.890625,2542206054.6875,2486556152.34375,2454031982.421875,2470649414.0625,2431115234.375,2509215576.171875,2478221435.546875,2477301513.671875,2497228027.34375,2504858642.578125,2558437988.28125,2458028564.453125,2470967773.4375,2498442138.671875,2494613281.25,2490185302.734375,2486386230.46875,2485225830.078125,2471107666.015625,2523924804.6875,2457264648.4375,2483147460.9375,2457499755.859375,2492985351.5625,2489888671.875,2489938476.5625,2491798095.703125,2494089111.328125,2525760009.765625,2524843994.140625,2523723632.8125,2416946289.0625,2484307861.328125,2484408447.265625,2505692871.09375,2505579101.5625,2493657958.984375,2524563964.84375,2525156494.140625,2494272705.078125,2483898681.640625,2484292236.328125,2502415283.203125,2503775878.90625,2517905029.296875,2495195068.359375,2485154296.875,2485819091.796875,2486092285.15625
0.255,2258297851.5625,2262156005.859375,2269704589.84375,2246946777.34375,2251305175.78125,2248647460.9375,2279725341.796875,2276933837.890625,2231333740.234375,2265416259.765625,2235434082.03125,2237207031.25,2236537841.796875,2293945556.640625,2248713134.765625,2213748535.15625,2227070800.78125,2252067871.09375,2270468994.140625,2232343994.140625,2231255859.375,2249453369.140625,2256637207.03125,2325833007.8125,2220252197.265625,2231097412.109375,2259924804.6875,2254834716.796875,2249346679.6875,2239682128.90625,2238682861.328125,2221615722.65625,2285763671.875,2219761718.75,2242930175.78125,2222154296.875,2253521972.65625,2249454589.84375,2246994628.90625,2247516113.28125,2249693847.65625,2287213623.046875,2286314941.40625,2284802978.515625,2176412109.375,2243016113.28125,2244559326.171875,2265047851.5625,2264795654.296875,2249492431.640625,2286272216.796875,2286778564.453125,2254961425.78125,2242672607.421875,2244562744.140625,2261008544.921875,2262418212.890625,2266558349.609375,2255760498.046875,2244027832.03125,2245644042.96875,2246293212.890625
0.26,2140767822.265625,2140407714.84375,2146379150.390625,2126225097.65625,2125390136.71875,2130095458.984375,2161386474.609375,2158669921.875,2137341796.875,2143441406.25,2110104736.328125,2111678955.078125,2110770996.09375,2166378662.109375,2130324218.75,2091504394.53125,2103098388.671875,2157353027.34375,2149118164.0625,2109343505.859375,2108106689.453125,2125737060.546875,2131265136.71875,2208280517.578125,2100353759.765625,2109378417.96875,2138126953.125,2132897460.9375,2127923339.84375,2115149169.921875,2116741455.078125,2096465332.03125,2162896972.65625,2099965820.3125,2119530761.71875,2106178710.9375,2130728515.625,2128234375.0,2124164550.78125,2125940917.96875,2128149902.34375,2164023681.640625,2163239501.953125,2161296386.71875,2050117431.640625,2117623779.296875,2122643310.546875,2144696044.921875,2144546142.578125,2128113037.109375,2163304931.640625,2163488525.390625,2138200439.453125,2117105712.890625,2122822998.046875,2140394775.390625,2141902587.890625,2135604736.328125,2139317382.8125,2118588378.90625,2123656494.140625,2124255859.375
0.265,1445891357.421875,1439361938.4765625,1446932373.046875,1426276855.46875,1425989379.8828125,1430896972.65625,1457156250.0,1455224243.1640625,1474497314.453125,1442210449.21875,1410208618.1640625,1411133666.9921875,1410479003.90625,1463792724.609375,1431504638.671875,1388645751.953125,1401940551.7578125,1451588012.6953125,1447522827.1484375,1411384765.625,1409904052.734375,1427617309.5703125,1429645263.671875,1505055786.1328125,1398947021.484375,1406937133.7890625,1435093750.0,1430653320.3125,1427192626.953125,1415485717.7734375,1418347290.0390625,1396363769.53125,1459662109.375,1398519165.0390625,1415861083.984375,1407873901.3671875,1427866088.8671875,1427479736.328125,1423196289.0625,1427279663.0859375,1429223632.8125,1460190917.96875,1459840698.2421875,1457918579.1015625,1346244506.8359375,1413234375.0,1421245849.609375,1443804199.21875,1443853149.4140625,1429152954.1015625,1459572875.9765625,1459884643.5546875,1442693481.4453125,1412488037.109375,1421576904.296875,1439994140.625,1441409912.109375,1435204833.984375,1444255493.1640625,1414048950.1953125,1421889770.5078125,1422379882.8125
0.27,355525695.80078125,347761596.6796875,357490631.1035156,334848083.49609375,337452606.2011719,338060516.3574219,360676818.84765625,359931030.2734375,393297851.5625,349413665.7714844,320329895.01953125,320430633.5449219,320261169.43359375,370950744.62890625,339191558.8378906,294394165.0390625,309559387.20703125,348194213.8671875,354040802.0019531,321434783.9355469,319660919.1894531,336813903.80859375,335093658.4472656,407829467.7734375,304596160.8886719,312515014.6484375,340555847.16796875,337030731.2011719,334062011.71875,324593658.4472656,324406829.8339844,302259002.6855469,365035980.2246094,304207458.49609375,322493865.9667969,315871551.5136719,334586242.67578125,334386505.1269531,330081634.5214844,333102691.6503906,334411499.0234375,364884887.6953125,364952667.2363281,363405639.6484375,255852523.80371094,319893066.40625,328566070.5566406,347318908.69140625,347244934.08203125,334275299.0722656,364218780.5175781,365229827.8808594,352452423.0957031,319100219.7265625,329000610.3515625,343958251.953125,345095336.9140625,346812866.2109375,354192871.09375,320646362.3046875,328550628.6621094,329163726.8066406
0.275,-36287101.74560547,-38496971.130371094,-28274452.209472656,-52333229.064941406,-49092342.376708984,-52159065.24658203,-26688463.21105957,-26983423.233032227,-28677415.84777832,-38982379.91333008,-66528785.705566406,-66694602.966308594,-66716827.392578125,-18122282.028198242,-50871040.34423828,-93000129.69970703,-79589553.83300781,-41853145.599365234,-33914268.493652344,-66838874.81689453,-68779563.9038086,-53258220.67260742,-56442195.892333984,17193084.716796875,-84599914.55078125,-75411544.79980469,-46925270.080566406,-49944458.0078125,-54693405.15136719,-63558868.408203125,-69272224.42626953,-91795303.34472656,-26406593.322753906,-84843109.13085938,-64509727.478027344,-71049919.12841797,-52002212.52441406,-54190544.12841797,-59157802.58178711,-62088390.3503418,-61196384.42993164,-26668039.321899414,-26678867.34008789,-28004266.7388916,-128669372.55859375,-67005844.11621094,-59263450.622558594,-47169403.076171875,-47699382.78198242,-61245033.264160156,-27510570.526123047,-25957675.93383789,-38154850.006103516,-67639335.63232422,-58823200.22583008,-50870426.177978516,-49874675.75073242,-44141300.201416016,-36511604.30908203,-66208396.911621094,-59572021.484375,-58768260.95581055
0.28,917422241.2109375,921396484.375,931521728.515625,905972900.390625,908861755.3710938,902609436.0351562,934692810.0585938,933547546.3867188,878752746.5820312,919187561.0351562,892647094.7265625,893152709.9609375,892763916.015625,941110168.4570312,903403808.59375,868089294.4335938,877569458.0078125,919322509.765625,925742248.5351562,891089538.5742188,889242065.4296875,903372741.6992188,902019348.1445312,974681457.5195312,873911437.9882812,885625122.0703125,914339660.6445312,911641479.4921875,904268554.6875,895072814.9414062,886438293.4570312,862811828.6132812,927210632.3242188,873700500.4882812,893404846.1914062,888985229.4921875,909121276.8554688,904795227.0507812,899313476.5625,889810546.875,891053344.7265625,927741088.8671875,927159484.8632812,925698669.4335938,830311157.2265625,892380859.375,899593383.7890625,907218627.9296875,906390991.2109375,891196411.1328125,926658142.0898438,927965759.2773438,914843566.8945312,891971496.5820312,899892333.984375,902739868.1640625,903963317.8710938,905664550.78125,916392028.8085938,893190979.0039062,899778320.3125,900611755.3710938
0.285,2545858154.296875,2550389892.578125,2561532958.984375,2532834472.65625,2538341308.59375,2528009033.203125,2562833007.8125,2560192382.8125,2485617187.5,2546898437.5,2522975097.65625,2524633300.78125,2523754882.8125,2574144042.96875,2528034912.109375,2498490478.515625,2506454589.84375,2548641601.5625,2554191406.25,2520816894.53125,2519316650.390625,2534130371.09375,2536433593.75,2601393798.828125,2502710937.5,2516308105.46875,2544323242.1875,2541987060.546875,2534232177.734375,2525655273.4375,2519606689.453125,2496158691.40625,2553207031.25,2502298583.984375,2517894531.25,2517038085.9375,2538846923.828125,2534465820.3125,2529661621.09375,2518938232.421875,2521077392.578125,2554979736.328125,2553812744.140625,2552137695.3125,2456930419.921875,2520283691.40625,2528301025.390625,2537251464.84375,2536569335.9375,2521319335.9375,2553697265.625,2554251220.703125,2539403320.3125,2520066650.390625,2528377685.546875,2532456787.109375,2534095703.125,2529847900.390625,2541035400.390625,2521038818.359375,2529413574.21875,2530230957.03125
0.29,3446450683.59375,3446395263.671875,3458472900.390625,3426427001.953125,3436111572.265625,3424760009.765625,3455077392.578125,3451518066.40625,3407303222.65625,3440393554.6875,3419450683.59375,3421787597.65625,3420781738.28125,3473644042.96875,3424410644.53125,3393704589.84375,3403840576.171875,3444133300.78125,3446487548.828125,3416891357.421875,3415767578.125,3433402099.609375,3438147216.796875,3495332031.25,3398568603.515625,3410562744.140625,3436967285.15625,3434738281.25,3429790283.203125,3422511474.609375,3422192871.09375,3401450683.59375,3451351318.359375,3397913330.078125,3408692382.8125,3409176757.8125,3431770263.671875,3429742675.78125,3426310058.59375,3420954833.984375,3423707031.25,3453814697.265625,3452530273.4375,3450813964.84375,3350624755.859375,3413171875.0,3422776123.046875,3437599853.515625,3437202636.71875,3423867431.640625,3452507568.359375,3452593017.578125,3434798583.984375,3413090087.890625,3422713867.1875,3433176025.390625,3435028076.171875,3427562744.140625,3436604980.46875,3413950439.453125,3424458496.09375,3425415771.484375
0.295,2892708984.375,2887002685.546875,2897554443.359375,2866003173.828125,2875190429.6875,2871044189.453125,2893924804.6875,2890713623.046875,2900233154.296875,2877138671.875,2855868408.203125,2857844482.421875,2857182861.328125,2909401611.328125,2870952880.859375,2832215332.03125,2844714111.328125,2884704101.5625,2880992675.78125,2852951416.015625,2851875000.0,2871899902.34375,2875519287.109375,2935973144.53125,2838961914.0625,2845732666.015625,2870041992.1875,2867393066.40625,2865364257.8125,2858676025.390625,2861973876.953125,2844338867.1875,2894405273.4375,2838268798.828125,2846257080.078125,2843998046.875,2864643066.40625,2865396240.234375,2862533691.40625,2864044433.59375,2866576416.015625,2896347412.109375,2895484619.140625,2893839355.46875,2787982666.015625,2847180664.0625,2858157958.984375,2878388427.734375,2878052246.09375,2866585693.359375,2895242675.78125,2895481201.171875,2874328857.421875,2847119628.90625,2858118408.203125,2874490966.796875,2876207275.390625,2867170410.15625,2876211914.0625,2848153076.171875,2859586914.0625,2860687255.859375
0.3,1734964965.8203125,1724254638.671875,1731313354.4921875,1706199829.1015625,1707772216.796875,1716642944.3359375,1734999755.859375,1732871093.75,1782820800.78125,1711996826.171875,1686689819.3359375,1687766479.4921875,1687608154.296875,1734081420.8984375,1716956420.8984375,1670211303.7109375,1681566162.109375,1720943725.5859375,1714437377.9296875,1683870727.5390625,1682430908.203125,1701187622.0703125,1700716552.734375,1775336669.921875,1676750488.28125,1679080566.40625,1701114746.09375,1697534423.828125,1694939331.0546875,1688380249.0234375,1689947875.9765625,1672925781.25,1728698120.1171875,1676151977.5390625,1683926757.8125,1677127197.265625,1693769409.1796875,1695161254.8828125,1691585205.078125,1694570922.8515625,1696418701.171875,1729534179.6875,1729140747.0703125,1727611206.0546875,1621773803.7109375,1676296630.859375,1687622924.8046875,1708053344.7265625,1707629028.3203125,1696363159.1796875,1728665161.1328125,1729256225.5859375,1705942138.671875,1676099609.375,1687654174.8046875,1704420898.4375,1705886718.75,1698151733.3984375,1707738159.1796875,1677496093.75,1688396484.375,1689299316.40625
0.305,1604780273.4375,1589584594.7265625,1593938354.4921875,1578744873.046875,1570220336.9140625,1589705322.265625,1607346557.6171875,1605697021.484375,1663981323.2421875,1578241333.0078125,1549113891.6015625,1549911376.953125,1549988159.1796875,1588139160.15625,1589865844.7265625,1540915283.203125,1547841552.734375,1583384033.203125,1581120605.46875,1547183227.5390625,1545376464.84375,1558771606.4453125,1554439086.9140625,1642693969.7265625,1543121215.8203125,1546593139.6484375,1566783569.3359375,1561527709.9609375,1555614013.671875,1549654907.2265625,1545613525.390625,1526753173.828125,1587034667.96875,1542438110.3515625,1552126342.7734375,1542454589.84375,1556355102.5390625,1555611328.125,1550929443.359375,1547857788.0859375,1549443481.4453125,1587709838.8671875,1587148681.640625,1585884887.6953125,1486927490.234375,1537385009.765625,1547620849.609375,1562483398.4375,1562039306.640625,1549436279.296875,1586779907.2265625,1587379028.3203125,1564006958.0078125,1537006958.0078125,1547616088.8671875,1558893432.6171875,1560287353.515625,1560990722.65625,1565679443.359375,1538651245.1171875,1548308471.6796875,1548686645.5078125
0.31,2786808593.75,2768850341.796875,2771948242.1875,2764999267.578125,2749239990.234375,2773558593.75,2791665527.34375,2789340576.171875,2826150390.625,2758947021.484375,2728324462.890625,2729849365.234375,2729771728.515625,2762645507.8125,2772992187.5,2724521728.515625,2727499755.859375,2759359375.0,2763802978.515625,2727946289.0625,2726114990.234375,2733717773.4375,2727870849.609375,2823082763.671875,2721574707.03125,2730606933.59375,2750862304.6875,2743060546.875,2735233398.4375,2729046142.578125,2719967041.015625,2698584228.515625,2761457275.390625,2720554931.640625,2733468750.0,2723178955.078125,2738328857.421875,2734699462.890625,2729092529.296875,2717623046.875,2719627441.40625,2763336914.0625,2761951416.015625,2761040283.203125,2667689697.265625,2718920410.15625,2727234375.0,2734907958.984375,2734436279.296875,2719705566.40625,2762033935.546875,2762341308.59375,2741517089.84375,2718498291.015625,2727124755.859375,2731190673.828125,2732670898.4375,2745350097.65625,2743216308.59375,2720085937.5,2728656738.28125,2728628173.828125
0.315,3389637207.03125,3371234375.0,3372516357.421875,3368009521.484375,3348546630.859375,3376561279.296875,3395094726.5625,3392207519.53125,3398006591.796875,3359225585.9375,3326148437.5,3328268310.546875,3328008789.0625,3361681396.484375,3375593261.71875,3322006103.515625,3325343750.0,3359403564.453125,3366453369.140625,3327445312.5,3325588623.046875,3331495849.609375,3325034912.109375,3427331054.6875,3319529296.875,3331569580.078125,3354813964.84375,3344881347.65625,3338119384.765625,3328499755.859375,3318245605.46875,3293795898.4375,3363511230.46875,3318297851.5625,3333580322.265625,3322570556.640625,3342353759.765625,3337519042.96875,3330612304.6875,3316363769.53125,3318625000.0,3366178710.9375,3364305419.921875,3363448486.328125,3264420410.15625,3325430419.921875,3332658935.546875,3336669189.453125,3336010253.90625,3318823730.46875,3364677246.09375,3364955566.40625,3349063964.84375,3325099365.234375,3332587646.484375,3332550537.109375,3333991455.078125,3350090820.3125,3350968750.0,3326452880.859375,3334493164.0625,3334510498.046875
0.32,1574370239.2578125,1554539184.5703125,1552966674.8046875,1545002075.1953125,1524283691.40625,1558468750.0,1577684814.453125,1576027587.890625,1574850952.1484375,1538060424.8046875,1498751464.84375,1499977172.8515625,1499978637.6953125,1537146118.1640625,1558224121.09375,1492664794.921875,1501315673.828125,1542490600.5859375,1546720581.0546875,1501036987.3046875,1498562744.140625,1507237182.6171875,1498671630.859375,1614511474.609375,1498030029.296875,1505654785.15625,1532966430.6640625,1523565307.6171875,1517558227.5390625,1502306274.4140625,1494159912.109375,1465539794.921875,1548929321.2890625,1497109252.9296875,1511435302.734375,1497912231.4453125,1521886352.5390625,1517694580.078125,1508877075.1953125,1500110351.5625,1501558715.8203125,1550039184.5703125,1548978759.765625,1547708740.234375,1432620483.3984375,1508569335.9375,1516692749.0234375,1522024414.0625,1521183959.9609375,1502003906.25,1548972900.390625,1549817260.7421875,1537953369.140625,1508257568.359375,1516913696.2890625,1517362670.8984375,1518507690.4296875,1525732788.0859375,1540062744.140625,1509440185.546875,1517389526.3671875,1517736328.125
0.325,-1691610717.7734375,-1717447998.046875,-1720110473.6328125,-1733212280.2734375,-1751534790.0390625,-1713381103.515625,-1694246459.9609375,-1693243408.203125,-1654265991.2109375,-1734782226.5625,-1779927734.375,-1780717895.5078125,-1780057373.046875,-1742883300.78125,-1712217529.296875,-1786644042.96875,-1770735351.5625,-1724864746.09375,-1726287597.65625,-1777788940.4296875,-1781262573.2421875,-1769766601.5625,-1781212158.203125,-1653297607.421875,-1772085083.0078125,-1772998901.3671875,-1744666503.90625,-1750478393.5546875,-1758905883.7890625,-1777380249.0234375,-1783299560.546875,-1815181640.625,-1717837036.1328125,-1772311645.5078125,-1761283447.265625,-1777619384.765625,-1754503784.1796875,-1757958740.234375,-1768124145.5078125,-1768805541.9921875,-1768865844.7265625,-1719824707.03125,-1719196655.2734375,-1720873657.2265625,-1849699096.6796875,-1766470092.7734375,-1756378051.7578125,-1747899658.203125,-1748642089.84375,-1768082397.4609375,-1720038696.2890625,-1718421508.7890625,-1732289184.5703125,-1766973144.53125,-1755781005.859375,-1752785888.671875,-1751943481.4453125,-1752989013.671875,-1730160766.6015625,-1765833862.3046875,-1757789184.5703125,-1757244873.046875
0.33,-3536793945.3125,-3570041992.1875,-3569858886.71875,-3585257568.359375,-3596574218.75,-3564018798.828125,-3547010498.046875,-3544157470.703125,-3438006591.796875,-3581895263.671875,-3625586425.78125,-3627685546.875,-3626557617.1875,-3594149658.203125,-3562032470.703125,-3632474609.375,-3611087646.484375,-3567268066.40625,-3574388916.015625,-3623924560.546875,-3627849609.375,-3617212646.484375,-3629551513.671875,-3505058105.46875,-3613886230.46875,-3619772949.21875,-3595305908.203125,-3597028320.3125,-3608573974.609375,-3625301025.390625,-3630920166.015625,-3662062011.71875,-3559054443.359375,-3613612792.96875,-3603379394.53125,-3619745605.46875,-3604072021.484375,-3607628417.96875,-3617440917.96875,-3615015136.71875,-3615963134.765625,-3562835205.078125,-3561110839.84375,-3562621337.890625,-3692153808.59375,-3617578369.140625,-3606398681.640625,-3597030761.71875,-3597461914.0625,-3615005371.09375,-3562477783.203125,-3560543457.03125,-3582134277.34375,-3618379638.671875,-3605609375.0,-3601545166.015625,-3600713134.765625,-3597424316.40625,-3580156005.859375,-3617248046.875,-3608963867.1875,-3608522705.078125
0.335,-2946109375.0,-2980130615.234375,-2975285156.25,-2990160888.671875,-2993533203.125,-2975140869.140625,-2960516845.703125,-2957776855.46875,-2815476562.5,-2985070312.5,-3020487548.828125,-3022281982.421875,-3021272949.21875,-2993202636.71875,-2973396972.65625,-3030449707.03125,-3006555664.0625,-2967863037.109375,-2977825439.453125,-3018077148.4375,-3021577636.71875,-3013935791.015625,-3025044189.453125,-2919745361.328125,-3012363281.25,-3016279052.734375,-2997196533.203125,-2996849365.234375,-3007839111.328125,-3020831542.96875,-3027300781.25,-3054530273.4375,-2955722412.109375,-3012123046.875,-2997350830.078125,-3009964843.75,-3003996337.890625,-3007529296.875,-3016030517.578125,-3016638183.59375,-3017331054.6875,-2958853271.484375,-2957306884.765625,-2958260742.1875,-3077599853.515625,-3019187988.28125,-3008408935.546875,-3001475830.078125,-3001690917.96875,-3016551269.53125,-2958531005.859375,-2956827636.71875,-2983109130.859375,-3020204833.984375,-3007675537.109375,-3005285400.390625,-3004296142.578125,-2990990478.515625,-2981308105.46875,-3019090576.171875,-3010479248.046875,-3010243652.34375
0.34,-1984647583.0078125,-2010712524.4140625,-2003841430.6640625,-2018773071.2890625,-2019333007.8125,-2012525512.6953125,-1997424438.4765625,-1995362182.6171875,-1886513549.8046875,-2013999267.578125,-2042786254.8828125,-2043805419.921875,-2043182250.9765625,-2014612548.828125,-2011223266.6015625,-2058899658.203125,-2034614746.09375,-1997941284.1796875,-2005876342.7734375,-2038335571.2890625,-2041353515.625,-2034560058.59375,-2045212646.484375,-1958112670.8984375,-2041126831.0546875,-2039998413.0859375,-2022955444.3359375,-2022112915.0390625,-2029498535.15625,-2041117187.5,-2047881225.5859375,-2072600830.078125,-1983034667.96875,-2041184692.3828125,-2020856445.3125,-2028639770.5078125,-2026955688.4765625,-2029469970.703125,-2037395507.8125,-2041638183.59375,-2041872680.6640625,-1985031372.0703125,-1984077148.4375,-1984830078.125,-2092886230.46875,-2041573486.328125,-2031493652.34375,-2027915039.0625,-2028112304.6875,-2041427856.4453125,-1984977416.9921875,-1983489379.8828125,-2004034179.6875,-2042670288.0859375,-2030903076.171875,-2031170532.2265625,-2030296386.71875,-2016818359.375,-2002392456.0546875,-2041550659.1796875,-2032911376.953125,-2032713867.1875
0.345,-2557178466.796875,-2574814697.265625,-2570747070.3125,-2586502929.6875,-2591394042.96875,-2582659423.828125,-2565061767.578125,-2562663085.9375,-2529363281.25,-2582147460.9375,-2611749267.578125,-2612899902.34375,-2612377929.6875,-2581236572.265625,-2581168457.03125,-2631064208.984375,-2608636230.46875,-2569742675.78125,-2573345947.265625,-2606294189.453125,-2609521728.515625,-2600590087.890625,-2612676757.8125,-2527001708.984375,-2613064697.265625,-2609599365.234375,-2590971923.828125,-2589419433.59375,-2595406005.859375,-2607903320.3125,-2614209472.65625,-2639938720.703125,-2559811279.296875,-2613239257.8125,-2594089843.75,-2599899902.34375,-2593474365.234375,-2594891357.421875,-2603143798.828125,-2606913085.9375,-2607440917.96875,-2562162597.65625,-2561225585.9375,-2562410400.390625,-2663906982.421875,-2606050048.828125,-2596045898.4375,-2593500488.28125,-2593719482.421875,-2607093750.0,-2562172851.5625,-2560490722.65625,-2570094238.28125,-2607161621.09375,-2595537353.515625,-2596553955.078125,-2596176513.671875,-2592950683.59375,-2568666015.625,-2606030029.296875,-2598040039.0625,-2597679687.5
0.35,-3484448730.46875,-3501862060.546875,-3503837890.625,-3516461181.640625,-3528997314.453125,-3505172607.421875,-3487464111.328125,-3484579345.703125,-3504697998.046875,-3513605957.03125,-3547790771.484375,-3549525146.484375,-3548854492.1875,-3519054199.21875,-3503349365.234375,-3561090576.171875,-3544156982.421875,-3502641845.703125,-3505321777.34375,-3544304687.5,-3547950683.59375,-3537361083.984375,-3550098876.953125,-3450856445.3125,-3546310302.734375,-3544748535.15625,-3525008300.78125,-3522944824.21875,-3532051269.53125,-3544267578.125,-3550145507.8125,-3577515136.71875,-3504702392.578125,-3546393066.40625,-3536925048.828125,-3544846435.546875,-3529316406.25,-3530982910.15625,-3538993408.203125,-3539499023.4375,-3540569091.796875,-3507941894.53125,-3506768066.40625,-3508450683.59375,-3607322021.484375,-3540684082.03125,-3530951416.015625,-3525909179.6875,-3526097900.390625,-3540018310.546875,-3507929443.359375,-3506019775.390625,-3512096923.828125,-3541772705.078125,-3530478515.625,-3528997314.453125,-3528980957.03125,-3531744384.765625,-3510932617.1875,-3540669921.875,-3533814697.265625,-3533308105.46875
0.355,-2217095703.125,-2240606445.3125,-2248811523.4375,-2251672851.5625,-2270238037.109375,-2229301269.53125,-2215063720.703125,-2213642089.84375,-2237222167.96875,-2253133300.78125,-2288843017.578125,-2290057861.328125,-2289558593.75,-2265419677.734375,-2228061035.15625,-2289381103.515625,-2280704589.84375,-2239198486.328125,-2245123779.296875,-2288635498.046875,-2291896728.515625,-2282556640.625,-2293276611.328125,-2179780029.296875,-2281271240.234375,-2282782714.84375,-2264480224.609375,-2264464843.75,-2277032714.84375,-2287165771.484375,-2292379150.390625,-2319465332.03125,-2249953125.0,-2281407470.703125,-2282518310.546875,-2294223144.53125,-2272994384.765625,-2276152343.75,-2282763671.875,-2281679687.5,-2282241943.359375,-2252240722.65625,-2251581054.6875,-2253222167.96875,-2351787841.796875,-2284287353.515625,-2276470947.265625,-2267231933.59375,-2267435546.875,-2281589355.46875,-2252526855.46875,-2251023193.359375,-2264132080.078125,-2285229492.1875,-2276091064.453125,-2270489501.953125,-2270135742.1875,-2266960937.5,-2263119384.765625,-2284148437.5,-2278481201.171875,-2278046386.71875
0.36,1347484985.3515625,1320422851.5625,1307993164.0625,1316478271.484375,1294967651.3671875,1344675170.8984375,1356341552.734375,1354356201.171875,1346312377.9296875,1309713500.9765625,1276016723.6328125,1276691162.109375,1276456298.828125,1296395996.09375,1344449951.171875,1285005371.09375,1287074584.9609375,1326736328.125,1320046875.0,1275468872.0703125,1273415161.1328125,1280457641.6015625,1271785644.53125,1391235107.421875,1289361328.125,1287003173.828125,1304248779.296875,1299095703.125,1287606201.171875,1277750366.2109375,1274385986.328125,1247378051.7578125,1319801391.6015625,1288851684.5703125,1285608520.5078125,1271361572.265625,1292368164.0625,1287707763.671875,1282153930.6640625,1281285034.1796875,1282496215.8203125,1320504882.8125,1319849487.3046875,1318654663.0859375,1217815307.6171875,1282109863.28125,1286284301.7578125,1297925537.109375,1297580200.1953125,1282804931.640625,1319591064.453125,1320025268.5546875,1300234008.7890625,1281518432.6171875,1286450073.2421875,1294302124.0234375,1295524169.921875,1307610229.4921875,1301354370.1171875,1282673828.125,1286951293.9453125,1287173095.703125
0.365,4373952148.4375,4349547363.28125,4335673339.84375,4349471191.40625,4326888183.59375,4376334960.9375,4389831054.6875,4385145507.8125,4374224121.09375,4340440917.96875,4307752441.40625,4310117675.78125,4309104492.1875,4329691894.53125,4375010253.90625,4316985839.84375,4317687500.0,4355492187.5,4355164550.78125,4309967285.15625,4308907226.5625,4315388183.59375,4305293945.3125,4425277343.75,4324636718.75,4323941406.25,4343357910.15625,4332885742.1875,4326019531.25,4312480957.03125,4311426757.8125,4281541015.625,4362265625.0,4323706054.6875,4327693847.65625,4312762695.3125,4331163574.21875,4325588867.1875,4319350097.65625,4315038085.9375,4317936523.4375,4365520996.09375,4363867675.78125,4362939453.125,4258691894.53125,4324160156.25,4324645507.8125,4334767578.125,4334216796.875,4317667480.46875,4364150390.625,4363606445.3125,4347166992.1875,4324033691.40625,4324522460.9375,4330602050.78125,4332415039.0625,4345918457.03125,4348576660.15625,4325286132.8125,4327555175.78125,4327714355.46875
0.37,4389060546.875,4368995605.46875,4356365234.375,4367842285.15625,4345536132.8125,4391093261.71875,4407671386.71875,4403226074.21875,4375635253.90625,4360647949.21875,4327027343.75,4329437500.0,4328277832.03125,4350541503.90625,4389950195.3125,4331251464.84375,4334444335.9375,4370020019.53125,4377883300.78125,4332122070.3125,4331124023.4375,4338359863.28125,4324699707.03125,4443018066.40625,4344472167.96875,4345719726.5625,4368107910.15625,4355968261.71875,4352261230.46875,4334728027.34375,4334034179.6875,4300764648.4375,4388275878.90625,4343439941.40625,4355772460.9375,4341459960.9375,4358003906.25,4351993652.34375,4344337402.34375,4338042968.75,4341124511.71875,4391484863.28125,4390033691.40625,4388954589.84375,4285397949.21875,4354439453.125,4353337402.34375,4359494628.90625,4358818359.375,4340587890.625,4390257324.21875,4389566894.53125,4381969238.28125,4354623535.15625,4353025390.625,4354987792.96875,4356558593.75,4365184570.3125,4383582031.25,4355793945.3125,4356122070.3125,4356488769.53125
0.375,1916987548.828125,1898759521.484375,1889361083.984375,1895512084.9609375,1875601806.640625,1916409912.109375,1931884155.2734375,1929915405.2734375,1899072143.5546875,1891520263.671875,1859353027.34375,1860503540.0390625,1859861938.4765625,1879842163.0859375,1916283447.265625,1860221435.546875,1865619140.625,1897186523.4375,1906563842.7734375,1864145385.7421875,1862641113.28125,1869599487.3046875,1855077392.578125,1964559448.2421875,1873410156.25,1875369506.8359375,1896873046.875,1887613037.109375,1883426269.53125,1866993530.2734375,1863786254.8828125,1831804809.5703125,1915593872.0703125,1872620239.2578125,1886334838.8671875,1874558105.46875,1889268310.546875,1883660888.671875,1876079711.9140625,1870296997.0703125,1872103881.8359375,1916663452.1484375,1916240356.4453125,1914884887.6953125,1820235717.7734375,1885951293.9453125,1886332031.25,1889829345.703125,1889237304.6875,1871826416.015625,1916033081.0546875,1915996582.03125,1911474243.1640625,1886079956.0546875,1886125244.140625,1885657958.984375,1886468261.71875,1890017700.1953125,1913007202.1484375,1886963623.046875,1887190917.96875,1887763916.015625
0.38,-420719635.0097656,-438329986.5722656,-443983703.61328125,-441758850.09765625,-457716827.3925781,-422621795.6542969,-412371490.4785156,-412262237.5488281,-429771240.234375,-443595428.4667969,-470083923.33984375,-470005035.4003906,-470062896.7285156,-454941589.35546875,-422016601.5625,-469632354.7363281,-463967926.0253906,-437347503.6621094,-433179473.8769531,-467635772.7050781,-469478881.8359375,-464243865.9667969,-475221038.8183594,-384642639.16015625,-462717498.7792969,-460420104.98046875,-443699584.9609375,-448482604.98046875,-454178894.04296875,-464638427.734375,-470947296.1425781,-496696563.7207031,-428136322.0214844,-463207550.0488281,-454599548.33984375,-461527038.57421875,-449791656.4941406,-453685150.1464844,-459331665.0390625,-463299591.0644531,-462864044.1894531,-429009246.8261719,-428658111.5722656,-430078735.3515625,-510907806.3964844,-456636505.1269531,-452793457.03125,-448515533.4472656,-448818328.8574219,-462704895.01953125,-429147552.4902344,-428456176.7578125,-437957061.7675781,-456809478.7597656,-452632873.53515625,-451772491.4550781,-451468780.5175781,-452811035.15625,-436697540.2832031,-456169250.48828125,-453504272.4609375,-453053680.4199219
0.385,-808646972.65625,-825280639.6484375,-828719482.421875,-828017272.9492188,-841581054.6875,-809980651.8554688,-803763793.9453125,-803549743.6523438,-813441955.5664062,-828895629.8828125,-850574096.6796875,-850538757.3242188,-850434082.03125,-837145385.7421875,-809417541.5039062,-849834228.515625,-844191101.0742188,-820446838.3789062,-820680908.203125,-848976013.1835938,-850797851.5625,-846818298.3398438,-853565795.8984375,-779619995.1171875,-848405944.8242188,-844900085.4492188,-831997741.6992188,-834954956.0546875,-840377990.7226562,-846258850.0976562,-853485107.421875,-873709411.6210938,-820016418.4570312,-848753662.109375,-844663635.2539062,-847207702.6367188,-838225463.8671875,-840000610.3515625,-843924438.4765625,-846798522.9492188,-846679931.640625,-821122009.2773438,-820803588.8671875,-822073913.5742188,-893993164.0625,-848995178.2226562,-842261596.6796875,-835448364.2578125,-835510864.2578125,-846359680.1757812,-821244384.765625,-820397338.8671875,-834903503.4179688,-849352233.8867188,-841798828.125,-838044006.3476562,-837645141.6015625,-844962463.3789062,-833827270.5078125,-848725402.8320312,-842971984.8632812,-842873901.3671875
0.39,28184968.948364258,10571696.281433105,6782980.918884277,7073075.771331787,-7935111.522674561,27151716.232299805,33771312.71362305,33114082.33642578,15101474.76196289,6063613.414764404,-17180812.83569336,-16752866.744995117,-16738403.3203125,-272655.81488609314,27402770.99609375,-15546856.880187988,-8883400.917053223,15507834.434509277,15650170.32623291,-14398362.159729004,-16156776.428222656,-11382904.052734375,-17303995.13244629,59552112.5793457,-13340575.218200684,-8859404.563903809,4384771.823883057,-1003788.1135940552,-4974593.162536621,-12235803.604125977,-18228950.50048828,-37933940.88745117,15563572.883605957,-13621425.62866211,-8906282.424926758,-11711364.74609375,-3816625.1182556152,-4737750.53024292,-8986458.778381348,-12159613.609313965,-11576869.010925293,15236557.006835938,15182358.741760254,14064106.941223145,-61354587.55493164,-15279408.45489502,-7995414.257049561,3945.0316689908504,-194780.52854537964,-11397712.707519531,14872514.724731445,15409576.416015625,1662885.069847107,-15551146.507263184,-7555673.599243164,-2836784.1243743896,-2135630.3691864014,-11715826.988220215,2805205.821990967,-14857844.352722168,-8009546.279907227,-8082463.264465332
0.395,-221005462.64648438,-242736083.984375,-248011230.46875,-249993789.67285156,-267737762.45117188,-225399261.47460938,-216024169.921875,-216298110.96191406,-243451400.75683594,-252551696.77734375,-281789428.7109375,-281714385.9863281,-281470733.6425781,-260163085.9375,-224944046.0205078,-278378509.5214844,-270503845.21484375,-243516586.30371094,-242122146.6064453,-279091644.2871094,-281043243.4082031,-273297546.38671875,-281496673.5839844,-184530166.62597656,-271200714.1113281,-268433746.33789062,-252785385.13183594,-262063507.08007812,-265578979.4921875,-277449707.03125,-281983459.47265625,-304265563.96484375,-236424728.3935547,-271255523.6816406,-263696075.43945312,-271301422.1191406,-263832824.70703125,-265143432.6171875,-271227264.4042969,-274212646.484375,-273713958.7402344,-236964050.29296875,-236856262.20703125,-237979293.8232422,-326664154.0527344,-273064788.8183594,-266623596.19140625,-259376800.53710938,-260026824.95117188,-273618408.203125,-237274856.5673828,-236764282.2265625,-247147079.46777344,-273270385.7421875,-266352783.203125,-262893341.06445312,-262261505.12695312,-265382019.04296875,-245836898.80371094,-272685058.59375,-266976623.53515625,-266909240.72265625
0.4,-2781350097.65625,-2805643310.546875,-2811106689.453125,-2820152343.75,-2836814697.265625,-2794103027.34375,-2782851806.640625,-2780645996.09375,-2806421630.859375,-2824542236.328125,-2857501708.984375,-2858946777.34375,-2857905029.296875,-2833337646.484375,-2792708740.234375,-2854481201.171875,-2846354003.90625,-2817007812.5,-2817500244.140625,-2858435302.734375,-2860900878.90625,-2848639892.578125,-2859045166.015625,-2747736328.125,-2843886718.75,-2845586669.921875,-2828995605.46875,-2839291503.90625,-2843779052.734375,-2857561035.15625,-2861013671.875,-2884561767.578125,-2803798583.984375,-2843479492.1875,-2836653320.3125,-2848201904.296875,-2841770507.8125,-2842826904.296875,-2850408447.265625,-2850125488.28125,-2851016113.28125,-2806536132.8125,-2805438964.84375,-2806723876.953125,-2907862548.828125,-2849295898.4375,-2842626220.703125,-2835757080.078125,-2836644287.109375,-2850689208.984375,-2806283203.125,-2804987548.828125,-2814660400.390625,-2849776367.1875,-2842275146.484375,-2839282714.84375,-2839144287.109375,-2832311523.4375,-2813340820.3125,-2849420898.4375,-2844890869.140625,-2844706787.109375
0.405,-6026791503.90625,-6047360839.84375,-6051757324.21875,-6070236816.40625,-6081579589.84375,-6048460937.5,-6036519531.25,-6031506347.65625,-6055100097.65625,-6074705078.125,-6106841796.875,-6110055175.78125,-6108138671.875,-6081952636.71875,-6045986816.40625,-6108481933.59375,-6100958496.09375,-6069934570.3125,-6073278320.3125,-6112648437.5,-6115797851.5625,-6099125000.0,-6110063964.84375,-6003910644.53125,-6098701660.15625,-6104198242.1875,-6088240722.65625,-6095869140.625,-6101494628.90625,-6113386230.46875,-6115223144.53125,-6137713867.1875,-6058166992.1875,-6097841796.875,-6096264160.15625,-6106622558.59375,-6100608886.71875,-6100101074.21875,-6108038085.9375,-6102139648.4375,-6104781738.28125,-6063637695.3125,-6061407714.84375,-6062900878.90625,-6167612792.96875,-6108882324.21875,-6100399902.34375,-6091907226.5625,-6092470214.84375,-6104061035.15625,-6062751953.125,-6060294921.875,-6071482910.15625,-6109803710.9375,-6099694824.21875,-6094604492.1875,-6094861328.125,-6085409179.6875,-6070354492.1875,-6109489746.09375,-6104747558.59375,-6104740722.65625
0.41,-6785979492.1875,-6799703125.0,-6804570800.78125,-6826122558.59375,-6834085937.5,-6809229003.90625,-6796366699.21875,-6791003906.25,-6823415039.0625,-6829344238.28125,-6860237304.6875,-6863915039.0625,-6861894042.96875,-6835293945.3125,-6806457519.53125,-6866281250.0,-6859587890.625,-6827446289.0625,-6830306152.34375,-6867927734.375,-6871497070.3125,-6853438964.84375,-6864058593.75,-6769197265.625,-6859599609.375,-6865006347.65625,-6848941894.53125,-6853903320.3125,-6860127929.6875,-6870782226.5625,-6870563476.5625,-6891875488.28125,-6822602050.78125,-6858718750.0,-6861709960.9375,-6867962402.34375,-6859975585.9375,-6858772460.9375,-6866520996.09375,-6857336425.78125,-6860292968.75,-6828674316.40625,-6826197265.625,-6827800781.25,-6928032714.84375,-6869752929.6875,-6860367675.78125,-6849601562.5,-6849663574.21875,-6859396484.375,-6827724121.09375,-6824816894.53125,-6835846191.40625,-6870760742.1875,-6859464355.46875,-6851757324.21875,-6851820800.78125,-6849282226.5625,-6834919433.59375,-6870182128.90625,-6864946777.34375,-6865208007.8125
0.415,-3723757324.21875,-3734723632.8125,-3742730468.75,-3756160400.390625,-3767133544.921875,-3739360107.421875,-3724903808.59375,-3722501708.984375,-3766898925.78125,-3759598144.53125,-3791770019.53125,-3793857421.875,-3792814941.40625,-3767604248.046875,-3737516113.28125,-3796281738.28125,-3790078857.421875,-3758421386.71875,-3757519531.25,-3797348144.53125,-3800503906.25,-3785611572.265625,-3795685791.015625,-3700287841.796875,-3791791503.90625,-3793773925.78125,-3776129394.53125,-3781689453.125,-3788321289.0625,-3801243164.0625,-3800040283.203125,-3821128906.25,-3758268554.6875,-3791529052.734375,-3793201171.875,-3797873291.015625,-3786575195.3125,-3787530273.4375,-3794998779.296875,-3788354248.046875,-3789583496.09375,-3761811035.15625,-3760314941.40625,-3761834472.65625,-3855138916.015625,-3796253417.96875,-3789037109.375,-3777476806.640625,-3777525634.765625,-3788929199.21875,-3761488281.25,-3759416748.046875,-3767796142.578125,-3796822753.90625,-3788378906.25,-3780245605.46875,-3779612548.828125,-3784866455.078125,-3766948730.46875,-3795925048.828125,-3791444091.796875,-3791754882.8125
0.42,1025073974.609375,1012373779.296875,1001828857.421875,999123474.1210938,983793334.9609375,1017554382.3242188,1033925659.1796875,1032191772.4609375,988961791.9921875,993567504.8828125,960794982.9101562,961466308.59375,961113342.2851562,984835815.4296875,1017727966.3085938,960524963.3789062,967474304.1992188,996013427.734375,1000792785.6445312,958156616.2109375,956341552.734375,966722045.8984375,958404724.1210938,1059234008.7890625,965182983.3984375,966916625.9765625,986040649.4140625,977972778.3203125,971060302.734375,955488891.6015625,956484313.9648438,936229858.3984375,997778015.1367188,964502258.3007812,969591674.8046875,962235900.8789062,975408203.125,971114257.8125,964460449.21875,965357849.1210938,966526062.0117188,998033691.40625,997989685.0585938,996737731.9335938,909647399.9023438,966956481.9335938,970475097.65625,981883483.8867188,981334777.8320312,966688354.4921875,997519104.0039062,998091552.734375,991904174.8046875,966904968.2617188,970702148.4375,978046203.6132812,979333801.2695312,972108764.6484375,992731018.0664062,967892822.265625,971092163.0859375,970863342.2851562
0.425,4006725097.65625,3994982910.15625,3986219970.703125,3982706298.828125,3970793945.3125,3997135986.328125,4016262207.03125,4012213623.046875,3983865478.515625,3976585205.078125,3948037841.796875,3950817138.671875,3949710449.21875,3977154296.875,3995952880.859375,3945294433.59375,3954841796.875,3979097167.96875,3986628662.109375,3945769775.390625,3945437988.28125,3955972167.96875,3951395019.53125,4040925537.109375,3952157958.984375,3955928466.796875,3975297607.421875,3966360595.703125,3959926757.8125,3945709472.65625,3947638916.015625,3930231445.3125,3985511230.46875,3950881347.65625,3963002929.6875,3951718261.71875,3964635986.328125,3959509521.484375,3954469238.28125,3952728759.765625,3955126708.984375,3988094482.421875,3986946289.0625,3986026611.328125,3904039306.640625,3956213378.90625,3958217529.296875,3971077392.578125,3970181152.34375,3954891357.421875,3987073730.46875,3986646728.515625,3979986816.40625,3956251953.125,3958241943.359375,3967093261.71875,3968559326.171875,3962029785.15625,3980784667.96875,3957137451.171875,3960565917.96875,3960263671.875
0.43,3809167480.46875,3804963623.046875,3801340820.3125,3783300781.25,3783262451.171875,3787228027.34375,3810941162.109375,3807390625.0,3792560546.875,3780523925.78125,3759194824.21875,3762282470.703125,3761471435.546875,3800966064.453125,3785797607.421875,3744943359.375,3757785644.53125,3779934570.3125,3790139648.4375,3754628173.828125,3754833984.375,3772486083.984375,3772331542.96875,3832115966.796875,3755161865.234375,3759440185.546875,3778633056.640625,3770970703.125,3766008056.640625,3756234619.140625,3761842285.15625,3748496826.171875,3789208007.8125,3754062500.0,3769112060.546875,3755749755.859375,3768089599.609375,3765554199.21875,3762033691.40625,3763445800.78125,3765488281.25,3791708496.09375,3790369140.625,3789671142.578125,3710045166.015625,3757945556.640625,3761902587.890625,3778319824.21875,3777667480.46875,3765158935.546875,3790671142.578125,3790251464.84375,3781466064.453125,3757671142.578125,3761993652.34375,3775325195.3125,3776526611.328125,3767703369.140625,3782302490.234375,3758501220.703125,3763929687.5,3763443359.375
0.435,1808394042.96875,1812902954.1015625,1813766845.703125,1779995727.5390625,1790732421.875,1773252441.40625,1803005859.375,1801328369.140625,1789216430.6640625,1781965820.3125,1765077758.7890625,1767071289.0625,1767025268.5546875,1822035400.390625,1772648193.359375,1738580688.4765625,1753262817.3828125,1777062866.2109375,1790037475.5859375,1758107788.0859375,1757625244.140625,1784948730.46875,1787480834.9609375,1822259155.2734375,1752660522.4609375,1756655883.7890625,1776510864.2578125,1769566162.109375,1766485717.7734375,1759224487.3046875,1769384033.203125,1759399047.8515625,1787153320.3125,1752251098.6328125,1766117797.8515625,1752903564.453125,1765660156.25,1766269531.25,1762982543.9453125,1769611572.265625,1770727905.2734375,1788285888.671875,1787459106.4453125,1786745117.1875,1704719482.421875,1754106567.3828125,1760978881.8359375,1780096923.828125,1779913940.4296875,1770545532.2265625,1787568481.4453125,1787681762.6953125,1777525146.484375,1753554199.21875,1761158569.3359375,1778089721.6796875,1778915649.4140625,1765901855.46875,1778518066.40625,1754466186.5234375,1761601562.5,1761148559.5703125
0.44,95286079.40673828,102569412.23144531,105874740.60058594,66179588.317871094,79090934.75341797,52970184.326171875,88267166.13769531,87984130.859375,74194908.14208984,70635078.43017578,53383998.87084961,54169757.84301758,54532234.19189453,119502677.91748047,53525089.263916016,21000328.063964844,35844940.185546875,63388343.811035156,77889831.54296875,46015060.42480469,44445198.05908203,77774520.87402344,80175888.06152344,110821365.35644531,38976879.11987305,42562335.96801758,63970870.97167969,55854553.22265625,54745674.13330078,45720035.552978516,58149883.27026367,49662158.96606445,74534538.26904297,39084770.20263672,50757236.48071289,39270118.713378906,53007713.317871094,54777397.15576172,50464073.181152344,59442333.22143555,60007076.263427734,74436706.54296875,74307067.87109375,73382019.04296875,-13542902.946472168,42314868.92700195,50230079.650878906,68519775.390625,68408439.63623047,60018817.90161133,74145339.96582031,74602371.21582031,65202766.41845703,41803718.56689453,50425407.40966797,66570770.263671875,67177284.24072266,52893714.904785156,66327552.795410156,42803222.65625,49748771.66748047,49620956.42089844
0.445,-522105285.64453125,-517493591.30859375,-511885253.90625,-550243591.3085938,-540043029.7851562,-567317565.9179688,-528802734.375,-528680358.88671875,-539034606.9335938,-545129150.390625,-563896057.1289062,-563602905.2734375,-563363342.2851562,-497513458.2519531,-566058532.7148438,-598674194.3359375,-583207092.2851562,-552355407.7148438,-537860961.9140625,-569893127.4414062,-571971130.3710938,-537756774.9023438,-537210266.1132812,-500837219.23828125,-577548645.0195312,-573557434.0820312,-550491149.9023438,-559695312.5,-558279785.15625,-570517639.1601562,-558495605.46875,-567489868.1640625,-540421203.6132812,-577475585.9375,-566476257.3242188,-574738403.3203125,-559941528.3203125,-558106689.453125,-563510681.1523438,-555461547.8515625,-555090759.2773438,-541151916.5039062,-540814697.265625,-541951477.0507812,-630448486.328125,-567855712.890625,-560640197.7539062,-545431396.484375,-545906555.1757812,-554947265.625,-541138916.015625,-540687866.2109375,-547213500.9765625,-568137023.9257812,-560383483.8867188,-547973388.671875,-547396667.4804688,-560040344.2382812,-546140930.1757812,-567168457.03125,-561426269.53125,-561231384.2773438
0.45,-507225158.69140625,-504514587.40234375,-496134338.37890625,-534600646.97265625,-523535034.1796875,-555197326.6601562,-515821350.09765625,-515681579.58984375,-518789611.81640625,-527633483.88671875,-545485717.7734375,-545158935.546875,-545115661.6210938,-482592712.40234375,-553911682.1289062,-585057373.046875,-567231628.4179688,-534367736.81640625,-520136657.71484375,-550125732.421875,-552039062.5,-518708862.3046875,-520009521.484375,-486815216.0644531,-562720947.265625,-556937072.7539062,-532679626.46484375,-540919372.5585938,-536508850.09765625,-549770263.671875,-538492614.7460938,-549605895.9960938,-525044921.875,-562965942.3828125,-551085876.4648438,-555383300.78125,-539153137.2070312,-536240356.4453125,-541895874.0234375,-534953247.0703125,-534817993.1640625,-526019470.21484375,-525536987.3046875,-526751037.59765625,-610870910.6445312,-544550903.3203125,-537624023.4375,-524086486.81640625,-524826782.2265625,-534594055.17578125,-525979187.01171875,-525548583.984375,-528094726.5625,-544688537.5976562,-537239257.8125,-527084777.83203125,-526465759.27734375,-539796691.8945312,-527183288.57421875,-543831665.0390625,-538337585.4492188,-538037170.4101562
0.455,-385697937.01171875,-380782470.703125,-371258178.7109375,-413327758.7890625,-396117828.3691406,-435898254.39453125,-396467468.26171875,-396303527.83203125,-396505554.19921875,-402966003.41796875,-418119567.87109375,-417756347.65625,-417680419.921875,-356665618.8964844,-434912506.1035156,-463801452.63671875,-443596832.2753906,-409522338.8671875,-395358734.1308594,-422811889.6484375,-424494689.94140625,-390976135.25390625,-393505859.375,-372951416.015625,-442837127.6855469,-434862213.1347656,-410062103.2714844,-416270690.91796875,-409882781.9824219,-421727539.0625,-409947387.6953125,-423989166.2597656,-406931274.4140625,-443221893.3105469,-430255218.5058594,-432058654.78515625,-414231414.7949219,-409510650.6347656,-414730499.2675781,-407501068.1152344,-407563140.8691406,-407900238.0371094,-407426910.4003906,-408635101.3183594,-485893798.828125,-419495239.2578125,-411439453.125,-396484680.17578125,-397031127.9296875,-407313720.703125,-408053741.4550781,-407470428.4667969,-406610443.1152344,-419639801.0253906,-411020935.05859375,-399545410.15625,-398895080.56640625,-418366241.4550781,-405760742.1875,-418863403.3203125,-412153381.34765625,-411865325.9277344
0.46,1081523.5376358032,9869342.803955078,18014585.494995117,-26433189.392089844,-3375684.0229034424,-47825351.71508789,-7733514.785766602,-7942010.402679443,-11408972.74017334,-13723460.19744873,-26916177.74963379,-26477447.509765625,-26436971.66442871,34964912.41455078,-47117034.912109375,-74336174.01123047,-53912765.50292969,-19088401.794433594,-6161286.354064941,-32916252.13623047,-34597042.083740234,-666023.7312316895,-4201978.2066345215,7785635.471343994,-56430469.51293945,-47462192.53540039,-22827468.872070312,-28234897.61352539,-22257856.369018555,-32366855.62133789,-19649501.80053711,-36345703.125,-24058734.893798828,-56743824.00512695,-43038120.26977539,-45438148.498535156,-26932313.919067383,-21883157.73010254,-26504968.643188477,-19171367.645263672,-18911235.809326172,-24638044.357299805,-24239345.55053711,-25426120.75805664,-97676910.40039062,-34843620.30029297,-25481771.46911621,-7633235.454559326,-7779822.826385498,-18764535.903930664,-24987043.380737305,-24369829.177856445,-21909214.01977539,-34973937.98828125,-25213771.82006836,-10657037.734985352,-9907045.364379883,-37706516.26586914,-20983360.290527344,-34186771.392822266,-26088628.7689209,-25796060.56213379
0.465,1142672607.421875,1153361328.125,1159734619.140625,1117137573.2421875,1141569580.078125,1098517700.1953125,1139953613.28125,1138464477.5390625,1132917358.3984375,1130140380.859375,1117290405.2734375,1118332275.390625,1117855102.5390625,1177505249.0234375,1098884277.34375,1073547241.2109375,1092803222.65625,1127984741.2109375,1137724243.1640625,1110075927.734375,1108537475.5859375,1140748046.875,1136278076.171875,1150586059.5703125,1088788818.359375,1097510253.90625,1121549804.6875,1115295532.2265625,1119163208.0078125,1109642333.984375,1122430297.8515625,1103978515.625,1118208374.0234375,1088400512.6953125,1103205932.6171875,1098051025.390625,1116123291.015625,1119280883.7890625,1115239013.671875,1120803344.7265625,1122059326.171875,1118569946.2890625,1118630859.375,1117575073.2421875,1047956665.0390625,1104793090.8203125,1113945556.640625,1133805175.78125,1133765502.9296875,1121966796.875,1118132568.359375,1118284790.0390625,1121049682.6171875,1104823486.328125,1113988159.1796875,1130649536.1328125,1131732177.734375,1099429931.640625,1122039916.9921875,1105732421.875,1114069458.0078125,1114357299.8046875
0.47,2925218505.859375,2935113769.53125,2941001708.984375,2902824951.171875,2925577880.859375,2885448974.609375,2928303222.65625,2925003173.828125,2924643066.40625,2916045898.4375,2902366943.359375,2904535888.671875,2903236816.40625,2957494384.765625,2885201171.875,2862645019.53125,2882281738.28125,2917814697.265625,2924176757.8125,2895164306.640625,2894195312.5,2922296386.71875,2917479248.046875,2939080322.265625,2877211914.0625,2885903320.3125,2909678222.65625,2902597167.96875,2904593505.859375,2894463378.90625,2906545898.4375,2887227539.0625,2906334716.796875,2876454589.84375,2893135009.765625,2885452148.4375,2903491943.359375,2904264404.296875,2900701416.015625,2903509765.625,2905910888.671875,2908011718.75,2907355224.609375,2906599853.515625,2838614501.953125,2890910400.390625,2898265136.71875,2918425781.25,2918076660.15625,2905586181.640625,2907491699.21875,2906825439.453125,2910320800.78125,2891120849.609375,2898137207.03125,2914987792.96875,2916601074.21875,2886269531.25,2911289306.640625,2892265625.0,2899715332.03125,2899991210.9375
0.475,4308337890.625,4316310546.875,4321878417.96875,4287980957.03125,4308990234.375,4269079589.84375,4313388183.59375,4308951660.15625,4317386718.75,4302659667.96875,4287244140.625,4290237792.96875,4288485839.84375,4336749023.4375,4268166992.1875,4247707031.25,4270489746.09375,4306761718.75,4312084472.65625,4281138671.875,4280772949.21875,4304716796.875,4300306152.34375,4326742675.78125,4263716796.875,4273046875.0,4297471679.6875,4290941894.53125,4292021972.65625,4280635253.90625,4292134765.625,4272721679.6875,4294845214.84375,4262627929.6875,4280804687.5,4272010253.90625,4291724121.09375,4291378417.96875,4287876953.125,4289245117.1875,4292191406.25,4297548339.84375,4296215332.03125,4295679687.5,4227940917.96875,4280736816.40625,4286333496.09375,4305617187.5,4304901367.1875,4291787109.375,4296858398.4375,4295681152.34375,4300767089.84375,4280912597.65625,4286090332.03125,4301929687.5,4303906738.28125,4279147949.21875,4301723144.53125,4282328125.0,4288848144.53125,4289209472.65625
0.48,4299753417.96875,4306203613.28125,4310622558.59375,4279010253.90625,4299283691.40625,4257341796.875,4303330078.125,4299191894.53125,4311501464.84375,4295147949.21875,4277954101.5625,4280776855.46875,4279286621.09375,4324397949.21875,4256223144.53125,4235627441.40625,4262238769.53125,4299420410.15625,4306199218.75,4273011718.75,4272738769.53125,4294899902.34375,4290791015.625,4317824707.03125,4254270507.8125,4263559082.03125,4289139648.4375,4284171386.71875,4284520996.09375,4272154296.875,4283626953.125,4264805664.0625,4287183593.75,4253242187.5,4270907226.5625,4261778808.59375,4284099121.09375,4283915039.0625,4279975097.65625,4282209960.9375,4284875976.5625,4289994628.90625,4288637207.03125,4287907714.84375,4218157226.5625,4274995605.46875,4280437011.71875,4298701660.15625,4297924804.6875,4284489746.09375,4289117187.5,4288176269.53125,4293958496.09375,4274928222.65625,4280085449.21875,4294985839.84375,4296808593.75,4275908203.125,4294977050.78125,4276469238.28125,4282946289.0625,4283452636.71875
0.485,3234130126.953125,3239830810.546875,3243773925.78125,3211314208.984375,3232044433.59375,3188633300.78125,3235726318.359375,3232650146.484375,3241419433.59375,3227862548.828125,3210677001.953125,3212748535.15625,3211808105.46875,3256640625.0,3187833984.375,3165790527.34375,3193935546.875,3231879638.671875,3240222412.109375,3206335693.359375,3205773925.78125,3228605224.609375,3223673095.703125,3248852539.0625,3187076904.296875,3194747802.734375,3220895507.8125,3217136230.46875,3216778808.59375,3204535644.53125,3216481445.3125,3198081054.6875,3219693603.515625,3186386474.609375,3201619873.046875,3191916259.765625,3215919677.734375,3216413574.21875,3212029052.734375,3216250244.140625,3218325195.3125,3221906738.28125,3221107177.734375,3219894531.25,3147354736.328125,3206735107.421875,3213351074.21875,3231502685.546875,3230910400.390625,3217888671.875,3220906982.421875,3220603759.765625,3224878173.828125,3206516113.28125,3212916503.90625,3227977783.203125,3229269775.390625,3207943115.234375,3225951660.15625,3207913574.21875,3215068115.234375,3215552978.515625
0.49,2532390136.71875,2537407958.984375,2542794921.875,2507554687.5,2530046142.578125,2487876220.703125,2534220458.984375,2531598144.53125,2535000976.5625,2524536132.8125,2509536376.953125,2511299316.40625,2510560058.59375,2555618164.0625,2487375976.5625,2464252929.6875,2490774169.921875,2529623291.015625,2537599121.09375,2505488525.390625,2504868408.203125,2528750488.28125,2522076416.015625,2545895019.53125,2487071289.0625,2492718261.71875,2518334472.65625,2514513916.015625,2514521240.234375,2503091308.59375,2515899658.203125,2496291503.90625,2518362548.828125,2486595214.84375,2499506103.515625,2488780517.578125,2512899169.921875,2514315917.96875,2509910888.671875,2515237548.828125,2517093994.140625,2520217285.15625,2519766845.703125,2518335937.5,2444671386.71875,2503132324.21875,2510318359.375,2529410400.390625,2528914062.5,2516535156.25,2519129882.8125,2519123779.296875,2521318359.375,2503044433.59375,2509869384.765625,2526002197.265625,2526942382.8125,2503324707.03125,2522359863.28125,2504152343.75,2511536376.953125,2511799072.265625
0.495,2966454589.84375,2970267578.125,2977400390.625,2941082763.671875,2965461914.0625,2926818359.375,2971072998.046875,2967891113.28125,2969967041.015625,2959375732.421875,2946452148.4375,2948623046.875,2947684326.171875,2992335937.5,2926180419.921875,2902816406.25,2926315673.828125,2966378417.96875,2972495849.609375,2942749755.859375,2942481689.453125,2966234619.140625,2958345947.265625,2983725097.65625,2925666992.1875,2930319580.078125,2954954345.703125,2950105224.609375,2951857910.15625,2940575683.59375,2954495361.328125,2932233398.4375,2956821289.0625,2925144775.390625,2937376464.84375,2925648193.359375,2949250488.28125,2951698242.1875,2947485839.84375,2952350341.796875,2954495117.1875,2959039550.78125,2958271240.234375,2957158447.265625,2884467773.4375,2941186279.296875,2947105224.609375,2967138183.59375,2966543945.3125,2953912597.65625,2957886718.75,2957582763.671875,2959861816.40625,2941297363.28125,2946696289.0625,2963530029.296875,2964622314.453125,2940311767.578125,2960846679.6875,2942246093.75,2948629882.8125,2948771972.65625
0.5,3755817138.671875,3759012207.03125,3766526611.328125,3731715087.890625,3756696289.0625,3719540527.34375,3762926513.671875,3759095947.265625,3764044189.453125,3750863769.53125,3738221923.828125,3740781250.0,3739729980.46875,3785062011.71875,3718591308.59375,3696441406.25,3718044433.59375,3758632568.359375,3763218261.71875,3734548339.84375,3734598388.671875,3758274658.203125,3751020263.671875,3778300781.25,3718724853.515625,3723032958.984375,3747108642.578125,3741376953.125,3744944091.796875,3733058837.890625,3748396240.234375,3725114257.8125,3750843261.71875,3718127197.265625,3730526855.46875,3718375244.140625,3741711425.78125,3744880371.09375,3740813720.703125,3745331054.6875,3747830810.546875,3753540771.484375,3752296630.859375,3751626464.84375,3680932861.328125,3736776855.46875,3740894042.96875,3761366699.21875,3760726074.21875,3747375976.5625,3752437255.859375,3751693115.234375,3756043945.3125,3736840576.171875,3740533203.125,3757520507.8125,3759010986.328125,3734972656.25,3757010742.1875,3737872802.734375,3742916503.90625,3743236572.265625
0.505,3773145996.09375,3778391845.703125,3786496093.75,3750695800.78125,3776436523.4375,3733212402.34375,3778586914.0625,3774868896.484375,3783477783.203125,3768981933.59375,3756732177.734375,3759079589.84375,3758262451.171875,3807951904.296875,3732267333.984375,3714374023.4375,3736234863.28125,3775427978.515625,3779722656.25,3751938476.5625,3751950195.3125,3778393798.828125,3773568359.375,3795622558.59375,3736670410.15625,3740158691.40625,3764093505.859375,3758218017.578125,3762725830.078125,3751210449.21875,3768822265.625,3748933349.609375,3768745849.609375,3736135742.1875,3747818115.234375,3736095458.984375,3759199218.75,3762805664.0625,3759177246.09375,3765996337.890625,3768500976.5625,3771295898.4375,3770113525.390625,3769465576.171875,3701092285.15625,3755101562.5,3759179931.640625,3781044677.734375,3780584472.65625,3768148925.78125,3770360351.5625,3769538818.359375,3774788085.9375,3754945800.78125,3758864501.953125,3777475830.078125,3779165039.0625,3753323242.1875,3775692382.8125,3756118652.34375,3761147949.21875,3761697265.625
0.51,3093895507.8125,3103703613.28125,3114840087.890625,3070993408.203125,3100861328.125,3044300292.96875,3093184082.03125,3089999755.859375,3100137939.453125,3088088867.1875,3078902587.890625,3080819091.796875,3080250488.28125,3138128906.25,3043668701.171875,3032644531.25,3055791992.1875,3092258300.78125,3097080322.265625,3071639648.4375,3071485351.5625,3104028076.171875,3101989501.953125,3109380371.09375,3055271240.234375,3057981933.59375,3081625976.5625,3075572265.625,3080913085.9375,3071478271.484375,3092536132.8125,3078292236.328125,3085897705.078125,3054786621.09375,3065106201.171875,3054167480.46875,3076576904.296875,3080983642.578125,3078323486.328125,3090213378.90625,3092409667.96875,3087910400.390625,3087200195.3125,3086197509.765625,3019652587.890625,3070459228.515625,3076212158.203125,3101647949.21875,3101382568.359375,3092002929.6875,3087056396.484375,3086508300.78125,3089954833.984375,3070265869.140625,3075965820.3125,3098846191.40625,3100447509.765625,3071748291.015625,3090655273.4375,3071415283.203125,3077749023.4375,3078240966.796875
0.515,2701283203.125,2714844970.703125,2729915283.203125,2675207031.25,2712125976.5625,2643128173.828125,2694837646.484375,2691763671.875,2700007812.5,2692901855.46875,2687920654.296875,2689843505.859375,2689151367.1875,2755516357.421875,2642699462.890625,2636962158.203125,2660748291.015625,2695576416.015625,2701283691.40625,2678002441.40625,2677849121.09375,2716428955.078125,2715637207.03125,2708923828.125,2659110839.84375,2662695312.5,2686062011.71875,2678722412.109375,2685513916.015625,2677688476.5625,2702187744.140625,2689601318.359375,2689494628.90625,2658498046.875,2669173339.84375,2658068847.65625,2679885742.1875,2685382812.5,2683437255.859375,2699559082.03125,2701437744.140625,2691370361.328125,2690852539.0625,2689628173.828125,2622733398.4375,2673055419.921875,2679468261.71875,2708426757.8125,2708068359.375,2700969238.28125,2690356445.3125,2690090576.171875,2691813720.703125,2673083496.09375,2679319580.078125,2706082275.390625,2707545410.15625,2679914794.921875,2692280273.4375,2674088134.765625,2680897460.9375,2681113525.390625
0.52,2995010742.1875,3009192871.09375,3025453857.421875,2966293701.171875,3008198242.1875,2935195312.5,2988468017.578125,2985011230.46875,2988260986.328125,2986032226.5625,2982414062.5,2984721435.546875,2983690917.96875,3053922119.140625,2934672363.28125,2929173095.703125,2952846679.6875,2988715087.890625,2995729492.1875,2971646728.515625,2971559570.3125,3012169677.734375,3010022460.9375,3001341796.875,2950625244.140625,2956525878.90625,2980614746.09375,2971573242.1875,2979440429.6875,2970427001.953125,2996278320.3125,2978285644.53125,2983487548.828125,2949869140.625,2963779052.734375,2950587890.625,2973520263.671875,2979148925.78125,2976771484.375,2992520263.671875,2994267089.84375,2985743896.484375,2984924560.546875,2983874511.71875,2914875244.140625,2970067626.953125,2974464843.75,3003040283.203125,3002363769.53125,2993946289.0625,2984495361.328125,2984334228.515625,2988052978.515625,2970261718.75,2974390625.0,3000248046.875,3001674560.546875,2979174316.40625,2988482910.15625,2971207031.25,2976249511.71875,2976303466.796875
0.525,3363868164.0625,3377625244.140625,3392039550.78125,3336990722.65625,3378566406.25,3308499023.4375,3362043701.171875,3358393554.6875,3356989746.09375,3358143066.40625,3352509033.203125,3354983886.71875,3353872070.3125,3421193115.234375,3307833007.8125,3299528808.59375,3323698730.46875,3362015869.140625,3370390869.140625,3343678710.9375,3343522705.078125,3381863525.390625,3376586669.921875,3376186035.15625,3322283447.265625,3329391845.703125,3355385742.1875,3346508789.0625,3353741210.9375,3341999023.4375,3366465820.3125,3340793212.890625,3357446533.203125,3321669189.453125,3339273681.640625,3322715576.171875,3349297363.28125,3353489013.671875,3350124511.71875,3361850830.078125,3363640869.140625,3359932861.328125,3358801513.671875,3358070068.359375,3289410400.390625,3350308593.75,3351944335.9375,3376331054.6875,3375434814.453125,3363606445.3125,3358676757.8125,3358513427.734375,3367393310.546875,3350418212.890625,3351860107.421875,3372637939.453125,3374063964.84375,3353219970.703125,3368018798.828125,3351416259.765625,3354000488.28125,3354125244.140625
0.53,3246640625.0,3262109375.0,3275093017.578125,3225145996.09375,3263832519.53125,3196914306.640625,3248208740.234375,3244899414.0625,3243660644.53125,3246303955.078125,3238960449.21875,3241166259.765625,3240328613.28125,3300747314.453125,3196303710.9375,3186667480.46875,3212177978.515625,3251759521.484375,3260280517.578125,3233188476.5625,3232936279.296875,3267864746.09375,3260167724.609375,3266349609.375,3212833496.09375,3218149658.203125,3245605224.609375,3239590332.03125,3244824707.03125,3232372802.734375,3254607421.875,3226625000.0,3246331787.109375,3212607910.15625,3230594726.5625,3211051025.390625,3242136718.75,3244656738.28125,3241276367.1875,3250570800.78125,3252496337.890625,3248516113.28125,3247462158.203125,3246848388.671875,3183516845.703125,3244247558.59375,3245142089.84375,3266592285.15625,3265687500.0,3252580810.546875,3247511230.46875,3247325927.734375,3260091796.875,3244243896.484375,3244988281.25,3262507324.21875,3263906005.859375,3236914794.921875,3260920410.15625,3245215820.3125,3247039550.78125,3247329345.703125
0.535,2936457275.390625,2954617919.921875,2968519042.96875,2918229492.1875,2955806152.34375,2890108398.4375,2936214355.46875,2933323730.46875,2937380126.953125,2938688476.5625,2932168212.890625,2934071533.203125,2933459228.515625,2988594726.5625,2889646728.515625,2880438476.5625,2906227050.78125,2945099609.375,2951824462.890625,2927379150.390625,2927198974.609375,2960380859.375,2953165283.203125,2959323242.1875,2908640380.859375,2910418945.3125,2937127441.40625,2934211669.921875,2937476806.640625,2927290283.203125,2949092529.296875,2925758544.921875,2937715820.3125,2908614990.234375,2923165039.0625,2901784667.96875,2935021484.375,2937221191.40625,2934993408.203125,2946864013.671875,2948969726.5625,2939518066.40625,2938718017.578125,2938005126.953125,2880384033.203125,2935213134.765625,2936961914.0625,2960564208.984375,2959685058.59375,2948841796.875,2938744140.625,2938491455.078125,2951025634.765625,2935317871.09375,2936809570.3125,2956892822.265625,2958294189.453125,2924578125.0,2951870117.1875,2936113769.53125,2938630126.953125,2939075439.453125
0.54,3001587402.34375,3019373046.875,3034662841.796875,2981180664.0625,3019485595.703125,2956207275.390625,2997101562.5,2994183105.46875,3004072753.90625,3000495117.1875,2995251464.84375,2997189453.125,2996453125.0,3051534667.96875,2955744140.625,2945086425.78125,2968732910.15625,3006594970.703125,3010777587.890625,2988279052.734375,2988236816.40625,3021634277.34375,3017658447.265625,3023019287.109375,2971396484.375,2970764160.15625,2995008056.640625,2992415283.203125,2994484375.0,2986545166.015625,3010676025.390625,2993285644.53125,2998400634.765625,2971074707.03125,2982017578.125,2959447265.625,2991123046.875,2994027099.609375,2992585205.078125,3009702392.578125,3011997802.734375,3000276611.328125,2999509521.484375,2998717041.015625,2940873291.015625,2990236572.265625,2991760498.046875,3020293701.171875,3019402099.609375,3011500732.421875,2999507568.359375,2999105468.75,3009352294.921875,2990526855.46875,2991766601.5625,3017269287.109375,3018752197.265625,2986480468.75,3010102050.78125,2991214599.609375,2993609619.140625,2994161621.09375
