time,Fp1,Fpz,Fp2,AF3,AF4,F7,F5,F3,F1,Fz,F2,F4,F6,F8,FT7,FC5,FC3,FC1,FCz,FC2,FC4,FC6,FT8,T7,C5,C3,C1,Cz,C2,C4,C6,T8,TP7,CP5,CP3,CP1,CPz,CP2,CP4,CP6,TP8,P7,P5,P3,P1,Pz,P2,P4,P6,P8,PO7,PO5,PO3,POz,PO4,PO6,PO8,CB1,O1,Oz,O2,CB2
0.0,-5788773.059844971,3433074.474334717,-895646.333694458,-13314840.316772461,2727042.6750183105,-15124191.284179688,-26004699.70703125,-6177649.021148682,-401135.9214782715,2370776.414871216,2143247.127532959,-261086.31491661072,-2282308.578491211,-4225128.650665283,-25234453.201293945,-22776576.99584961,-3805123.805999756,362534.0163707733,3148141.860961914,2741627.4547576904,-1945218.563079834,-5900635.719299316,-3760795.5932617188,-10972620.010375977,-18925064.086914062,-10140263.557434082,-5311387.062072754,27874.059975147247,2428481.101989746,-2598382.9498291016,14832.30385929346,-2680111.1698150635,-10936631.202697754,-13063201.904296875,-10738077.163696289,-5413885.593414307,-5450603.96194458,1794146.0609436035,429242.3725128174,-5687689.781188965,1761699.1996765137,-7833499.908447266,-15505683.898925781,-9758998.87084961,-16905332.565307617,-19170175.552368164,-2241240.2629852295,-404990.94128608704,-6089345.455169678,2533351.182937622,-24282789.23034668,-24244054.794311523,-18439857.482910156,-23875354.766845703,2027648.4489440918,1914303.7796020508,1354227.1852493286,-18183486.938476562,-18306465.14892578,-6854224.20501709,2043298.7213134766,954018.5928344727
0.005,21277339.935302734,45811203.00292969,16571901.321411133,7125883.57925415,32409397.12524414,-20578191.75720215,-14667733.192443848,706692.8148269653,6353488.445281982,11740209.579467773,10912919.998168945,6264827.251434326,-4686115.264892578,-20366275.787353516,-22699941.635131836,-23660667.419433594,-2119336.6050720215,3739546.537399292,8810933.113098145,6937172.889709473,-2549376.7261505127,-22142433.166503906,28454669.952392578,6368031.024932861,-18803331.37512207,-8347799.301147461,-2922196.14982605,5170454.502105713,3943052.5302886963,-2138411.9987487793,835199.5944976807,23406915.66467285,-9484595.29876709,-8865850.448608398,-7490499.973297119,-4348201.751708984,-3134251.832962036,133034.31868553162,-427196.32387161255,334643.1255340576,8949542.045593262,-8014998.435974121,-12064468.383789062,-7376495.838165283,-13078478.813171387,-16083951.950073242,-1802116.9900894165,-1965115.0703430176,-8170179.36706543,1665946.4836120605,-17387567.5201416,-16925199.508666992,-13274850.845336914,-18749942.779541016,-2643403.7685394287,-3993965.3873443604,-5290985.584259033,-11873329.162597656,-13406625.747680664,-5115274.429321289,-3259824.03755188,845667.30260849
0.01,29105850.219726562,57218078.61328125,21163684.844970703,19683029.174804688,40715877.532958984,-18922315.59753418,2005516.2906646729,4837145.3285217285,6980518.341064453,12459830.284118652,12286168.098449707,9379413.604736328,-4016871.452331543,-24939233.779907227,-12422564.506530762,-13050836.563110352,-864475.6078720093,3734727.382659912,8402999.877929688,7148918.151855469,-1836879.014968872,-25272922.51586914,45310539.24560547,17250926.971435547,-10237328.52935791,-2552089.4527435303,-228650.22718906403,7316181.182861328,2835944.890975952,337190.717458725,2815239.429473877,36559204.1015625,-6011593.818664551,-1767929.4347763062,-957237.8396987915,-1385565.7577514648,445240.46778678894,-2111128.568649292,-62328.26039195061,7114764.69039917,11731290.817260742,-6898682.594299316,-4600032.806396484,-2051514.6255493164,-3080146.074295044,-4143428.325653076,-355606.7943572998,-2806068.8972473145,-5452831.745147705,39255.57807087898,-4365703.105926514,-3575909.6145629883,-3782479.763031006,-3268516.778945923,-7281231.880187988,-9123555.183410645,-10145918.846130371,-1939491.7488098145,-4062266.3497924805,-1961763.620376587,-8326224.327087402,-2475781.9175720215
0.015,18338674.545288086,39576988.220214844,12525082.5881958,21991678.23791504,28531763.076782227,-12652847.290039062,19003618.240356445,4980489.253997803,2008438.3487701416,5201237.678527832,6022293.0908203125,7626990.795135498,-2151299.476623535,-20944250.106811523,1887731.3137054443,4627678.394317627,-375760.7936859131,733486.1755371094,2673094.0341949463,3370964.0502929688,-1281781.0773849487,-18107229.232788086,45519309.997558594,20930784.225463867,3666227.5791168213,5414107.322692871,2492581.367492676,6439717.2927856445,-348105.87763786316,3543640.613555908,4587090.015411377,35475028.99169922,-1172359.4665527344,6624751.567840576,7520823.001861572,2892493.724822998,4806475.639343262,-4004400.7301330566,946691.7514801025,12524836.540222168,9699493.408203125,-4317170.6199646,5599783.420562744,5506881.237030029,11189373.970031738,13992153.16772461,2465724.9450683594,-2842662.0960235596,441080.4212093353,-2076589.1075134277,12297286.033630371,13201733.589172363,8484384.536743164,19317749.0234375,-10585428.237915039,-12206527.709960938,-12440901.756286621,10171147.346496582,8200164.794921875,2517031.9080352783,-11720025.062561035,-7204885.959625244
0.02,4738074.30267334,19434343.338012695,865743.2198524475,17631731.033325195,14000723.838806152,-9570926.666259766,26408298.49243164,2569594.621658325,-2627993.34526062,-1961260.199546814,-1467649.1022109985,2846104.621887207,-3084552.526473999,-19803537.368774414,9573680.877685547,15232044.219970703,-286148.72694015503,-1832191.9441223145,-2482258.3198547363,-814406.2757492065,-3012564.182281494,-13676684.379577637,39517318.72558594,21397388.458251953,12512938.499450684,10201951.98059082,4428903.102874756,4900240.421295166,-2805006.742477417,4542503.833770752,3946483.612060547,29567852.020263672,2868574.857711792,12237959.861755371,13598255.157470703,6104163.16986084,7923421.859741211,-4168465.6143188477,1306555.2711486816,13738471.984863281,6539185.047149658,-678550.7798194885,13536645.889282227,11884464.263916016,21821907.04345703,27094039.916992188,5899805.545806885,-2199778.5568237305,4307679.176330566,-3094858.407974243,24359401.70288086,25130680.084228516,17948568.34411621,35850013.732910156,-10629798.889160156,-11931085.586547852,-12085929.870605469,19474534.98840332,17734865.188598633,7352320.194244385,-11526590.347290039,-8474740.982055664
0.025,-1390647.292137146,13967941.284179688,-5686545.372009277,10923683.166503906,9888259.887695312,-12996292.114257812,20567314.14794922,218696.28131389618,-2801603.078842163,-3209395.64704895,-4070044.0406799316,-1065249.2046356201,-7123681.545257568,-25297729.4921875,5021125.793457031,11691590.309143066,103089.20592069626,-1553546.9055175781,-3043287.2772216797,-2009266.3764953613,-6271088.600158691,-18003456.115722656,35699920.654296875,21241050.720214844,10557037.353515625,9022590.637207031,4500257.0152282715,4367975.71182251,-2795264.959335327,2654451.370239258,1262101.650238037,27332372.665405273,4542088.031768799,12820115.089416504,14349551.2008667,6369766.712188721,7946935.176849365,-2781977.1766662598,1031604.6476364136,10790441.513061523,6137159.824371338,2974260.091781616,15124755.859375,14045621.871948242,22679664.611816406,26868240.356445312,8162446.975708008,-958914.1607284546,3941661.596298218,-1559388.3991241455,25705167.770385742,26245746.612548828,19999351.501464844,36490203.857421875,-7108404.636383057,-8386869.430541992,-9373520.851135254,21602039.337158203,19855533.599853516,11132379.531860352,-7616295.81451416,-4617413.520812988
0.03,-3961618.9002990723,17294897.079467773,-8206427.574157715,1993156.4331054688,13538309.097290039,-21559864.044189453,4054640.293121338,-1754507.8992843628,-278406.67963027954,113084.11508798599,-1198443.4127807617,-1732378.363609314,-11013448.715209961,-31363512.03918457,-10128849.983215332,-2817152.976989746,208897.23300933838,598491.6687011719,39526.59294009209,373854.27951812744,-8434163.093566895,-25830287.93334961,33344547.271728516,18225532.53173828,-715945.9590911865,2715881.824493408,1600841.1645889282,4304476.737976074,-853471.040725708,-126866.10221862793,-670135.5576515198,28064220.428466797,2347215.8908843994,7847401.142120361,9221277.236938477,3132142.5437927246,4552552.223205566,-1266740.6797409058,1098183.8703155518,5698458.194732666,8896560.668945312,3548219.4423675537,8392350.196838379,10346020.698547363,12751168.251037598,13082592.010498047,7619629.383087158,148470.9531068802,493604.06398773193,1793699.5029449463,14139674.186706543,14593682.289123535,12046028.137207031,19997268.676757812,-2358173.608779907,-3776641.845703125,-5659121.513366699,13751989.364624023,11959297.180175781,11079552.65045166,-2566409.8262786865,766719.9969291687
0.035,-10066452.026367188,18202383.041381836,-11286071.77734375,-11033026.695251465,17383192.06237793,-34342811.584472656,-20164012.908935547,-5627042.770385742,744056.3440322876,3631666.898727417,3584276.9145965576,-208972.2752571106,-12657435.417175293,-33365688.32397461,-32164546.966552734,-23318460.46447754,-1754843.1158065796,2048731.5654754639,3798298.3589172363,4650048.732757568,-8854777.336120605,-31135540.008544922,28699607.849121094,9372859.001159668,-17802328.10974121,-6995345.592498779,-4371773.242950439,3514351.1295318604,1801298.8567352295,-2046528.8162231445,-27071.300894021988,26199865.341186523,-5034422.397613525,-2736819.02885437,-920522.5110054016,-3044017.553329468,-805767.3573493958,-197675.79436302185,1706122.5175857544,-348243.26634407043,12375275.611877441,-2155750.513076782,-6276596.546173096,954654.6936035156,-4862738.132476807,-8982580.184936523,4575789.451599121,-5771.46839350462,-5064261.913299561,4575003.623962402,-9196130.752563477,-8600968.360900879,-5887516.021728516,-8554255.485534668,875821.4116096497,-587990.9992218018,-2925481.5578460693,-4164442.0623779297,-5916835.784912109,4766089.916229248,745503.6640167236,3666959.524154663
0.04,-18405469.89440918,17009681.701660156,-14716864.585876465,-25346530.91430664,19853899.002075195,-49079990.38696289,-46372890.47241211,-11762616.157531738,-757338.7622833252,5436298.370361328,7109896.659851074,1160258.0547332764,-12624769.21081543,-33179035.186767578,-55111396.78955078,-44740306.85424805,-5889724.254608154,1709037.8999710083,6428500.652313232,8643297.19543457,-9244316.101074219,-33802509.30786133,23072792.053222656,-2412775.754928589,-35833335.876464844,-17478900.909423828,-11155379.295349121,2145627.021789551,4463565.349578857,-3004192.82913208,2362334.728240967,21330722.80883789,-15212533.950805664,-15811195.373535156,-12531210.899353027,-9984281.539916992,-5445158.004760742,1127078.7715911865,2267904.281616211,-6263084.411621094,15002989.768981934,-11772151.947021484,-23400646.209716797,-10255148.887634277,-23073682.78503418,-30620512.008666992,1681085.3481292725,-1148596.4059829712,-11471683.502197266,5833522.796630859,-36058891.29638672,-35273033.142089844,-27058378.219604492,-38001136.779785156,2447129.011154175,1029200.3154754639,-1578299.880027771,-25249752.044677734,-27057298.66027832,-4992095.470428467,2224965.3339385986,4652719.974517822
0.045,-22756048.20251465,19439901.35192871,-14545680.046081543,-32915687.561035156,22737613.677978516,-58039546.966552734,-62139099.12109375,-16056415.557861328,-2209647.1786499023,6117840.766906738,8563506.126403809,1743856.1916351318,-11522387.504577637,-32710025.787353516,-68310882.56835938,-57612098.693847656,-9138281.82220459,606723.3681678772,7270985.6033325195,10771172.523498535,-10342555.99975586,-35122150.42114258,21736099.243164062,-8809784.889221191,-46311923.98071289,-23794841.766357422,-14932730.674743652,1418797.7313995361,6384770.87020874,-3173860.788345337,4850153.44619751,19744626.998901367,-20967529.296875,-23610166.549682617,-19120069.50378418,-14181620.597839355,-6858805.6564331055,2820163.0115509033,2771528.720855713,-9022580.14678955,17650468.826293945,-16874660.49194336,-32989822.387695312,-16313903.80859375,-32409408.569335938,-41618518.8293457,1572685.1224899292,-1362369.418144226,-14921933.1741333,7093904.972076416,-51277915.954589844,-50488540.64941406,-38562705.993652344,-53116218.56689453,4217366.695404053,2793966.770172119,17628.731206059456,-36558933.25805664,-38587772.369384766,-10081969.261169434,3880112.1711730957,7102178.573608398
0.05,-22103145.599365234,23972181.32019043,-10366286.277770996,-29428358.07800293,24736328.125,-54727352.142333984,-58428623.19946289,-14702159.881591797,-1698354.6018600464,6006811.618804932,8292065.620422363,2427385.3302001953,-9121465.682983398,-30170043.9453125,-64531387.32910156,-54097438.81225586,-8655106.544494629,52506.718784570694,6241752.147674561,10685667.991638184,-10693503.379821777,-33887367.248535156,26417278.289794922,-5180062.294006348,-43258243.560791016,-22350234.985351562,-13981199.264526367,1847999.8111724854,6633175.849914551,-2224494.457244873,6870139.122009277,25117248.53515625,-17408611.297607422,-20701822.28088379,-16868309.020996094,-13764776.229858398,-4698130.6076049805,3625756.025314331,3742691.7552948,-6268857.955932617,21051620.483398438,-12360816.00189209,-29724843.978881836,-13543506.622314453,-28665988.92211914,-37685768.127441406,3990408.8973999023,258341.07398986816,-12385578.155517578,9300667.762756348,-46173187.255859375,-45579288.482666016,-33337390.899658203,-46747531.89086914,6624541.282653809,5126646.995544434,2663770.6756591797,-31226484.298706055,-33396343.231201172,-5788327.693939209,6245724.678039551,11562008.85772705
0.055,-21326084.13696289,24315765.380859375,-6630841.7320251465,-20106170.654296875,23357213.973999023,-43880485.53466797,-42185070.0378418,-9549950.59967041,-259450.2866268158,4806974.8878479,6688393.592834473,3480118.989944458,-6225613.117218018,-25264963.150024414,-50103511.810302734,-38871906.28051758,-5495499.134063721,236084.75923538208,4307772.636413574,9452150.344848633,-9274122.23815918,-29730712.890625,32409881.591796875,3570600.986480713,-31409267.42553711,-15756416.320800781,-10570633.888244629,2693928.9569854736,5202583.789825439,-368618.1604862213,8359002.113342285,31973005.294799805,-8771891.593933105,-11043346.405029297,-9513674.73602295,-10685482.9788208,-1036588.6688232422,2660729.40826416,4864241.123199463,-500213.5634422302,23240997.314453125,-3694966.0778045654,-19564380.645751953,-5995044.231414795,-17875305.17578125,-25499980.926513672,6331192.0166015625,1934790.9688949585,-6656780.242919922,10139971.733093262,-29486112.594604492,-29055997.848510742,-19227413.177490234,-28458833.694458008,7517277.240753174,5960791.110992432,4233080.3871154785,-17199485.778808594,-19255828.857421875,2826416.7308807373,7166945.457458496,14296093.940734863
0.06,-23350954.055786133,19904197.692871094,-6344716.548919678,-12705902.099609375,19929382.32421875,-36557979.583740234,-28405822.75390625,-5349632.263183594,459852.4868488312,3011088.8481140137,4400719.165802002,4208846.092224121,-4631700.9925842285,-22030902.862548828,-38214866.638183594,-24464723.587036133,-2800308.9427948,643824.6965408325,2894849.5388031006,8438177.108764648,-7270829.677581787,-25517105.102539062,34284492.49267578,9614496.231079102,-20896514.892578125,-9863880.157470703,-7791568.279266357,3211502.5520324707,3263196.4683532715,1391120.433807373,8784017.562866211,32498744.96459961,-3183256.8645477295,-2717835.4263305664,-3511443.853378296,-8050395.965576172,2161108.4938049316,827250.1826286316,5099947.929382324,3290282.964706421,21584957.122802734,409857.0942878723,-11757412.910461426,92103.65265607834,-8603043.556213379,-14590623.85559082,7377627.372741699,1759716.3915634155,-3314561.605453491,6677949.42855835,-16223541.259765625,-15725962.63885498,-9047524.452209473,-12705680.847167969,5241666.793823242,3664805.8891296387,2315596.342086792,-7167498.1117248535,-9022897.720336914,7597900.867462158,4941307.067871094,12107089.042663574
0.065,-26085283.279418945,15487300.872802734,-7649156.093597412,-7065784.454345703,17459226.608276367,-34199302.673339844,-18743562.698364258,-2598933.9351654053,756553.8287162781,1430585.1459503174,2074939.489364624,4243800.163269043,-4594964.027404785,-22911832.809448242,-30374423.98071289,-13328800.201416016,-911614.8948669434,958198.1897354126,1759706.0203552246,7453822.612762451,-6255850.791931152,-23243751.525878906,32545238.494873047,13182235.717773438,-12536536.21673584,-5268356.3232421875,-5186883.449554443,3649737.83493042,1446024.2986679077,2752328.1574249268,7915434.36050415,27672546.38671875,-866959.9294662476,4021904.468536377,1421131.6108703613,-5545952.320098877,5545387.268066406,-639533.519744873,4445480.823516846,4719904.899597168,16774251.937866211,850040.4953956604,-5423945.426940918,5379732.608795166,114079.61696386337,-4193854.331970215,9002040.86303711,705426.037311554,-2442121.0289001465,-34146.69260382652,-6445581.912994385,-5717153.072357178,-2664671.8978881836,948903.4414291382,1177147.7460861206,-410578.81712913513,-2064845.323562622,-943538.4273529053,-2707902.9083251953,8702905.654907227,910630.1665306091,6541794.776916504
0.07,-27511522.29309082,12486155.50994873,-8178250.312805176,2353213.7870788574,15501615.524291992,-27398906.707763672,-1410146.8324661255,2302843.5707092285,1786778.0923843384,-211074.8440027237,-382170.79639434814,3799589.8723602295,-4571946.144104004,-24713050.842285156,-15978950.500488281,3773607.015609741,2639737.367630005,1145806.5509796143,-851539.9694442749,5044828.414916992,-6231620.311737061,-21327146.530151367,32161125.18310547,20986234.664916992,1939604.0439605713,2759546.995162964,-131597.29540348053,4584298.133850098,-1031095.6239700317,4404744.1482543945,6620868.682861328,26017032.623291016,5562363.624572754,15818393.70727539,10959188.461303711,-459355.4139137268,10771159.172058105,-2041592.5979614258,4178359.031677246,8230095.863342285,12653804.779052734,6168070.316314697,7547003.746032715,15331741.333007812,15429387.092590332,13298509.59777832,12896944.046020508,944895.6251144409,1134585.2613449097,-5436243.057250977,12100492.477416992,12977059.364318848,10644277.572631836,23621313.095092773,-2149489.641189575,-3711242.914199829,-5565443.515777588,12076610.565185547,10369807.243347168,13125858.306884766,-2422826.7669677734,1898875.4749298096
0.075,-29417852.4017334,8316214.561462402,-9036322.593688965,14168507.57598877,11833737.37335205,-13911438.941955566,23646299.362182617,9337150.573730469,3158387.4225616455,-2458225.2502441406,-3230005.7411193848,2820890.188217163,-4225355.625152588,-24285249.710083008,5357218.265533447,26854120.2545166,7915435.314178467,1144706.7260742188,-4861080.646514893,1311990.3802871704,-6619625.091552734,-18914140.701293945,34743682.861328125,32944778.442382812,21822923.66027832,14030691.146850586,6452059.745788574,5740900.993347168,-4429415.225982666,6130480.766296387,5770714.282989502,30710336.685180664,17276634.216308594,31793762.20703125,24266426.08642578,6338533.401489258,16475183.486938477,-4211639.404296875,4866345.8824157715,14609002.113342285,11579462.051391602,17273649.215698242,25412015.914916992,28536937.713623047,34465126.037597656,34452861.78588867,16959804.53491211,1975734.1146469116,8082139.015197754,-6861259.937286377,38069152.83203125,38871040.34423828,30455463.409423828,51719306.94580078,-4245966.911315918,-5706605.434417725,-6949558.734893799,31501319.885253906,29937080.38330078,21579778.67126465,-4592823.9822387695,143502.80165672302
0.08,-34165145.87402344,3636936.664581299,-11884927.749633789,17637762.06970215,7712535.381317139,-7448792.934417725,34372737.884521484,12067058.563232422,3163152.2178649902,-4350426.197052002,-5601270.1988220215,996759.1166496277,-5533349.514007568,-24212778.091430664,13984347.343444824,37043186.18774414,10553997.039794922,838806.2715530396,-7109216.213226318,-922745.1682090759,-7847125.53024292,-19308767.318725586,35466259.00268555,37831676.4831543,30521995.544433594,19253438.94958496,9066320.419311523,6083105.564117432,-6760833.740234375,6121229.17175293,5045192.718505859,34102699.279785156,23460638.04626465,38953956.604003906,30492938.995361328,9046950.340270996,18235874.17602539,-6266697.883605957,5398835.182189941,17263067.2454834,12015944.480895996,22862512.588500977,32601272.583007812,34164566.04003906,41347763.06152344,41371841.43066406,17261083.602905273,1139685.2731704712,11072873.11553955,-6138355.731964111,48664688.11035156,49273548.1262207,38505935.66894531,61418811.7980957,-6123125.5531311035,-7488722.801208496,-7940795.8984375,39374935.150146484,37901649.475097656,24737619.400024414,-6632184.982299805,-284108.9367866516
0.085,-41323543.548583984,2164398.193359375,-15552051.544189453,6210217.9527282715,6087841.033935547,-19571008.682250977,14393760.681152344,5552616.596221924,911388.9336585999,-4706047.534942627,-6437375.545501709,-1530084.3715667725,-9732193.946838379,-28110553.741455078,-4836182.594299316,20356105.80444336,7124821.186065674,57320.68419456482,-5587327.003479004,455292.671918869,-10433835.983276367,-24992095.947265625,30054246.90246582,28098115.921020508,16594886.779785156,11805006.02722168,4518057.346343994,5061630.725860596,-5958994.8654174805,3569144.2489624023,3926281.213760376,28893030.166625977,15684132.57598877,28989196.77734375,22680356.979370117,4296772.480010986,14206542.96875,-6366070.747375488,4789312.362670898,11198540.687561035,11643320.083618164,15170484.54284668,19923469.54345703,25975601.196289062,27689268.112182617,24697179.794311523,13537975.311279297,-1957654.8337936401,5033911.228179932,-6212150.096893311,29406995.77331543,29898397.44567871,22892520.904541016,39813552.85644531,-7678894.519805908,-9114648.818969727,-9708445.54901123,23951341.62902832,22343507.766723633,16649698.257446289,-8424668.312072754,-1166987.5383377075
0.09,-49422817.23022461,2998455.286026001,-18273038.864135742,-12493832.5881958,5937273.979187012,-40966651.916503906,-20783397.674560547,-6338816.6427612305,-2785580.1582336426,-4592988.49105835,-6422586.917877197,-4072880.268096924,-14708773.612976074,-33222827.911376953,-36453594.20776367,-9083713.53149414,213073.80497455597,-1401052.2365570068,-2994123.4588623047,3530328.9890289307,-13395383.834838867,-32090503.692626953,22241342.544555664,12489244.46105957,-7350835.800170898,-1333296.775817871,-3059814.453125,3288581.8481445312,-3129771.7094421387,585616.4693832397,3300527.811050415,19942844.39086914,1487531.1851501465,12117874.145507812,9071304.321289062,-3251301.5270233154,8484564.781188965,-4544267.654418945,3951273.202896118,1672902.9417037964,11310600.280761719,2494349.0028381348,-235232.8598499298,12743166.92352295,7048948.764801025,96634.17190313339,10201547.622680664,-4191138.26751709,-4187517.6429748535,-6774232.864379883,-1528407.6929092407,-1023457.407951355,-1872629.165649414,7584418.296813965,-7390114.784240723,-9093975.067138672,-10638048.17199707,-543989.7179603577,-2376873.731613159,5212427.616119385,-8358477.592468262,-1794259.786605835
0.095,-56463718.41430664,2069513.3209228516,-19029912.9486084,-22971260.07080078,4713126.182556152,-50183406.829833984,-37923576.35498047,-13887189.865112305,-5876392.841339111,-5931724.071502686,-6970440.864562988,-5234005.451202393,-16190362.930297852,-32639991.760253906,-50420909.8815918,-22020677.56652832,-3770481.824874878,-3175089.3592834473,-3444095.8499908447,4528823.375701904,-14720659.255981445,-33669589.99633789,20510581.970214844,6876813.888549805,-17039537.42980957,-6257559.776306152,-6383412.3611450195,1976908.2069396973,-1817628.264427185,129016.77191257477,4682705.402374268,18503095.626831055,-3824590.9214019775,6455434.322357178,4516471.385955811,-5662336.349487305,6989038.467407227,-3222411.870956421,4472043.991088867,-1286002.278327942,13267817.497253418,-919570.26720047,-7080685.138702393,8933890.342712402,713754.5347213745,-7733662.128448486,11009704.58984375,-3268337.4881744385,-6537026.405334473,-5634556.293487549,-12194916.725158691,-11654034.614562988,-10017162.322998047,-2417826.4141082764,-5114323.616027832,-7095810.413360596,-9140498.161315918,-8702821.731567383,-10573160.171508789,3163139.581680298,-6152018.5470581055,-756629.6458244324
0.1,-54931766.510009766,5661941.051483154,-11624831.199645996,-14685636.520385742,7374353.408813477,-38314208.984375,-22712095.260620117,-10075661.659240723,-5126207.35168457,-6866233.825683594,-6419343.948364258,-2068700.3135681152,-10644083.976745605,-23711448.669433594,-36405158.99658203,-7852251.5296936035,-865105.3309440613,-3492034.912109375,-6105223.178863525,3268010.8547210693,-13117760.65826416,-27726209.64050293,27640029.907226562,14452483.177185059,-5239005.088806152,1518651.2470245361,-3051239.013671875,2003339.2906188965,-3570032.5965881348,2531404.2568206787,7898230.075836182,26387346.267700195,3210995.91255188,16142791.748046875,12698610.305786133,-1066176.6529083252,10717580.795288086,-4284305.572509766,6129368.305206299,4171978.9505004883,16211606.979370117,6325304.5082092285,3522691.9651031494,17202859.87854004,12313034.057617188,5730652.809143066,14385822.296142578,-1349435.2102279663,-982959.9261283875,-3603897.8099823,4151375.2937316895,4647465.229034424,3611454.963684082,15638465.881347656,-3720964.9085998535,-5751492.500305176,-7260965.347290039,4668225.7652282715,2961091.995239258,11292544.3649292,-4617056.846618652,493101.44782066345
0.105,-31386157.989501953,32649177.55126953,17466989.517211914,14349527.359008789,25312879.56237793,-14785086.631774902,11708517.074584961,5781727.7908325195,3052883.3866119385,-1718064.6657943726,28279.47586774826,8959831.237792969,3063757.4195861816,-9770679.473876953,-11646419.525146484,18405586.24267578,8129370.68939209,86022.58563041687,-5487122.058868408,3794919.25239563,-8378046.989440918,-18163930.892944336,37718284.606933594,24089975.357055664,13853789.329528809,14073766.708374023,3523860.6929779053,3625578.6418914795,-6118151.664733887,5704130.172729492,10900815.963745117,33409328.46069336,11785053.253173828,29328390.12145996,24280509.94873047,5363447.189331055,15606220.245361328,-7154672.145843506,6898551.464080811,10169895.17211914,15093555.450439453,12775653.839111328,17308252.334594727,27289907.455444336,27098621.368408203,23517446.517944336,15679712.295532227,-2556447.982788086,3962078.57131958,-5498107.91015625,25342788.696289062,25742864.60876465,20170545.57800293,38908168.79272461,-7190787.792205811,-8987569.808959961,-9721723.556518555,21021667.48046875,19463401.794433594,17972303.39050293,-7869764.804840088,-2567515.1348114014
0.11,19117086.41052246,92309921.26464844,74435546.875,58754333.49609375,61206638.33618164,7874372.0054626465,46401844.0246582,29023448.944091797,18888368.606567383,12081409.454345703,14289422.988891602,27598077.77404785,22444404.60205078,5261431.2171936035,4814597.129821777,39236511.23046875,19692522.048950195,7891114.711761475,1348594.5463180542,8953973.770141602,-1022721.4097976685,-8985433.578491211,44163600.92163086,26878269.19555664,25862686.157226562,22763637.54272461,9518035.888671875,6546044.826507568,-6536876.678466797,8188061.714172363,12284203.52935791,31580375.67138672,12735719.680786133,35452003.479003906,30620965.9576416,8674234.390258789,18095251.083374023,-10184350.01373291,5562458.9920043945,10238170.623779297,7423094.272613525,10468233.108520508,21817966.46118164,30460746.76513672,33157554.626464844,31386337.280273438,12908471.10748291,-7865089.416503906,1938814.7592544556,-14578355.78918457,31924785.614013672,32276268.005371094,23071083.068847656,48377708.435058594,-16821313.858032227,-18279516.220092773,-18864414.21508789,23837820.053100586,22338922.50061035,14404561.996459961,-17433340.072631836,-13048872.947692871
0.115,77350852.9663086,162638702.39257812,140099945.06835938,103283103.9428711,99318992.6147461,23915239.334106445,70751892.08984375,50417716.97998047,35949413.29956055,28576480.865478516,30579254.150390625,46582035.064697266,40586242.67578125,18958770.751953125,10202990.531921387,50087467.193603516,29412250.518798828,16411279.678344727,10486073.49395752,16367202.758789062,6908197.402954102,-1566813.9457702637,46604507.44628906,25258466.720581055,29533182.14416504,26035879.135131836,13544607.162475586,9806422.233581543,-4715709.209442139,10183730.125427246,12875090.599060059,25450162.887573242,8557965.278625488,35223175.048828125,31787090.301513672,8697588.920593262,18171045.303344727,-12475584.030151367,3347782.3734283447,6506699.562072754,-1913033.9622497559,3238234.043121338,18256483.07800293,27988510.131835938,32268169.403076172,30843999.8626709,8570485.11505127,-13996582.984924316,-4348988.5330200195,-26757320.404052734,26403942.108154297,26787097.930908203,15044967.651367188,46375747.68066406,-28765331.268310547,-30021629.333496094,-30859315.872192383,15674422.264099121,14239900.588989258,4229074.001312256,-29514120.10192871,-27625326.15661621
0.12,108112457.27539062,202168121.33789062,177121673.58398438,125111137.39013672,117119590.75927734,29375431.060791016,77164085.3881836,58862144.470214844,44292968.75,37412979.12597656,39205158.23364258,55703155.517578125,48911483.76464844,27256729.125976562,8569809.913635254,51451084.13696289,32917793.27392578,20507671.356201172,15337125.778198242,21043262.481689453,11482324.600219727,2626341.3429260254,47715049.743652344,24239051.818847656,28352764.129638672,25374300.003051758,14728998.184204102,11863559.72290039,-2751152.753829956,11717588.424682617,14213150.024414062,24283630.37109375,5962685.585021973,33200153.350830078,30867958.068847656,7432097.911834717,17220163.345336914,-13568666.458129883,2511521.339416504,4297184.467315674,-4882589.340209961,-1461884.7370147705,13220651.626586914,25037151.336669922,29823591.232299805,28079299.926757812,6247420.310974121,-17041915.893554688,-8625597.953796387,-32931735.99243164,19683498.38256836,20124876.022338867,7335084.915161133,41840572.357177734,-35795272.82714844,-37084201.81274414,-37914844.51293945,7768417.835235596,6368577.95715332,-3035531.759262085,-36682186.126708984,-37364551.54418945
0.125,90944160.46142578,187473342.8955078,162882080.078125,110611892.70019531,106027717.59033203,19958093.643188477,61080993.65234375,49434135.43701172,39069458.0078125,33373901.3671875,35343502.044677734,50610359.19189453,43608821.868896484,25053768.157958984,-308124.5422363281,41903629.302978516,28517642.974853516,17927759.170532227,13276068.687438965,20464975.357055664,9473626.136779785,1126797.5568771362,47177864.07470703,22964757.919311523,22362255.096435547,21110235.2142334,12168992.042541504,11497424.125671387,-2244835.138320923,11715509.414672852,16173864.364624023,28869628.90625,6527111.053466797,30392444.610595703,28487718.58215332,5896372.318267822,15979705.810546875,-12886973.38104248,3741462.230682373,4521340.847015381,697056.1742782593,-1172946.0954666138,9353816.032409668,23516553.87878418,26093841.552734375,23711929.321289062,7116102.21862793,-16054159.164428711,-8656997.680664062,-28285917.282104492,15007234.573364258,15494609.832763672,4472987.651824951,36252609.25292969,-33143127.44140625,-34587490.08178711,-35198371.88720703,4913882.255554199,3360905.885696411,-2548636.4364624023,-33965835.57128906,-35224071.50268555
0.13,39446002.96020508,133969848.6328125,111394439.69726562,70319335.9375,77194984.43603516,-1653605.6995391846,30709310.53161621,28989244.46105957,25069067.001342773,20492656.707763672,22855997.08557129,36514678.955078125,29232221.603393555,12502810.47821045,-15868911.743164062,24442899.703979492,19339292.526245117,11098178.86352539,6934499.263763428,16037324.905395508,1872425.6753921509,-6124938.011169434,42592182.15942383,18966648.10180664,12572155.952453613,14640063.285827637,7091055.870056152,8891533.851623535,-3221929.3117523193,9589868.545532227,17020380.0201416,31792514.80102539,7781283.855438232,26899360.65673828,25099065.78063965,4557347.297668457,15048561.096191406,-10629029.273986816,5604552.268981934,4384279.727935791,8902508.735656738,2498786.211013794,6710979.461669922,23000915.52734375,20671525.955200195,17363662.719726562,9821027.755737305,-13085296.630859375,-6619823.455810547,-17587596.893310547,10752113.342285156,11295341.491699219,4346415.042877197,29006801.60522461,-23325862.884521484,-24845159.53063965,-25592782.974243164,5130653.381347656,3307517.0516967773,3469459.7721099854,-23933023.45275879,-23123699.188232422
0.135,-14087344.1696167,77550361.63330078,57510738.372802734,29358720.779418945,48504329.681396484,-24531478.881835938,2963151.693344116,9980339.050292969,11552758.21685791,7240534.782409668,9893796.920776367,22691589.35546875,14676798.820495605,-2745936.632156372,-31830446.243286133,8149086.952209473,10773435.592651367,4361318.111419678,618018.2695388794,10936949.729919434,-6469509.601593018,-15174536.70501709,34787425.99487305,14053350.448608398,3678722.620010376,9199841.499328613,2443073.511123657,5606417.655944824,-4728157.997131348,6532746.7918396,15803925.514221191,28927886.962890625,8003736.49597168,24330114.364624023,22515136.71875,3839066.26701355,14860973.358154297,-8161287.307739258,6601931.571960449,2491907.1197509766,13363381.385803223,7163249.492645264,5243862.628936768,23073627.471923828,16078088.760375977,11771986.00769043,12348586.082458496,-10604634.284973145,-5222545.146942139,-9403406.143188477,6749859.33303833,7373026.371002197,4255841.255187988,22856706.619262695,-13854081.153869629,-15272994.041442871,-16591432.571411133,5471675.395965576,3584897.756576538,9710034.370422363,-14300801.277160645,-10203453.063964844
0.14,-49218154.90722656,41486675.26245117,23563667.29736328,2868538.1412506104,30101240.158081055,-40122398.376464844,-14939299.583435059,-1141581.8929672241,3771857.261657715,-691777.7061462402,2161151.40914917,14583224.296569824,5807305.335998535,-12444665.908813477,-43555202.48413086,-2423063.278198242,5600526.809692383,254610.15105247498,-2940876.4839172363,7847258.567810059,-11290495.872497559,-21569728.85131836,28300918.579101562,11061832.427978516,-2544437.4084472656,5697789.192199707,-598721.5638160706,3289136.6481781006,-5489204.406738281,4453670.501708984,13979798.316955566,24777343.75,6612261.772155762,22251724.243164062,20519567.489624023,2989282.1311950684,14450031.280517578,-6469351.768493652,7093389.03427124,94268.14317703247,14647232.055664062,9774155.616760254,2714993.2384490967,22216749.19128418,12592649.459838867,7271290.302276611,13538943.29071045,-9307592.391967773,-5598781.585693359,-6509533.882141113,1419701.8146514893,2078359.603881836,1582407.1168899536,17609621.047973633,-9492467.880249023,-10742954.25415039,-12484565.734863281,2993658.0657958984,1368031.9786071777,11955799.102783203,-9905976.295471191,-3543670.415878296
0.145,-67769981.38427734,24592866.897583008,7355043.411254883,-11914420.127868652,21752788.543701172,-48446254.73022461,-28166063.30871582,-6234367.370605469,868760.1685523987,-3080469.3698883057,114075.668156147,11779292.106628418,2704378.843307495,-15066208.839416504,-52163478.85131836,-10431426.048278809,3260669.231414795,-1245254.8742294312,-3428030.014038086,7695713.996887207,-12176649.09362793,-23925489.42565918,26495382.30895996,9693206.787109375,-8719623.565673828,2230010.986328125,-3076298.236846924,2464183.807373047,-4742158.41293335,4282630.920410156,14093795.776367188,25401428.22265625,4041071.4149475098,18401710.510253906,17086784.36279297,951401.41248703,12579595.565795898,-5156553.268432617,8543965.339660645,-1153653.5024642944,17613374.710083008,8528269.76776123,-3176072.359085083,18922943.115234375,7281362.533569336,778944.1347122192,13654150.96282959,-8228621.482849121,-7011929.988861084,-4955389.022827148,-7668016.9105529785,-7108249.187469482,-4859961.50970459,9554262.161254883,-8407614.707946777,-9613034.24835205,-11215072.631835938,-3489317.6555633545,-4830477.237701416,10142221.450805664,-8808249.473571777,-2071505.3081512451
0.15,-79383163.45214844,14860606.19354248,-2322153.8066864014,-21074365.615844727,18288112.64038086,-51427307.12890625,-36712631.22558594,-8176555.633544922,139228.53767871857,-3083115.577697754,516978.6810874939,11432277.67944336,2569204.092025757,-14496829.986572266,-56461032.86743164,-15471880.912780762,3043919.324874878,-1200510.2634429932,-2578251.1234283447,9006984.71069336,-11349183.082580566,-23309244.15588379,28620292.66357422,9685173.988342285,-13125945.091247559,-352091.31240844727,-4718072.414398193,2492134.3326568604,-3371934.652328491,5677371.978759766,16898380.279541016,30491718.292236328,3487145.6623077393,15102046.012878418,14149494.171142578,-735142.7674293518,10761914.253234863,-3906243.324279785,11154279.708862305,-289190.3519630432,23199138.641357422,6605404.376983643,-8062811.851501465,16080242.156982422,2269690.0367736816,-5107135.772705078,14042056.0836792,-6569273.471832275,-7022147.178649902,-1829308.271408081,-14953820.22857666,-14600350.379943848,-9661292.07611084,2860085.0105285645,-6739816.188812256,-8075602.5314331055,-9236982.345581055,-8311435.699462891,-9640022.277832031,9104658.126831055,-7084751.605987549,-544502.9735565186
0.155,-87766166.68701172,5625262.260437012,-9821354.866027832,-24110549.926757812,15004086.4944458,-48406284.33227539,-31844167.709350586,-7364824.7718811035,224029.94334697723,-3757845.640182495,-60013.920068740845,11493841.171264648,3110404.4914245605,-13922376.63269043,-51348384.857177734,-11093680.381774902,4868303.298950195,-739586.1744880676,-2721042.1562194824,9160731.315612793,-10637995.719909668,-21211853.02734375,31712106.704711914,12955415.725708008,-9197757.720947266,1904848.6948013306,-3548591.375350952,2400623.321533203,-3333878.517150879,7647814.750671387,20446104.049682617,34913654.32739258,8065163.612365723,18257011.41357422,16963653.564453125,945150.7925987244,12200126.647949219,-3625049.829483032,13312276.840209961,2752281.904220581,26976436.614990234,9150156.97479248,-4234803.676605225,18977289.1998291,5093378.067016602,-1924668.312072754,15718539.237976074,-4857111.930847168,-3735719.2039489746,582617.9385185242,-9883418.083190918,-9681691.16973877,-4662414.55078125,8588934.898376465,-4350876.331329346,-5823120.1171875,-6772690.296173096,-3205394.983291626,-4678533.07723999,13483211.517333984,-4667643.070220947,2768506.5269470215
0.16,-92638618.46923828,-2308404.4456481934,-14078336.715698242,-21283630.37109375,10323866.844177246,-41609989.166259766,-14720788.955688477,-5445331.09664917,240692.31748580933,-6071991.443634033,-2611318.588256836,11181474.685668945,3280754.804611206,-13490665.435791016,-38977729.79736328,1886756.420135498,7105094.909667969,-1058669.8055267334,-4743087.7685546875,7166264.533996582,-10490622.520446777,-19148420.333862305,33684207.916259766,19004514.694213867,2502810.478210449,8835813.522338867,56107.230484485626,1786736.6075515747,-5244922.637939453,9128116.607666016,22348867.416381836,35930358.88671875,15009973.526000977,27503540.0390625,25525499.34387207,5635760.78414917,16909706.115722656,-4917872.428894043,13725761.413574219,6519907.9513549805,26103189.46838379,15510735.511779785,7213235.378265381,27136270.52307129,16596494.674682617,11105456.352233887,18173259.735107422,-4061523.914337158,1326281.7859649658,-372751.3253688812,6609903.335571289,6845424.652099609,8911353.11126709,26796697.61657715,-3771581.8881988525,-5178317.546844482,-6301197.528839111,10407991.409301758,8918251.037597656,21447294.235229492,-4116405.963897705,5046323.776245117
0.165,-96116226.19628906,-7754578.590393066,-16456981.658935547,-18130472.18322754,5506313.800811768,-36681613.92211914,688096.8809127808,-5365013.122558594,-1015551.4478683472,-9419148.445129395,-6055149.078369141,10382585.525512695,2988884.925842285,-12574870.109558105,-28625965.118408203,13791606.903076172,7591395.378112793,-2842405.319213867,-7878354.072570801,4256965.160369873,-10783653.259277344,-18056919.09790039,34473217.01049805,24262170.791625977,13369156.837463379,15463032.722473145,3117984.7717285156,1244846.5824127197,-7789080.619812012,9737489.700317383,22299636.840820312,35941814.42260742,19130014.419555664,36021656.03637695,33872451.78222656,9733914.375305176,21355535.50720215,-6814313.888549805,12988054.275512695,9278969.764709473,23289237.97607422,20525991.439819336,17274986.267089844,34548316.955566406,28463155.74645996,24576555.252075195,20190343.856811523,-4235807.418823242,4910490.036010742,-3251239.29977417,22033176.42211914,22426036.834716797,21522247.314453125,44469905.853271484,-5645250.7972717285,-6787319.183349609,-8091396.331787109,22782081.604003906,21398431.7779541,27423841.47644043,-5956126.2130737305,4286502.361297607
0.17,-100942810.05859375,-12778367.042541504,-19996994.018554688,-16642663.955688477,1826902.8663635254,-33611892.70019531,9844764.709472656,-5946187.973022461,-3484631.5383911133,-13142738.342285156,-9511023.52142334,9402244.567871094,2906348.22845459,-11416453.36151123,-20933805.465698242,22667966.842651367,7389692.783355713,-5314669.609069824,-11435173.988342285,1527386.5461349487,-11311643.600463867,-17144960.403442383,35122310.638427734,28710891.723632812,21400518.4173584,20549535.751342773,5022700.786590576,1826758.7423324585,-9977940.559387207,10193021.774291992,21635450.36315918,38033302.307128906,22196723.93798828,42269412.994384766,39948978.424072266,12188865.661621094,23887659.072875977,-8288366.317749023,12275069.236755371,11404390.335083008,21955940.24658203,23742916.107177734,23753688.81225586,39499309.53979492,36746284.48486328,34177513.122558594,21551752.0904541,-4799287.796020508,6644796.848297119,-5572001.4572143555,32470390.31982422,32943641.662597656,30569513.32092285,56418754.57763672,-8162199.974060059,-9056688.30871582,-10070290.565490723,31428358.07800293,30035913.467407227,30828807.830810547,-8285716.0568237305,2335581.3026428223
0.175,-106086311.34033203,-19469022.750854492,-24237024.307250977,-11155123.710632324,-1485919.3563461304,-25463083.267211914,24924398.42224121,-2366451.5018463135,-5217653.274536133,-16898626.32751465,-13083883.285522461,8682984.352111816,3600505.1136016846,-10678925.514221191,-5598449.70703125,38338165.283203125,9908230.781555176,-6807263.374328613,-15437322.616577148,-1361915.5883789062,-11680581.092834473,-14947285.652160645,36204055.78613281,37180393.21899414,34789253.23486328,28737670.8984375,8643563.270568848,3747037.649154663,-12450216.293334961,11363245.010375977,21094390.869140625,41347675.32348633,31136882.781982422,52562026.97753906,48528472.900390625,15982954.025268555,26909921.646118164,-9895298.00415039,11488919.258117676,14667880.058288574,21113315.58227539,30105632.781982422,34308322.90649414,47010791.77856445,47649291.9921875,46930065.1550293,22929437.6373291,-5741003.513336182,9145946.502685547,-7992512.7029418945,48111118.31665039,48483386.9934082,43675510.40649414,72786895.75195312,-10194646.835327148,-11040999.412536621,-11272233.009338379,44323669.43359375,42753971.099853516,36579139.709472656,-10099686.622619629,1715137.3624801636
0.18,-108781517.0288086,-26063432.693481445,-26072469.71130371,93941.94930791855,-5442833.90045166,-11550346.374511719,49376800.537109375,5236793.994903564,-4807338.237762451,-19786832.809448242,-16243028.64074707,8354275.703430176,4499858.379364014,-10845849.03717041,17582386.016845703,61677711.486816406,15068167.686462402,-6650935.649871826,-19090208.053588867,-4276641.368865967,-11604207.038879395,-12177038.192749023,37005508.42285156,49739860.53466797,54307125.091552734,40373291.015625,14447027.206420898,5805437.5648498535,-15450780.868530273,12879431.72454834,20409309.38720703,42540302.27661133,44607028.96118164,67418266.29638672,60393005.37109375,21862310.4095459,31690082.550048828,-12289219.856262207,9979607.582092285,18555173.873901367,18341257.095336914,39515960.693359375,50188816.07055664,58054420.471191406,63312313.079833984,64994132.99560547,24186504.364013672,-7438610.553741455,12894873.61907959,-11873242.378234863,71118766.78466797,71330238.34228516,61763862.60986328,96672790.52734375,-12173261.642456055,-13127947.807312012,-12611307.144165039,62556102.75268555,60849498.7487793,45402454.3762207,-12039821.62475586,1951730.1321029663
0.185,-109381706.23779297,-28592569.35119629,-24913492.20275879,7551808.834075928,-8642702.102661133,-3204900.2647399902,63601707.458496094,9445180.892944336,-3372142.0764923096,-20520954.132080078,-17306566.23840332,8143301.963806152,4497689.247131348,-11829735.75592041,30048427.58178711,74902000.4272461,18133556.365966797,-5789995.6703186035,-20399732.58972168,-5436609.268188477,-11384676.933288574,-11486762.046813965,36482276.916503906,57242424.01123047,65109756.46972656,46900550.842285156,17832677.841186523,6616582.39364624,-17254680.633544922,13494429.588317871,19910753.25012207,40702117.919921875,50631328.58276367,75546607.9711914,66929977.41699219,25175411.224365234,34823627.47192383,-14204898.834228516,8405479.431152344,19921735.763549805,15183633.804321289,43856967.92602539,58761562.34741211,64198036.193847656,72612022.39990234,75501289.36767578,24122463.22631836,-9388012.886047363,14490370.750427246,-15198022.842407227,84063995.36132812,84250289.91699219,71175643.92089844,110712333.67919922,-14077494.621276855,-15107312.202453613,-14386981.964111328,72198463.4399414,70547470.09277344,50059215.5456543,-14092894.554138184,825514.9722099304
0.19,-110860534.66796875,-26306539.53552246,-23644590.377807617,2651592.016220093,-8882287.02545166,-8868473.052978516,51761344.90966797,5610180.377960205,-2887725.353240967,-19147792.81616211,-15838033.676147461,7752359.867095947,3560871.362686157,-12675276.756286621,18934499.740600586,65200836.181640625,16342693.328857422,-5253755.569458008,-18655086.517333984,-3867455.7209014893,-11657022.476196289,-13633170.127868652,34931041.7175293,52857925.41503906,56779975.89111328,42569808.95996094,15636496.543884277,6262259.960174561,-16422857.284545898,12849939.346313477,20753063.201904297,38698184.967041016,43090171.813964844,69319747.92480469,62133750.915527344,22473337.173461914,33106002.807617188,-13904572.486877441,8188260.078430176,17577610.01586914,15400460.243225098,38939975.73852539,50982719.42138672,59266429.90112305,66191963.19580078,67788841.2475586,22399858.474731445,-10302446.365356445,11785708.4274292,-14929614.067077637,73535812.37792969,73866622.92480469,62133579.25415039,100523185.72998047,-14955257.415771484,-15922848.70147705,-15461014.747619629,63090507.50732422,61606540.67993164,45350646.97265625,-15078345.29876709,-1911553.3828735352
0.195,-114631507.87353516,-23355108.2611084,-24708312.98828125,-9410431.861877441,-6745602.607727051,-21377574.920654297,27126014.709472656,-1194347.1431732178,-3449987.6499176025,-17401168.823242188,-13932973.861694336,7292276.859283447,2737457.752227783,-12517035.484313965,-2823320.3887939453,44921733.85620117,12970643.043518066,-4879787.921905518,-15850950.241088867,-1311154.6039581299,-12647023.20098877,-16246156.692504883,33558506.01196289,42291152.95410156,40173950.1953125,33884117.126464844,11308235.168457031,5947823.524475098,-14266205.787658691,11823040.008544922,22896093.368530273,39016941.07055664,31686832.427978516,57271751.403808594,52710865.02075195,17265953.063964844,28795181.274414062,-11898727.416992188,9259882.926940918,14237769.12689209,18988990.783691406,31816347.122192383,36122589.111328125,49592891.693115234,51748550.41503906,50652828.216552734,20495616.912841797,-9769932.746887207,7458820.343017578,-11851038.932800293,51607074.73754883,52103321.07543945,44615402.22167969,77842216.49169922,-14435876.846313477,-15287840.843200684,-15087697.02911377,45220378.87573242,43883987.42675781,36547027.587890625,-14463768.95904541,-3813496.1128234863
0.2,-119356201.171875,-23618711.471557617,-27544937.133789062,-17768833.16040039,-4975914.001464844,-28646821.975708008,12710220.336914062,-3942739.963531494,-3581632.8525543213,-16461248.397827148,-13411495.208740234,7376589.775085449,2456825.7331848145,-12373106.002807617,-14968931.198120117,33630466.46118164,12078879.356384277,-4075107.5744628906,-14155722.618103027,232169.61324214935,-13898414.611816406,-17507507.32421875,32290607.452392578,35669044.494628906,31790065.76538086,30096429.8248291,9661126.136779785,6079071.044921875,-13083054.542541504,11003773.68927002,24497112.274169922,40055187.2253418,28134641.647338867,51808273.31542969,48423252.10571289,14902576.446533203,26237022.399902344,-10274165.153503418,10010175.704956055,12255002.02178955,21984510.42175293,30324796.676635742,28550580.978393555,45130981.4453125,43045894.622802734,39862186.431884766,19867227.55432129,-8845190.048217773,5036230.564117432,-9260725.021362305,38530799.865722656,39075889.587402344,34482284.54589844,63720497.131347656,-12986268.997192383,-13831361.770629883,-13738228.797912598,34855964.66064453,33630908.96606445,32217800.14038086,-12851266.860961914,-2707851.8867492676
0.205,-123188896.17919922,-25881067.276000977,-29977739.334106445,-20489622.116088867,-4684528.827667236,-29727571.487426758,10164058.685302734,-3400372.9820251465,-2730484.962463379,-15660992.622375488,-13316738.12866211,8501034.7366333,1940175.0564575195,-14372174.263000488,-16632442.474365234,31974857.330322266,12789868.354797363,-3092930.555343628,-13385149.955749512,1217257.6189041138,-14651764.869689941,-18486043.93005371,29777410.50720215,34425098.41918945,31516275.40588379,30542276.38244629,10071159.362792969,5811933.517456055,-13071297.645568848,10093502.044677734,24313074.111938477,38466098.78540039,30390645.98083496,52382591.247558594,48803672.790527344,15188502.311706543,25839811.325073242,-9875031.471252441,9685084.342956543,10590430.25970459,21973257.064819336,32107059.478759766,28546667.098999023,46008174.896240234,41378944.396972656,37292224.8840332,20142257.690429688,-8682658.195495605,4284523.010253906,-8226846.694946289,35939731.59790039,36427036.28540039,32911205.291748047,60507694.244384766,-11098662.376403809,-12106850.624084473,-12186579.704284668,33433700.561523438,32295608.520507812,32930553.436279297,-10991916.65649414,433808.6247444153
0.21,-125628616.33300781,-26419549.9420166,-30666791.915893555,-23242971.420288086,-4706226.825714111,-31990917.205810547,5240521.430969238,-4943865.2992248535,-2063812.9711151123,-14281105.041503906,-11977806.091308594,10023447.99041748,468772.0835208893,-18675825.119018555,-20747495.651245117,27556535.720825195,11927430.152893066,-2720770.5974578857,-12305393.21899414,2939861.059188843,-14584364.891052246,-20714683.532714844,25787540.435791016,32683822.631835938,28133949.279785156,28636991.500854492,8908120.155334473,4725008.010864258,-12790695.190429688,8968036.651611328,23362483.978271484,34068058.013916016,28769941.329956055,50144741.05834961,47013118.743896484,14319520.950317383,24948785.78186035,-9841567.993164062,9313938.14086914,7702684.40246582,20506132.125854492,30199632.64465332,26357849.12109375,45160602.56958008,38370872.497558594,33929500.579833984,19910329.818725586,-9396583.557128906,2821819.78225708,-7640295.505523682,31495784.759521484,31908290.86303711,30071701.049804688,55814659.118652344,-9593358.993530273,-10824588.775634766,-11191955.56640625,30899120.330810547,29762197.494506836,32514045.71533203,-9720829.010009766,2145110.3687286377
0.215,-127583999.63378906,-24925228.118896484,-30149108.88671875,-28217493.057250977,-4571588.99307251,-37895275.1159668,-6045592.308044434,-9414977.073669434,-2731247.663497925,-13281315.803527832,-10213666.915893555,10227504.73022461,-1671459.9132537842,-22811946.868896484,-31089460.372924805,17490299.224853516,9496504.783630371,-3136372.5662231445,-11115258.21685791,4661683.082580566,-14379233.360290527,-23748783.111572266,21809638.97705078,27780412.673950195,19178201.67541504,23596405.029296875,5924347.400665283,3672692.060470581,-11871476.173400879,8064352.035522461,23044734.954833984,30197305.67932129,21691547.393798828,43301525.1159668,41937370.30029297,11600914.95513916,22866909.02709961,-9563357.35321045,9769599.914550781,4548546.314239502,19793865.203857422,24290487.28942871,18933324.813842773,40345611.572265625,31526350.021362305,26927753.448486328,18741003.036499023,-10489933.013916016,111945.23423910141,-7724066.734313965,21247699.737548828,21616001.12915039,22449169.158935547,45626583.099365234,-9804176.330566406,-11128613.471984863,-11652473.449707031,23358995.43762207,22103242.874145508,28081722.259521484,-10087102.890014648,106033.19853544235
0.22,-130443572.99804688,-24489408.493041992,-30166429.51965332,-32859249.114990234,-5159305.095672607,-43901809.69238281,-15744840.621948242,-13112167.358398438,-4383674.621582031,-13771641.731262207,-10028524.398803711,8319819.450378418,-3674808.7406158447,-24889184.951782227,-40722934.72290039,8973537.44506836,7755156.993865967,-3866814.136505127,-10810192.108154297,4779368.877410889,-15238614.082336426,-26553546.905517578,18857528.686523438,22379137.03918457,11489593.505859375,19851263.04626465,3664854.5265197754,3341665.744781494,-11223901.748657227,7381714.820861816,22949687.957763672,29366594.314575195,15860320.091247559,37390598.29711914,37912387.84790039,9490242.004394531,21180002.212524414,-9297652.244567871,10394237.518310547,2529653.310775757,20104627.60925293,19518939.971923828,11553409.576416016,35579776.763916016,25583841.32385254,20991561.889648438,17590328.216552734,-11454113.006591797,-2564635.5152130127,-9446372.985839844,11622427.940368652,11982424.73602295,14838354.110717773,36710617.06542969,-11643223.762512207,-12847131.729125977,-13366127.967834473,15559792.518615723,14169784.545898438,22969829.559326172,-11787906.646728516,-4023035.5262756348
0.225,-134585540.77148438,-26253187.17956543,-31876178.741455078,-36092765.80810547,-6199957.370758057,-48263439.1784668,-20945825.576782227,-14350579.261779785,-5670271.396636963,-14930658.340454102,-11133733.749389648,6011940.956115723,-4831748.962402344,-25736934.661865234,-46576728.82080078,4331192.0166015625,7026160.24017334,-4589874.267578125,-11137337.684631348,3764931.6787719727,-17327270.5078125,-29050230.026245117,16561943.054199219,18668424.606323242,7691678.524017334,18475055.694580078,2680365.562438965,3117754.2209625244,-11133128.16619873,6399960.041046143,22088676.45263672,30595140.45715332,14576883.316040039,34571418.76220703,36163837.43286133,8759993.553161621,20376056.671142578,-9098827.362060547,10312375.06866455,1151520.848274231,20875484.466552734,17894245.147705078,7402903.079986572,33320133.209228516,22482482.91015625,17787807.46459961,17497093.200683594,-11721989.631652832,-4339608.669281006,-11391547.203063965,5872098.922729492,6268812.656402588,10223965.644836426,32248554.229736328,-12673933.029174805,-13672677.993774414,-14322937.965393066,10740388.870239258,9342263.221740723,20836992.263793945,-12543502.807617188,-6209367.275238037
0.23,-138324615.47851562,-27528450.01220703,-34219791.412353516,-38540954.58984375,-5965333.938598633,-51599407.19604492,-25439422.607421875,-14702136.039733887,-5725675.582885742,-15131178.855895996,-11323793.411254883,5875434.398651123,-4657616.61529541,-26629472.732543945,-51271961.2121582,79378.51548194885,6041198.253631592,-5267115.592956543,-11000426.292419434,3577707.052230835,-19077438.354492188,-30920755.38635254,15014216.423034668,16435205.459594727,4677084.445953369,16935890.197753906,1600037.4555587769,2322992.0864105225,-10929036.140441895,5390358.924865723,21264362.335205078,31558231.353759766,14705957.412719727,32233043.670654297,34371181.48803711,8016972.541809082,19566093.44482422,-8663371.086120605,9933382.034301758,-187782.6303243637,21912021.63696289,17334571.838378906,5228579.044342041,32246177.673339844,20015890.12145996,15112957.954406738,18446847.915649414,-11009592.056274414,-5013925.552368164,-11219732.284545898,2199873.685836792,2668863.05809021,7751389.503479004,29546318.05419922,-11157196.044921875,-12093674.659729004,-13046072.006225586,8230751.037597656,6943959.2361450195,21584432.60192871,-10939540.86303711,-4702114.582061768
0.235,-139796035.76660156,-25738348.00720215,-34826919.55566406,-40364685.05859375,-3919745.922088623,-54078498.84033203,-31342788.696289062,-15653116.226196289,-5019501.209259033,-14192019.46258545,-9700034.141540527,8044563.293457031,-3448040.9622192383,-27077808.380126953,-56698371.88720703,-5569731.23550415,4600446.701049805,-5729136.943817139,-10029411.315917969,5012391.090393066,-18981098.175048828,-31429086.685180664,15012942.31414795,14146716.117858887,371695.99533081055,14094244.956970215,-11624.490842223167,1490989.6850585938,-10013856.887817383,5346795.082092285,22308774.948120117,31336702.346801758,12567038.536071777,28542526.245117188,31354856.491088867,6517498.49319458,18366388.32092285,-7897202.968597412,10281530.380249023,-1032184.7200393677,23034351.348876953,15781961.441040039,2966750.6217956543,30481870.651245117,16452304.84008789,11582423.210144043,19294618.606567383,-9996611.595153809,-5099517.822265625,-9551512.718200684,-1408552.1697998047,-896490.1566505432,5630814.075469971,25758012.771606445,-8663974.76196289,-9764192.581176758,-10824924.46899414,6240982.0556640625,5030940.055847168,22378499.98474121,-8599023.818969727,-1848294.734954834
0.24,-139843185.4248047,-21177572.25036621,-32793556.213378906,-44553485.87036133,-1148293.6143875122,-58773216.247558594,-42882732.39135742,-18436542.510986328,-4822564.601898193,-12774084.091186523,-7088192.939758301,10000605.583190918,-2621096.37260437,-26458522.79663086,-67332588.19580078,-16299636.840820312,2658806.085586548,-5808041.572570801,-8189395.904541016,7718100.547790527,-17824670.791625977,-31749086.380004883,15582284.927368164,8030675.888061523,-8363135.33782959,8816152.572631836,-2626640.796661377,1282829.0462493896,-7854695.796966553,6042710.781097412,25376493.453979492,30262180.32836914,6018685.340881348,21566583.63342285,25688188.552856445,3770532.1311950684,16229932.78503418,-6423264.026641846,11645575.523376465,-2420303.1063079834,24621801.376342773,11252543.449401855,-3841671.2284088135,25544258.11767578,8519289.97039795,3268973.5889434814,18704051.971435547,-9651441.57409668,-6835404.872894287,-8266664.505004883,-11243049.621582031,-10778090.476989746,-1720369.577407837,14579617.500305176,-7191563.606262207,-8530426.979064941,-9443958.282470703,-833916.3064956665,-2120679.6169281006,19545793.533325195,-7252806.186676025,-347820.37138938904
0.245,-141013275.14648438,-15636354.446411133,-29644733.428955078,-55529067.99316406,1912101.5071868896,-70708488.46435547,-66489387.51220703,-24290021.896362305,-5698218.822479248,-10774944.305419922,-4059584.617614746,10139750.480651855,-3146683.931350708,-25679935.455322266,-89162841.796875,-37762901.306152344,-874281.4660072327,-5785437.107086182,-5245772.838592529,11442684.173583984,-17692186.35559082,-34141670.22705078,14378604.888916016,-4413236.141204834,-25823295.59326172,-1180688.6196136475,-7643299.579620361,1186312.7946853638,-4201355.934143066,5981503.963470459,28695013.04626465,28953708.64868164,-5159887.313842773,8999019.622802734,15203282.356262207,-1125478.3868789673,12143359.184265137,-3551882.50541687,13599037.170410156,-6504416.942596436,27946907.04345703,2570304.6321868896,-19488052.368164062,15508553.504943848,-7422597.408294678,-14816331.86340332,16833753.58581543,-9624115.943908691,-11857651.710510254,-6248409.271240234,-34425533.294677734,-34067157.74536133,-19967126.846313477,-10455148.696899414,-5657479.763031006,-7107781.410217285,-8067579.26940918,-18710914.611816406,-20178548.81286621,11794756.889343262,-5649756.908416748,340333.2829475403
0.25,-143333282.47070312,-11362639.427185059,-27171695.709228516,-67660797.11914062,5249166.965484619,-84602203.36914062,-91447601.31835938,-30335210.8001709,-6591509.819030762,-8474119.186401367,-1263578.4149169922,9838873.863220215,-3743432.04498291,-25254486.083984375,-112098609.9243164,-60273410.79711914,-4882272.720336914,-6031317.710876465,-2463315.010070801,14737661.361694336,-18782669.067382812,-37159267.42553711,12006648.063659668,-15460943.222045898,-43789623.26049805,-11592063.903808594,-13079646.110534668,658815.9799575806,-987864.1366958618,5030730.724334717,30761787.41455078,28650737.762451172,-14211801.528930664,-2793628.454208374,5173065.185546875,-5752573.013305664,8118697.166442871,-360290.0207042694,15459799.766540527,-11053100.5859375,32528770.446777344,-4623948.097229004,-35401195.52612305,6129510.402679443,-23003841.400146484,-33433525.08544922,15997494.6975708,-8637210.845947266,-16385765.075683594,-1825202.9418945312,-58643627.16674805,-58357002.25830078,-39046573.638916016,-36008991.24145508,-2690255.4035186768,-4082703.113555908,-5350795.745849609,-37555706.02416992,-39151096.34399414,4724971.294403076,-2581828.1173706055,1842812.7765655518
0.255,-144299575.80566406,-11407930.374145508,-25890411.376953125,-65785873.41308594,6760283.946990967,-84422088.62304688,-89187774.65820312,-29733615.87524414,-6214056.015014648,-8092267.036437988,-892610.0134849548,10747482.299804688,-2595352.8881073,-24138568.878173828,-110299873.35205078,-58291236.877441406,-4896503.448486328,-6399107.456207275,-2939277.410507202,14304216.384887695,-19269836.42578125,-36182109.83276367,12222783.088684082,-11276059.1506958,-41302116.39404297,-10393395.42388916,-12628199.577331543,474294.513463974,-1924565.6728744507,4965029.716491699,31304944.99206543,30688768.38684082,-9870653.15246582,825314.1641616821,8436607.360839844,-3952072.858810425,9471031.188964844,-53667.571395635605,16229400.634765625,-9704358.100891113,34473751.068115234,-68269.24532651901,-32219280.242919922,9435214.99633789,-18989885.330200195,-29966453.552246094,18275346.755981445,-6828553.199768066,-13757530.212402344,1856544.852256775,-54321262.35961914,-54026435.85205078,-35655231.47583008,-31476995.46813965,-733500.3614425659,-1996102.3330688477,-3154639.24407959,-34292396.545410156,-35867633.81958008,7616386.890411377,-672622.6806640625,3118649.0058898926
0.26,-143749389.6484375,-17512544.631958008,-26258077.62145996,-46683658.599853516,3419191.360473633,-65665367.126464844,-52347560.88256836,-21243780.1361084,-5265794.277191162,-11568260.192871094,-4721979.141235352,11643255.233764648,-789866.6858673096,-22466524.124145508,-77550453.18603516,-25294132.232666016,617325.5443572998,-6630708.694458008,-7798669.815063477,8903256.4163208,-18661294.93713379,-31030185.69946289,15762274.742126465,8336013.7939453125,-13138416.290283203,6052849.769592285,-4260882.85446167,1345959.0673446655,-7718837.738037109,6381633.281707764,30431831.35986328,34437915.80200195,8169444.0841674805,22580657.958984375,27794319.15283203,5786427.4978637695,17467777.252197266,-3929097.4140167236,15139061.92779541,-1400347.8288650513,30919628.143310547,16245462.417602539,-6237011.909484863,27351129.53186035,8442742.347717285,815160.0360870361,22383005.142211914,-6131251.335144043,-4285307.884216309,-179529.93512153625,-15080780.029296875,-14735410.690307617,-4959473.609924316,9655105.590820312,-2997472.7630615234,-4116758.346557617,-4404345.512390137,-3948487.9970550537,-5410707.950592041,21297164.916992188,-2981395.483016968,1917817.1157836914
0.265,-145212417.60253906,-26387201.3092041,-29291229.248046875,-30324890.13671875,-3735007.5244903564,-48314453.125,-18244672.775268555,-14322733.879089355,-5853258.13293457,-16964405.059814453,-10531989.097595215,10141497.611999512,-1588084.6977233887,-23005769.729614258,-47386180.87768555,5491334.438323975,5754138.946533203,-7001092.910766602,-13272496.223449707,2893156.5284729004,-19047746.658325195,-28446355.81970215,17549722.67150879,23354084.014892578,13243804.931640625,22194931.030273438,3800712.1086120605,2064094.7818756104,-13344318.389892578,7111772.537231445,28520820.61767578,36995941.162109375,22882963.180541992,42097141.26586914,45642440.79589844,14834142.684936523,24687410.354614258,-8291527.74810791,12962853.43170166,5255501.270294189,25431686.401367188,28567817.68798828,17267692.56591797,43372390.74707031,33290641.78466797,29478282.928466797,24520908.35571289,-7454362.869262695,2435225.9635925293,-6115706.920623779,20846921.920776367,21227724.075317383,23217401.5045166,47655788.42163086,-7229559.421539307,-8175230.979919434,-7640826.225280762,24077157.974243164,22690322.875976562,33522930.145263672,-6996421.337127686,-672339.0817642212
0.27,-150132843.01757812,-31443271.63696289,-34199260.71166992,-35100563.049316406,-9026787.757873535,-52137119.29321289,-24114187.240600586,-17268224.716186523,-8096766.471862793,-19781316.75720215,-13513774.871826172,6930329.322814941,-5310168.743133545,-26885080.337524414,-52698440.55175781,972957.0150375366,4553015.70892334,-7681315.898895264,-14566572.189331055,2008365.1542663574,-21501327.514648438,-32649173.736572266,13732222.557067871,18215648.651123047,10418538.093566895,21543491.36352539,2906638.8607025146,1142505.2881240845,-13475090.026855469,5588552.474975586,26933925.62866211,36283733.36791992,20042142.868041992,40028377.532958984,44597976.68457031,14309151.649475098,23629526.138305664,-8596099.853515625,11730502.128601074,2807884.2163085938,24283094.40612793,24512079.2388916,14296268.463134766,41911544.79980469,30171796.798706055,26769535.064697266,23025917.053222656,-9170582.77130127,-415110.37945747375,-8667900.085449219,16237852.096557617,16617403.030395508,19802732.467651367,43452327.728271484,-8063168.525695801,-8843926.429748535,-8428350.448608398,20876058.57849121,19458385.467529297,32973079.681396484,-7466473.10256958,-1287754.4164657593
0.275,-154441696.1669922,-29660001.754760742,-37041923.52294922,-51284652.70996094,-8169522.285461426,-68705238.34228516,-54773929.595947266,-24836254.119873047,-9085828.78112793,-17995269.775390625,-11540254.592895508,5863302.707672119,-7713857.650756836,-30255031.58569336,-79886108.3984375,-25550979.614257812,23059.798404574394,-7794300.079345703,-11566391.944885254,6299160.957336426,-23453824.996948242,-38145149.23095703,8140116.6915893555,3530946.2547302246,-10932979.583740234,9563901.901245117,-3646680.8319091797,-319459.4979286194,-9229906.08215332,3742788.076400757,27245534.896850586,33454509.735107422,7637511.253356934,24791784.286499023,31429718.017578125,7367846.0121154785,17237501.14440918,-5519631.862640381,12404240.608215332,-4446470.737457275,27801776.885986328,12393640.518188477,-5208221.912384033,29392662.048339844,8981957.43560791,3600472.2118377686,20365085.60180664,-9550909.042358398,-7580336.570739746,-5916839.599609375,-14269281.387329102,-13911605.834960938,-4278536.796569824,11706426.620483398,-5239508.152008057,-5990492.820739746,-6266177.177429199,-2926263.8092041016,-4432973.384857178,23639877.319335938,-4564479.827880859,87141.58087968826
0.28,-154325424.19433594,-23991712.57019043,-34511486.0534668,-57190410.61401367,-2540482.521057129,-76685035.7055664,-69706153.8696289,-26896192.55065918,-6814330.577850342,-13637228.965759277,-6620507.24029541,9133825.302124023,-5624732.01751709,-29075054.168701172,-93485397.33886719,-38573143.005371094,-929596.7221260071,-6389200.687408447,-7703824.996948242,11102890.968322754,-22101007.46154785,-37934238.43383789,6893886.566162109,-1422448.5158920288,-21704923.629760742,3300852.7755737305,-6450889.110565186,99882.14075565338,-5727760.791778564,4113165.855407715,29358951.568603516,31056823.73046875,1975134.3727111816,17303691.864013672,24747995.376586914,3586964.6072387695,13948595.04699707,-3282176.2561798096,13841347.694396973,-7689997.19619751,30500856.399536133,7569362.163543701,-15598239.89868164,22527231.216430664,-2822357.416152954,-9061163.902282715,19255622.86376953,-9282738.68560791,-10568429.946899414,-3871685.50491333,-30837564.46838379,-30483493.80493164,-18328969.955444336,-6074808.597564697,-3903674.1256713867,-4806586.742401123,-5373104.095458984,-16931449.89013672,-18480384.826660156,17032808.303833008,-3580541.1338806152,-377718.2400226593
0.285,-152335403.4423828,-18364942.55065918,-28490961.0748291,-53520149.23095703,3707242.727279663,-76316207.88574219,-68090049.74365234,-25183092.11730957,-3606448.4119415283,-9481904.983520508,-1358644.2470550537,14227728.843688965,-1728913.66481781,-25338104.248046875,-93072723.38867188,-37649871.826171875,853276.4911651611,-4334149.8374938965,-4455611.705780029,14227533.340454102,-18896274.56665039,-34710605.62133789,9204813.957214355,1095073.6999511719,-21338481.903076172,3674065.351486206,-5242452.621459961,2187940.1206970215,-4322745.323181152,5725489.139556885,31635023.11706543,30035476.684570312,1850073.0991363525,17275541.305541992,25312353.134155273,3841676.4736175537,14531580.924987793,-2864303.5888671875,14717438.697814941,-7261048.316955566,30116046.905517578,8539401.054382324,-16125619.888305664,21852510.452270508,-3179057.1212768555,-9167765.617370605,18865318.298339844,-10023823.738098145,-10712136.268615723,-6068756.103515625,-31089414.596557617,-30675920.486450195,-19720691.680908203,-6781309.127807617,-5993038.654327393,-7089812.755584717,-7536989.688873291,-18403478.622436523,-19890178.680419922,14679566.383361816,-6044404.029846191,-3880488.634109497
0.29,-153391128.54003906,-14095081.329345703,-24406072.61657715,-58131183.62426758,7836922.168731689,-84214378.3569336,-81410331.72607422,-29242160.79711914,-3242527.723312378,-6806850.433349609,2809642.553329468,16836259.841918945,-804941.7734146118,-24159782.40966797,-105800888.06152344,-50319316.86401367,-1224315.881729126,-3776705.9803009033,-1031920.313835144,17239212.036132812,-17720355.987548828,-36111988.06762695,9326625.82397461,-5311904.430389404,-32096576.690673828,-2314252.3765563965,-7572120.666503906,3202917.0989990234,-2295575.6187438965,5815610.885620117,32927520.751953125,29875820.15991211,-5416034.698486328,8583389.282226562,19173437.118530273,1185899.019241333,12652466.773986816,-1585803.2703399658,15116890.907287598,-10052066.802978516,30202695.846557617,2915479.4216156006,-25622108.459472656,15090272.903442383,-11760757.446289062,-19119325.637817383,17051746.368408203,-11742014.88494873,-14863832.473754883,-8213183.403015137,-43818977.35595703,-43285949.70703125,-29670896.530151367,-20242670.0592041,-7602795.124053955,-8756860.733032227,-9401124.000549316,-28311391.830444336,-29673267.364501953,9658707.618713379,-7615636.825561523,-6536610.6033325195
0.295,-156799789.42871094,-12430258.750915527,-24969718.93310547,-69803100.5859375,8537718.772888184,-97578491.2109375,-106094284.05761719,-37283412.93334961,-5388025.283813477,-6423161.029815674,3996333.360671997,15789272.30834961,-2787471.5328216553,-25901536.94152832,-127671264.6484375,-72777877.80761719,-6466115.474700928,-5180957.794189453,1218525.5289077759,19646183.013916016,-19241758.346557617,-41222316.74194336,6286567.687988281,-18280899.047851562,-50540092.46826172,-13260416.030883789,-12998915.672302246,2418074.8462677,151736.5425825119,4568767.547607422,33216812.133789062,30308403.01513672,-16382717.13256836,-5345021.2478637695,8018328.666687012,-3904411.3159179688,8095185.279846191,515649.9743461609,15210862.159729004,-15564658.164978027,31911027.908325195,-6890980.243682861,-41273178.10058594,4257431.983947754,-26902557.373046875,-36542762.756347656,14791765.213012695,-13281320.571899414,-21321964.263916016,-7198285.5796813965,-66129592.89550781,-65494506.8359375,-45963466.64428711,-43890155.79223633,-6825366.020202637,-7891358.375549316,-8968435.287475586,-44492912.29248047,-45770664.21508789,3558430.9101104736,-6509065.628051758,-5683304.309844971
0.3,-157401443.4814453,-15827687.26348877,-27558900.833129883,-65225135.803222656,5046073.436737061,-92590751.64794922,-97414016.72363281,-35643703.46069336,-5822139.739990234,-8819154.739379883,544016.95728302,13674224.853515625,-3363947.3915100098,-26079128.26538086,-119715316.77246094,-65392166.13769531,-5715705.871582031,-6293617.725372314,-810653.9845466614,17739467.62084961,-20277429.580688477,-41110271.45385742,5222588.539123535,-15957154.273986816,-44109073.638916016,-10197272.300720215,-11152959.823608398,2612278.938293457,-1277813.9114379883,4791960.2394104,32423587.799072266,31173936.84387207,-12183731.079101562,-305967.0031070709,11903909.683227539,-1502016.9019699097,9127343.17779541,-613030.7912826538,14014077.186584473,-15241630.554199219,30217967.987060547,-3882057.9051971436,-36063941.955566406,7503911.49520874,-20908197.4029541,-29420230.865478516,15263518.333435059,-14514652.252197266,-20668190.002441406,-7910961.627960205,-57567199.70703125,-56919536.59057617,-38407711.029052734,-35357845.306396484,-7769793.0335998535,-8746954.917907715,-9541880.60760498,-37000446.31958008,-38296749.114990234,7651278.018951416,-7321844.100952148,-4546820.640563965
0.305,-153965209.9609375,-23502346.03881836,-28438867.568969727,-37989227.294921875,-871660.590171814,-64173057.556152344,-43747379.302978516,-20406003.952026367,-2438107.490539551,-12220226.287841797,-5314453.601837158,13196199.417114258,-887858.8676452637,-22994857.788085938,-73105529.78515625,-18366333.0078125,4193199.634552002,-5038414.478302002,-6220098.972320557,11376526.832580566,-18902763.36669922,-33258213.04321289,8604733.46710205,7158604.145050049,-5120374.67956543,12194268.226623535,1066287.5175476074,5563714.981079102,-7391851.425170898,7152669.906616211,30441623.68774414,31739513.397216797,10127772.331237793,28695569.99206543,35946044.921875,11142625.80871582,18700284.957885742,-6004779.33883667,11244174.95727539,-6730882.167816162,22800474.166870117,15239830.017089844,-4047226.905822754,29120618.82019043,13315713.882446289,10214452.743530273,18918663.024902344,-15799540.519714355,-10937155.723571777,-14582777.976989746,-8228288.650512695,-7625420.570373535,-4396.945238113403,16767992.01965332,-12938767.433166504,-13919357.299804688,-13523369.789123535,1163892.5075531006,-201699.95725154877,23991800.30822754,-12722674.369812012,-6883970.260620117
0.31,-151047149.65820312,-29348085.403442383,-27272302.627563477,-14373385.429382324,-4416944.980621338,-40332122.802734375,2762278.0799865723,-6052802.562713623,1812959.909439087,-13249825.477600098,-8072625.160217285,14498373.031616211,1443302.9890060425,-20260534.286499023,-33950557.708740234,22261638.641357422,13832139.96887207,-2404782.295227051,-9444910.049438477,6688808.917999268,-17020231.246948242,-26248731.61315918,12404652.59552002,27087827.682495117,28240751.266479492,32137569.427490234,11845526.695251465,8640358.924865723,-12295808.792114258,9120639.80102539,28642271.041870117,32012069.702148438,28113231.658935547,53068286.89575195,56790679.931640625,22176298.141479492,27577991.485595703,-10333627.700805664,9169409.75189209,1180207.0140838623,16735450.744628906,31017108.917236328,22767347.33581543,47922733.306884766,42842906.9519043,44280586.24267578,22408994.674682617,-16105571.746826172,-1924504.1608810425,-21322959.899902344,33883777.6184082,34475433.349609375,32574878.692626953,62590927.12402344,-17263641.357421875,-18276929.85534668,-16846990.58532715,33588710.78491211,32217453.002929688,38129020.69091797,-17291057.586669922,-10287817.001342773
0.315,-151914169.31152344,-28319972.99194336,-26310531.616210938,-17483276.3671875,-2395035.5052948,-44478218.07861328,-4555871.486663818,-6164361.476898193,3035245.418548584,-11021962.16583252,-5262646.198272705,16096645.35522461,920945.0483322144,-20640157.69958496,-41619216.91894531,16094503.402709961,13725280.76171875,-1234783.2918167114,-7429158.2107543945,8533621.788024902,-16910320.281982422,-27269922.256469727,12748584.747314453,23201343.536376953,22871835.708618164,29705060.958862305,10211147.30834961,8156207.084655762,-11023848.533630371,9059035.301208496,29304431.915283203,33463306.427001953,24167205.810546875,48813903.80859375,53751438.14086914,20687841.415405273,26640472.412109375,-8877526.28326416,10298413.276672363,1203387.1412277222,19995651.245117188,27848737.716674805,17355085.372924805,45475677.490234375,38514522.552490234,39189247.131347656,22916231.155395508,-14109460.830688477,-1607038.6171340942,-19303754.806518555,26938625.33569336,27556123.733520508,27527902.603149414,56712440.490722656,-14939477.920532227,-15902821.54083252,-14418366.432189941,28614257.8125,27334039.68811035,37491729.736328125,-14877704.620361328,-9430572.509765625
0.32,-154584396.3623047,-22567478.17993164,-26788190.841674805,-37142169.95239258,2848167.4194335938,-65841712.951660156,-46998996.73461914,-16684345.245361328,1085585.117340088,-8341256.141662598,-341864.4666671753,17033906.936645508,-1036056.5185546875,-22311618.80493164,-78343894.9584961,-20157997.131347656,6217005.252838135,-2695595.7412719727,-3449573.278427124,14186322.212219238,-18040948.86779785,-32955547.332763672,10836015.701293945,4703897.476196289,-7031048.29788208,12365435.600280762,231797.35243320465,4433301.92565918,-6085196.018218994,8202796.936035156,32540443.420410156,36222705.84106445,7433104.038238525,26917516.708374023,35258300.78125,10804215.431213379,18807525.634765625,-3952243.0896759033,13723468.780517578,-3490997.076034546,29934978.485107422,13705964.088439941,-7724100.589752197,29433853.149414062,12526785.850524902,9063687.324523926,21047668.45703125,-11008750.915527344,-6929965.496063232,-9934596.061706543,-10981589.317321777,-10400842.666625977,-1488039.3743515015,16443696.975708008,-8238481.521606445,-9055070.877075195,-8080767.631530762,-226011.41035556793,-1428504.8246383667,26783430.099487305,-7878057.479858398,-4319396.018981934
0.325,-156492614.74609375,-18257175.44555664,-28026742.935180664,-50239349.365234375,6167417.526245117,-81173866.27197266,-77801040.64941406,-25562709.80834961,-1385730.3857803345,-7735163.688659668,2157168.388366699,17158159.255981445,-2309211.254119873,-23314750.67138672,-104039863.58642578,-46466796.875,-257681.78701400757,-5177247.047424316,-1711887.1212005615,17809436.798095703,-18936611.17553711,-36797763.82446289,8785204.887390137,-7797421.455383301,-28263357.162475586,-317750.15592575073,-7170844.554901123,1138492.9418563843,-3074107.1701049805,7661607.74230957,35206436.15722656,36999874.114990234,-4078124.523162842,11665921.211242676,21934141.159057617,3573832.2734832764,13008509.635925293,-914712.7866744995,15885422.706604004,-7002956.390380859,36490074.157714844,4353466.987609863,-24799186.70654297,17944471.35925293,-5617504.119873047,-11892154.693603516,18900957.107543945,-9845298.767089844,-11546506.881713867,-3204033.374786377,-37635044.09790039,-37189350.12817383,-22428871.154785156,-12933211.326599121,-4153637.8860473633,-4830811.023712158,-4257438.659667969,-21043350.219726562,-22305654.525756836,18133684.158325195,-3662067.651748657,-546830.7137489319
0.33,-158371475.21972656,-18534975.051879883,-29330982.208251953,-52245609.283447266,4990355.014801025,-85533470.1538086,-84112472.53417969,-29001800.537109375,-2760047.197341919,-8756795.883178711,1297241.3301467896,16083084.106445312,-3824424.0283966064,-25224884.033203125,-109260055.54199219,-52453216.552734375,-2358041.763305664,-6530201.435089111,-2134576.7974853516,17624143.600463867,-19946737.28942871,-38573612.213134766,5667881.965637207,-9924880.981445312,-32401828.76586914,-2542868.3757781982,-8547317.504882812,507628.08322906494,-3522082.0903778076,6456876.754760742,34110954.28466797,32928119.659423828,-6898796.558380127,8729689.598083496,19515579.223632812,2521463.394165039,12396998.405456543,-1038210.391998291,14913740.158081055,-9346040.725708008,34689125.061035156,2348474.0257263184,-27569602.966308594,15667581.558227539,-8036128.044128418,-14341959.953308105,17672971.725463867,-11624843.59741211,-14513762.474060059,-4641759.872436523,-42583358.76464844,-42254169.46411133,-27180974.96032715,-17839681.62536621,-5099773.406982422,-5759991.645812988,-5545255.184173584,-25757726.669311523,-27184886.932373047,15251251.220703125,-4755809.783935547,-1758391.8571472168
0.335,-160999389.6484375,-22816308.975219727,-31075267.791748047,-50452651.97753906,158440.93263149261,-84462852.47802734,-78137535.09521484,-29050458.908081055,-3303325.653076172,-10526935.577392578,-2080043.077468872,13245262.145996094,-7187869.548797607,-29395967.483520508,-104722885.13183594,-47687816.61987305,-1294543.5047149658,-6276595.115661621,-3269770.1454162598,15021765.70892334,-22033336.639404297,-40865303.03955078,1112743.7353134155,-7557096.481323242,-27567243.576049805,1299008.2502365112,-6320290.088653564,1574125.1707077026,-5926322.937011719,4057787.4183654785,29371225.357055664,26794301.986694336,-5320364.475250244,12127779.960632324,23331420.8984375,5057567.596435547,14937450.408935547,-2365028.6197662354,12190501.21307373,-11864615.440368652,27985805.51147461,3215227.1270751953,-23408491.134643555,18512355.80444336,-2083082.1990966797,-6964818.477630615,18061254.501342773,-14255002.02178955,-16349784.851074219,-11120265.007019043,-36647766.11328125,-36296638.48876953,-23569154.739379883,-9206889.152526855,-8347756.385803223,-9126281.73828125,-9396153.450012207,-22224924.087524414,-23743598.93798828,15983743.667602539,-8182685.852050781,-6216025.352478027
0.34,-162263870.2392578,-29975893.020629883,-33699306.48803711,-42820732.11669922,-6413024.90234375,-74880897.52197266,-58993350.982666016,-24258611.67907715,-3367472.4102020264,-13814522.743225098,-7871847.629547119,9299859.046936035,-10940553.665161133,-33190940.856933594,-88144660.94970703,-29468967.43774414,2979629.2781829834,-5433939.456939697,-6106012.344360352,10366838.455200195,-24335578.91845703,-42141544.342041016,-1738505.3634643555,923324.0485191345,-11748088.836669922,11801888.465881348,-460925.78768730164,2663127.1839141846,-10107336.99798584,2227118.730545044,23745079.040527344,24395307.540893555,2947153.329849243,23846607.208251953,34286758.42285156,10962928.771972656,20003841.400146484,-4675225.257873535,9573040.008544922,-11423310.279846191,20867052.07824707,9051957.130432129,-10616106.986999512,27988927.841186523,13352502.822875977,10780409.812927246,20473508.834838867,-15899993.896484375,-14280936.241149902,-18391262.05444336,-17144927.978515625,-16682935.71472168,-9311769.485473633,13047717.094421387,-12373421.669006348,-13300164.222717285,-13683185.577392578,-8225165.367126465,-9641750.33569336,21359508.514404297,-12204163.551330566,-11030344.009399414
0.345,-160845077.51464844,-37494529.724121094,-36560134.88769531,-26881772.994995117,-11950794.219970703,-56898338.317871094,-27562910.079956055,-14770047.187805176,-2877666.711807251,-17973443.98498535,-14082636.833190918,6549337.387084961,-12455843.925476074,-33736896.51489258,-59914890.28930664,989861.249923706,9283884.048461914,-5021390.914916992,-10540489.196777344,4847177.982330322,-25205801.010131836,-40425746.91772461,-1142602.2052764893,16136320.114135742,13770195.007324219,27452051.162719727,8117946.624755859,3280989.8853302,-15347946.166992188,2283562.660217285,19784471.51184082,26383901.596069336,17089731.216430664,43034996.032714844,50780323.02856445,19296548.84338379,26294738.76953125,-8475836.753845215,7398899.078369141,-6677322.864532471,15069928.169250488,20235702.514648438,10026793.479919434,42984428.40576172,36810333.251953125,36912101.74560547,23171529.76989746,-17165966.033935547,-8543045.043945312,-24913560.86730957,15115392.684936523,15635929.107666016,14643232.345581055,45957679.748535156,-17561861.038208008,-18558616.638183594,-18305353.16467285,15391998.291015625,14188795.08972168,30105665.20690918,-17302433.013916016,-15454690.933227539
0.35,-159513763.42773438,-40166152.95410156,-38215759.27734375,-17181001.663208008,-12784512.519836426,-49167934.41772461,-14420923.233032227,-9868538.856506348,-2270801.544189453,-19023309.7076416,-15461510.65826416,7133236.408233643,-11975618.362426758,-32507831.573486328,-48070648.193359375,14152984.619140625,11502255.4397583,-5213716.983795166,-11958476.066589355,3284224.271774292,-24673091.888427734,-39248489.37988281,-542097.5685119629,23462625.50354004,24470382.690429688,33692100.524902344,11801530.838012695,3422087.4309539795,-17248947.143554688,2848889.3508911133,18721061.70654297,27361179.35180664,22176105.499267578,51027446.74682617,57183792.11425781,22588296.89025879,27830110.549926758,-11024018.287658691,5885636.806488037,-3873483.657836914,12795845.031738281,24377016.067504883,18123027.801513672,48799087.52441406,46647613.525390625,47325305.9387207,22721740.72265625,-18868022.918701172,-6565803.527832031,-28046977.996826172,29074846.267700195,29580547.332763672,24144563.674926758,58449535.36987305,-21669300.079345703,-22668006.896972656,-21655405.044555664,24757225.036621094,23676259.994506836,31998292.922973633,-21453166.961669922,-18893531.799316406
0.355,-161004974.36523438,-35347408.294677734,-37641384.12475586,-28427015.30456543,-7885793.685913086,-66227928.161621094,-44353553.771972656,-17382257.46154785,-2267839.193344116,-14644116.401672363,-9452425.956726074,10893447.875976562,-11476750.373840332,-32145469.665527344,-74900260.92529297,-12923289.29901123,5668335.914611816,-5596012.592315674,-7036677.360534668,8883486.7477417,-23838058.471679688,-42291843.41430664,-2724688.5299682617,9958770.751953125,1789845.4666137695,19950345.993041992,5020252.227783203,2930893.1827545166,-12513283.729553223,2592887.6399993896,20971872.329711914,24761577.606201172,7773478.5079956055,33779155.73120117,42443973.541259766,15377601.623535156,20974658.966064453,-8907715.797424316,6271256.446838379,-7962904.453277588,16694751.739501953,11646852.493286133,-1807752.4900436401,34704254.150390625,26301069.259643555,23930568.69506836,18580991.744995117,-19716514.587402344,-12613842.964172363,-24299867.630004883,8055.086247622967,533683.3000183105,740591.824054718,27449701.3092041,-20856866.83654785,-21870418.548583984,-20769214.630126953,1559961.7958068848,394641.8762207031,20694360.733032227,-20813438.415527344,-19403701.782226562
0.36,-163030715.9423828,-28475191.116333008,-35134807.58666992,-47182003.021240234,-1772122.6215362549,-89226364.13574219,-85319747.92480469,-29059391.021728516,-2763214.349746704,-9172351.837158203,-1499674.0818023682,15462376.594543457,-10492605.209350586,-31080684.661865234,-111106315.61279297,-50010654.44946289,-1830703.4969329834,-5894702.434539795,-770097.553730011,16514141.082763672,-22600723.266601562,-45022071.838378906,-3746016.9792175293,-10140807.151794434,-28628860.473632812,1674493.7896728516,-4368391.990661621,2107422.8286743164,-5588731.76574707,3212940.454483032,25900968.551635742,23779260.635375977,-10054410.934448242,10805618.286132812,23354213.71459961,5717214.584350586,13045894.622802734,-4189653.8734436035,9049083.709716797,-12404595.375061035,24629901.885986328,-4806110.858917236,-27845272.064208984,16168506.622314453,-1551815.9866333008,-7395144.939422607,15294385.91003418,-18078189.849853516,-18302064.895629883,-15854233.741760254,-39914436.34033203,-39306262.9699707,-29694568.634033203,-13154287.338256836,-16013904.571533203,-17047044.75402832,-16194057.46459961,-28550384.521484375,-29930696.487426758,8663203.239440918,-16040176.391601562,-16501785.278320312
0.365,-161701034.54589844,-27538475.036621094,-32206188.201904297,-46318729.400634766,-144680.55963516235,-86982551.57470703,-82801673.88916016,-29777187.34741211,-3171345.4723358154,-9044444.08416748,563687.1457099915,18408382.415771484,-6893585.205078125,-26213603.973388672,-107898269.65332031,-47031253.814697266,-1581929.087638855,-6398579.120635986,-1213516.9506072998,17653541.564941406,-20285049.438476562,-40201286.31591797,1260476.1123657227,-10257665.634155273,-25264900.20751953,3510590.076446533,-3840430.974960327,1614111.6619110107,-4313430.7861328125,6670310.020446777,31233266.830444336,29495214.462280273,-6842594.623565674,13581712.72277832,26019643.783569336,6545238.971710205,14550157.54699707,-2670195.5795288086,12412109.375,-7623669.624328613,29940093.994140625,-3018406.391143799,-24509305.953979492,17980995.178222656,658960.9980583191,-4464868.545532227,17196994.78149414,-14853683.471679688,-13190756.797790527,-10522931.098937988,-36217803.955078125,-35593700.40893555,-25040498.733520508,-8706686.973571777,-12740160.942077637,-13696350.09765625,-12511185.646057129,-23783004.760742188,-25323598.861694336,13561730.38482666,-12601889.610290527,-12897026.062011719
0.37,-158323333.74023438,-31885419.845581055,-30402404.78515625,-27333898.544311523,-2614660.7398986816,-63756973.26660156,-43535110.47363281,-20494136.810302734,-3680680.990219116,-13788372.039794922,-3323453.664779663,18914842.60559082,-2031620.5024719238,-19946401.596069336,-72049827.5756836,-10831229.209899902,4495304.107666016,-7516078.948974609,-7577713.0126953125,12240453.720092773,-18239116.668701172,-30994066.23840332,8303364.7537231445,8427930.83190918,5559287.071228027,21788429.260253906,4595146.179199219,1319241.5237426758,-8784420.013427734,10645643.23425293,34239559.173583984,37447803.49731445,12832720.756530762,37312206.26831055,45957782.74536133,16013786.315917969,23266567.23022461,-5285212.03994751,14033587.455749512,2476499.319076538,29606922.149658203,14440138.816833496,2907602.310180664,36653045.654296875,28317506.790161133,27140819.549560547,22072095.87097168,-12696696.281433105,-2121193.8858032227,-11883693.69506836,4658795.356750488,5151084.423065186,8067204.475402832,32636859.893798828,-13454587.936401367,-14255842.208862305,-12273395.538330078,9208431.243896484,7682696.81930542,30435609.817504883,-13087059.020996094,-11263649.940490723
0.375,-157946685.79101562,-32976448.05908203,-30222042.083740234,-21103477.478027344,-3533469.2001342773,-56272590.63720703,-32115341.186523438,-17886833.19091797,-4940540.790557861,-16477300.643920898,-6030184.268951416,17556688.30871582,-995529.2344093323,-19005815.505981445,-61587574.00512695,-537887.6328468323,5272431.85043335,-8967391.967773438,-10553205.490112305,9016518.592834473,-19207569.122314453,-29289831.161499023,7885673.522949219,16089591.979980469,14311657.905578613,27162153.244018555,6188375.473022461,376271.15845680237,-10999009.132385254,10343920.707702637,33905086.517333984,37995220.18432617,19155921.936035156,44409263.610839844,51653808.59375,18765863.4185791,26001419.067382812,-6553259.372711182,13571610.450744629,3642399.0726470947,27685096.740722656,21415307.998657227,11660010.33782959,42773181.9152832,37231353.759765625,37370342.25463867,23515733.71887207,-12929615.97442627,-672703.6833763123,-14812959.671020508,18294342.041015625,18640314.10217285,18017364.501953125,44729942.321777344,-14396846.771240234,-15183818.817138672,-13052303.314208984,19077369.689941406,17704952.239990234,35065914.154052734,-13987229.347229004,-11232442.855834961
0.38,-161492950.43945312,-27316114.42565918,-31080823.89831543,-41176715.85083008,-445176.1543750763,-79296302.79541016,-74890769.9584961,-29109354.01916504,-6649053.09677124,-13739229.202270508,-3895670.175552368,15318647.384643555,-5875519.752502441,-25153791.427612305,-99611495.97167969,-39468612.67089844,-2739428.758621216,-9890911.102294922,-5807464.122772217,12690751.075744629,-23462467.193603516,-39021305.084228516,-1481985.6882095337,-1532344.4604873657,-18093156.814575195,8097893.714904785,-4234326.362609863,-1254812.7174377441,-6912198.543548584,4964654.922485352,31426635.7421875,29422887.802124023,703978.0616760254,20202140.80810547,31132606.506347656,8760792.73223877,17653291.702270508,-3239648.3421325684,12243696.212768555,-8075083.7326049805,28248308.181762695,6009034.633636475,-15607133.865356445,24316534.0423584,9060107.231140137,5498490.333557129,19396051.40686035,-14675577.163696289,-12959517.478942871,-13974667.5491333,-22519042.96875,-22159519.19555664,-15761816.024780273,891291.8567657471,-12355780.601501465,-13412250.518798828,-12138083.457946777,-14601389.88494873,-15819361.686706543,18670364.379882812,-12084170.3414917,-11148865.699768066
0.385,-164253479.00390625,-22105392.456054688,-32187900.54321289,-62165225.982666016,2342653.98979187,-103133148.19335938,-118215774.53613281,-40711715.69824219,-7744821.071624756,-10449267.387390137,-1373183.3696365356,13174901.008605957,-11936447.143554688,-31799451.82800293,-138240875.24414062,-78574485.7788086,-10028922.080993652,-10037433.624267578,-393423.6466884613,17293394.088745117,-27642734.52758789,-49490474.700927734,-10146857.261657715,-21251480.102539062,-50377201.080322266,-11185081.481933594,-13908283.233642578,-2475745.677947998,-2460245.8477020264,-716860.4731559753,28665925.979614258,20813964.84375,-18263360.97717285,-4309840.202331543,10470817.565917969,-1292423.8443374634,8833355.903625488,428423.4941005707,10750955.581665039,-19431535.720825195,29235198.974609375,-11764443.397521973,-44146484.375,5008480.072021484,-20215970.993041992,-27856962.203979492,14475862.503051758,-16626750.946044922,-24997562.408447266,-11784197.807312012,-65428253.173828125,-64954040.52734375,-50199012.756347656,-44122329.71191406,-9954623.222351074,-11358111.381530762,-10895827.293395996,-48908550.26245117,-50078071.59423828,2039815.4258728027,-9756514.549255371,-10974339.485168457
0.39,-163003555.29785156,-24421468.73474121,-32942207.33642578,-57725196.838378906,418185.91952323914,-98160240.17333984,-107688438.41552734,-39044555.6640625,-8014088.6306762695,-12100942.611694336,-3272129.535675049,11975679.397583008,-13253988.265991211,-32248626.708984375,-129711196.89941406,-69309913.6352539,-8647713.661193848,-10264728.546142578,-2053124.4277954102,15809461.59362793,-28642007.82775879,-49759864.807128906,-10013540.267944336,-17201637.268066406,-42102947.23510742,-6698595.04699707,-11087736.129760742,-2591043.9491271973,-4159357.5477600098,-2225304.126739502,26761068.34411621,20517108.917236328,-13814808.84552002,1392664.5517349243,15081494.331359863,1131313.8008117676,10155245.780944824,-603314.995765686,9064455.98602295,-18157730.102539062,26925815.58227539,-9668699.264526367,-38641399.38354492,8953734.397888184,-13686562.538146973,-20868972.778320312,13714285.850524902,-18159118.65234375,-24107715.606689453,-13424279.21295166,-56039024.353027344,-55569923.400878906,-41795860.290527344,-34449874.87792969,-11083520.889282227,-12551342.964172363,-11925148.010253906,-40524276.73339844,-41743026.73339844,5793503.284454346,-10773035.049438477,-11418935.775756836
0.395,-160290802.00195312,-30559852.600097656,-32604183.197021484,-38214263.916015625,-4095472.3358154297,-76657356.26220703,-65406288.146972656,-29764516.830444336,-8194795.608520508,-16681604.385375977,-7385647.296905518,11950337.409973145,-10105732.917785645,-27774726.86767578,-93842956.54296875,-32420166.015625,-3456281.1851501465,-11235154.151916504,-7893557.548522949,10691555.02319336,-27187248.22998047,-42861164.09301758,-4511978.1494140625,2185938.1198883057,-10757303.237915039,11418948.17352295,-1622301.697731018,-2128321.409225464,-9252350.807189941,-369303.52449417114,26064762.115478516,26400224.685668945,4227433.204650879,24217937.469482422,34064971.923828125,10661092.758178711,17544599.533081055,-4474714.279174805,7713694.5724487305,-9068102.836608887,22892526.626586914,5772756.099700928,-12918288.230895996,26645771.026611328,14343591.690063477,10621657.371520996,16197443.008422852,-18860721.588134766,-15267819.40460205,-17960924.14855957,-14881291.389465332,-14572384.83428955,-8111435.890197754,8319242.477416992,-14434422.492980957,-15634852.409362793,-14393950.462341309,-6937965.393066406,-8208144.187927246,21696420.669555664,-13998494.148254395,-11660975.456237793
0.4,-159474014.28222656,-31594257.354736328,-30649318.69506836,-31666561.126708984,-5528701.305389404,-70223983.76464844,-50853706.35986328,-27358856.201171875,-8310544.013977051,-17927270.889282227,-8270075.798034668,12487109.184265137,-7651657.581329346,-24542448.043823242,-82343177.79541016,-21002481.46057129,-3269890.785217285,-12114993.09539795,-9286821.365356445,9443453.788757324,-26253713.607788086,-39598888.3972168,-2160924.196243286,9782760.620117188,-582199.75233078,17165372.848510742,1351729.154586792,-1731156.7068099976,-10420409.202575684,968386.2924575806,26384649.2767334,30317111.96899414,10191418.647766113,31040418.62487793,40034271.240234375,13768483.16192627,19938526.153564453,-5624565.124511719,7568136.692047119,-5344954.490661621,21800844.192504883,12252763.748168945,-4603240.013122559,32435199.737548828,24300622.940063477,21968729.01916504,17588348.388671875,-18552896.49963379,-11692041.397094727,-20033182.14416504,-169196.05433940887,67628.85302305222,3434065.580368042,23876739.501953125,-15566300.392150879,-16506774.90234375,-15301823.616027832,4631610.39352417,3385033.8459014893,27304811.477661133,-15185914.993286133,-10442204.475402832
0.405,-159182266.23535156,-25800537.109375,-27641088.485717773,-42168411.25488281,-2169542.5510406494,-82812477.1118164,-74293807.98339844,-33434127.807617188,-7296815.872192383,-14210381.507873535,-5089089.393615723,12879176.139831543,-8524036.407470703,-25003982.543945312,-103126510.62011719,-42919391.63208008,-7419767.8565979,-11463492.393493652,-4521052.837371826,13346561.431884766,-27044649.124145508,-43064945.220947266,-4851266.860961914,-222649.75309371948,-18136280.059814453,6816239.833831787,-3494368.314743042,-1283055.6631088257,-6770971.298217773,-18184.859305620193,26967966.079711914,28810728.073120117,111413.22553157806,17349531.173706055,29241178.512573242,8631146.430969238,15461809.158325195,-3225485.324859619,8247008.323669434,-10133102.416992188,24134832.38220215,4617012.500762939,-19883529.663085938,22202196.12121582,8956740.379333496,4539206.027984619,16164545.059204102,-18094024.658203125,-16348068.237304688,-18441150.665283203,-22943099.975585938,-22519073.486328125,-15529171.94366455,316553.83110046387,-13648124.694824219,-14621922.492980957,-14139753.341674805,-14150813.102722168,-15319454.193115234,18551530.838012695,-13422682.762145996,-8688582.420349121
0.41,-156073410.0341797,-19726726.531982422,-25335651.397705078,-49403755.18798828,2352296.829223633,-90994155.88378906,-93474021.9116211,-37062526.70288086,-4857213.497161865,-9920241.355895996,-1730033.040046692,13131511.688232422,-10349834.442138672,-26372438.430786133,-119244338.98925781,-59898147.58300781,-8513892.17376709,-9260013.580322266,-80353.92314195633,16721805.572509766,-28186283.111572266,-46927436.82861328,-7850011.348724365,-8959587.097167969,-31919466.018676758,-909604.3705940247,-6684717.178344727,-659452.8555870056,-4127452.850341797,-2050386.667251587,26823375.701904297,25386640.548706055,-7703738.212585449,7164366.245269775,21239624.0234375,4864708.90045166,11642921.447753906,-1629812.8366470337,8144614.219665527,-15308552.742004395,25670633.31604004,-2245246.410369873,-32145015.716552734,14023554.801940918,-4428298.473358154,-11339012.145996094,13800816.535949707,-18921266.555786133,-21341293.334960938,-17528472.900390625,-43059139.251708984,-42381278.99169922,-31967761.993408203,-21577995.30029297,-12239357.948303223,-13422488.21258545,-13383303.64227295,-30419076.919555664,-31547170.639038086,10969404.220581055,-12047935.485839844,-8730154.037475586
0.415,-151158126.8310547,-18292673.110961914,-25236892.700195312,-43599361.419677734,4382771.4920043945,-83938262.93945312,-85064727.78320312,-33323406.219482422,-2499878.6449432373,-8648730.278015137,-649617.8507804871,13548796.653747559,-10772621.154785156,-26600225.4486084,-111929458.61816406,-52265579.22363281,-4996602.535247803,-7097817.420959473,-198908.41841697693,16231220.245361328,-28495359.420776367,-47279014.587402344,-8917268.753051758,-5327513.217926025,-25958288.192749023,3260725.0213623047,-4133757.5912475586,-427248.92497062683,-5542619.705200195,-3773458.957672119,25472917.556762695,23670497.89428711,-3848944.664001465,12148127.555847168,25422536.849975586,6932377.338409424,12348447.799682617,-3110704.4219970703,6491459.846496582,-15747685.432434082,23950443.267822266,490754.54473495483,-27523099.899291992,17125307.083129883,-775911.0331535339,-8383682.2509765625,12165140.151977539,-21282068.252563477,-22082723.61755371,-20009977.340698242,-37864849.09057617,-37197456.35986328,-27800106.048583984,-18207868.576049805,-13611351.013183594,-14866798.400878906,-14542002.67791748,-26212717.056274414,-27391784.66796875,12953338.623046875,-13313488.960266113,-10760584.831237793
0.42,-149615936.27929688,-19625574.111938477,-27469884.872436523,-38986351.013183594,4066822.5288391113,-78692710.87646484,-75533813.4765625,-30030941.009521484,-1863950.490951538,-8987663.269042969,-402333.7960243225,13699165.344238281,-11409252.166748047,-27761156.08215332,-105747764.58740234,-44807754.51660156,-3219412.326812744,-6257365.703582764,-1388534.7843170166,15076663.970947266,-28843725.204467773,-48345088.958740234,-11497625.350952148,-1535919.5470809937,-20611385.345458984,6929849.624633789,-2290927.6485443115,-1102045.8936691284,-7270670.8908081055,-5564792.156219482,23261701.583862305,22491878.509521484,-302243.02411079407,16223842.62084961,28827667.236328125,8413118.362426758,12913276.672363281,-4630282.402038574,4423161.506652832,-16004245.75805664,21371953.9642334,3459719.657897949,-23107532.501220703,19862174.98779297,3489240.1695251465,-4360066.4138793945,10740027.42767334,-23736940.383911133,-22965150.833129883,-23025646.209716797,-31303768.157958984,-30922693.252563477,-22752500.534057617,-13027561.18774414,-15523459.434509277,-16638410.568237305,-16006238.93737793,-21177883.14819336,-22447990.41748047,15213367.462158203,-15156189.918518066,-12032809.257507324
0.425,-154075378.41796875,-20113426.208496094,-30948963.165283203,-49552371.978759766,3544601.2020111084,-91931724.54833984,-94288467.40722656,-34884643.5546875,-2864696.264266968,-8090031.623840332,775575.1609802246,12559645.652770996,-14946636.199951172,-32266933.44116211,-125635772.70507812,-63165073.39477539,-7434383.869171143,-6512352.94342041,930805.9215545654,16924005.50842285,-30724510.192871094,-54672389.98413086,-18295471.19140625,-11716288.566589355,-36341033.935546875,-2169942.1405792236,-6804416.179656982,-2344557.523727417,-5231173.038482666,-8200291.633605957,20893661.499023438,18637273.78845215,-9408761.978149414,3798124.7901916504,19116157.53173828,3605763.4353637695,8942089.080810547,-2861874.3419647217,3426948.070526123,-21545671.463012695,20894897.4609375,-3804135.322570801,-36078292.84667969,10840643.882751465,-9008129.119873047,-18374460.220336914,8735364.91394043,-24914867.401123047,-28451738.357543945,-22891868.591308594,-49056686.40136719,-48884414.67285156,-37024578.09448242,-31582349.77722168,-14747928.619384766,-15728214.263916016,-15559864.044189453,-35366317.74902344,-36677604.67529297,8816964.149475098,-14404662.132263184,-10362303.733825684
0.43,-160827041.62597656,-20246412.27722168,-34240608.21533203,-66787673.95019531,3176699.39994812,-113534828.18603516,-126464241.02783203,-43951324.462890625,-4296884.536743164,-6668400.764465332,1668546.9150543213,9905504.22668457,-20338846.20666504,-38302165.98510742,-156179733.2763672,-92480255.12695312,-13557328.224182129,-7120751.38092041,4753890.514373779,19847879.40979004,-33816238.40332031,-62931758.880615234,-25902935.028076172,-28882476.806640625,-60299720.764160156,-16333993.911743164,-13372631.072998047,-3355257.511138916,-1371203.7801742554,-10985576.629638672,18869480.13305664,12245860.09979248,-24134325.02746582,-14916132.926940918,4638088.703155518,-2929666.28074646,3896089.0769958496,636309.7429275513,3381839.7521972656,-29348907.470703125,21392677.307128906,-15472757.339477539,-55350872.03979492,-2216376.0662078857,-27782009.12475586,-38690792.083740234,7042840.957641602,-25102680.206298828,-35055965.423583984,-20979959.48791504,-76042510.98632812,-75732299.8046875,-57872898.10180664,-58575698.85253906,-12073171.615600586,-13112419.128417969,-13871937.75177002,-56057193.756103516,-57335136.41357422,132193.6845779419,-11720651.626586914,-7581003.189086914
0.435,-163888534.54589844,-23384767.532348633,-36075775.146484375,-69662025.45166016,842549.6220588684,-118059379.57763672,-130096221.92382812,-46748332.97729492,-5540462.493896484,-8283886.909484863,-571597.158908844,6983309.745788574,-23412988.662719727,-41253589.63012695,-159153045.65429688,-94808334.35058594,-14501399.993896484,-8041549.6826171875,3865781.545639038,18812690.73486328,-35884773.25439453,-65215026.85546875,-28051706.314086914,-32504009.246826172,-61356002.80761719,-17097221.37451172,-12905074.119567871,-3509587.526321411,-1144298.1958389282,-11949738.502502441,17327133.178710938,7835732.460021973,-26628515.243530273,-16175889.96887207,4330062.8662109375,-1985337.3765945435,5040778.160095215,1247849.3452072144,2859942.91305542,-30854286.193847656,19197010.040283203,-16564781.188964844,-55128726.959228516,-1950160.5033874512,-26929874.420166016,-36503601.07421875,7357406.6162109375,-25544466.018676758,-35253021.240234375,-22528623.580932617,-75168487.54882812,-74525566.10107422,-56555191.04003906,-56302215.576171875,-12078605.651855469,-13299643.516540527,-14370262.145996094,-54728794.09790039,-55939868.92700195,1354541.8977737427,-11669754.028320312,-8241695.404052734
0.44,-161579330.44433594,-30604198.455810547,-35996768.951416016,-50609344.482421875,-4942864.894866943,-96313644.40917969,-89261421.20361328,-39208179.47387695,-6719317.91305542,-14266564.36920166,-6593494.892120361,5425117.492675781,-21956502.91442871,-39028324.127197266,-121596366.88232422,-57031284.33227539,-8606274.604797363,-9492733.001708984,-3580222.6066589355,12488595.962524414,-35196739.196777344,-58620292.66357422,-22821380.615234375,-14665181.159973145,-29281843.185424805,1523477.4351119995,-2750129.222869873,-2443076.3721466064,-6360409.736633301,-9838977.813720703,16353370.666503906,9561304.092407227,-10899077.415466309,7284580.707550049,23865274.42932129,8594118.118286133,14258663.177490234,-2819900.5126953125,1209855.9141159058,-22403314.5904541,13371206.283569336,-2927103.042602539,-28243709.564208984,16329351.425170898,1991483.449935913,-2800982.713699341,9904541.969299316,-26617593.76525879,-26831022.262573242,-29974475.860595703,-35430507.65991211,-34630939.48364258,-26162117.00439453,-13211803.436279297,-17660142.89855957,-18982570.64819336,-19255567.55065918,-24635396.95739746,-25775558.471679688,13597935.676574707,-17344856.26220703,-14471036.911010742
0.445,-157776489.2578125,-38788597.106933594,-35123527.52685547,-24506090.16418457,-12011075.973510742,-66677886.962890625,-34744415.283203125,-28020544.052124023,-7694596.290588379,-21200799.9420166,-13241942.405700684,5654230.117797852,-18348690.032958984,-34356998.443603516,-72800918.57910156,-7898151.397705078,-1029300.0936508179,-10984764.099121094,-12075686.45477295,5270817.279815674,-32574123.38256836,-48658897.399902344,-14932626.724243164,9641369.819641113,11908895.492553711,25516580.58166504,9854734.420776367,-324805.76634407043,-12847288.131713867,-5739019.393920898,16340024.948120117,16065294.26574707,10054781.913757324,37166862.48779297,48402423.85864258,21117458.34350586,25374233.24584961,-8211192.1310424805,-363584.16080474854,-9875805.854797363,7722243.309020996,13107710.838317871,4394360.542297363,38517559.05151367,38771457.67211914,39123565.673828125,12790610.313415527,-27315389.63317871,-15695700.645446777,-38991275.787353516,13704561.233520508,14336286.544799805,10106575.012207031,40369121.55151367,-25677726.74560547,-26933933.25805664,-26026672.36328125,11158823.96697998,10081061.363220215,26271480.560302734,-25676427.841186523,-22630195.61767578
0.45,-156749252.31933594,-43167469.0246582,-35352542.877197266,-12591259.002685547,-15652575.492858887,-54773220.06225586,-11317794.799804688,-22885385.513305664,-7925932.40737915,-24137594.22302246,-16031379.699707031,6674438.4765625,-16598741.53137207,-31651847.83935547,-53106197.357177734,12381723.403930664,1907530.426979065,-11643681.526184082,-14847399.711608887,2596544.5041656494,-30639099.12109375,-43297786.712646484,-11062531.471252441,19206022.262573242,29027408.599853516,35730007.17163086,14966275.215148926,1618455.0523757935,-15103997.230529785,-2516220.0927734375,17733739.852905273,21014278.411865234,18809082.03125,49306972.50366211,58043544.76928711,26055870.056152344,30226036.071777344,-10076678.276062012,-188306.15282058716,-2815067.0528411865,6924697.399139404,17027027.130126953,16418708.801269531,46767250.061035156,55024368.28613281,57123493.19458008,13711297.035217285,-26521654.12902832,-9924647.331237793,-42292797.08862305,33514785.766601562,33846878.05175781,24284917.8314209,63106418.60961914,-29488510.131835938,-30593400.955200195,-29239080.42907715,25025167.46520996,23948381.423950195,29712820.053100586,-29749973.29711914,-26490375.518798828
0.455,-157971923.828125,-41375953.674316406,-36931663.513183594,-20354862.213134766,-13497457.504272461,-65735778.80859375,-30177909.85107422,-26136415.481567383,-7224183.559417725,-21808950.424194336,-13605847.358703613,7238021.373748779,-17838155.74645996,-32486553.192138672,-71140129.08935547,-5574054.24118042,-956804.5139312744,-11241917.610168457,-11272170.066833496,5258296.966552734,-31019235.610961914,-45146072.38769531,-13418517.112731934,10100266.456604004,14235899.925231934,27670541.763305664,10084251.403808594,1855310.320854187,-12234683.990478516,-2289802.7896881104,20055242.53845215,19786090.850830078,11858989.715576172,38740024.56665039,48306804.65698242,21583316.802978516,26710838.317871094,-7394681.453704834,1633390.4266357422,-4868363.857269287,11042191.505432129,8422305.1071167,3498273.6110687256,37911682.12890625,43032794.95239258,42917072.29614258,12242011.070251465,-24477243.423461914,-11967638.01574707,-37743698.12011719,15625895.500183105,15788365.364074707,11226906.776428223,44500926.97143555,-26357126.235961914,-27341609.954833984,-26559200.286865234,11989794.731140137,10795982.360839844,24102014.541625977,-26560554.50439453,-24016355.514526367
0.46,-157503158.56933594,-35488052.36816406,-37674354.553222656,-33912082.67211914,-8338844.299316406,-81166564.94140625,-60670413.970947266,-31264060.974121094,-5908834.457397461,-17514932.63244629,-9084036.827087402,7103635.787963867,-19603807.44934082,-34644920.349121094,-98203865.05126953,-33665359.49707031,-4914161.682128906,-10252744.674682617,-6659184.455871582,9231047.630310059,-32722496.032714844,-50061954.498291016,-18194595.336914062,-1958048.1052398682,-9257457.733154297,14557025.909423828,2450623.035430908,416491.1210536957,-8421917.915344238,-4512013.4353637695,21641008.377075195,14784297.943115234,1236240.7445907593,22512275.69580078,33419216.15600586,14585543.632507324,20233745.574951172,-3831381.08253479,3049643.9933776855,-11053820.610046387,15240444.18334961,-179826.7960548401,-14814282.417297363,25163831.71081543,21818788.528442383,18369146.3470459,10027096.74835205,-22817214.965820312,-17283813.4765625,-31186218.26171875,-12856877.326965332,-12674725.532531738,-9779726.028442383,12540185.928344727,-20795412.063598633,-21716209.411621094,-21813430.786132812,-8834474.563598633,-10203702.926635742,16800378.799438477,-20759418.487548828,-19485614.776611328
0.465,-154223571.77734375,-30417942.04711914,-35931102.75268555,-38353855.13305664,-4900265.216827393,-83478698.73046875,-69987808.22753906,-31797721.86279297,-4384375.095367432,-14847184.181213379,-6237456.321716309,7139957.427978516,-19221324.920654297,-35045505.52368164,-105247680.6640625,-42105136.87133789,-5198480.129241943,-9138236.999511719,-5340034.008026123,10875420.570373535,-33570625.30517578,-52606224.060058594,-20064800.262451172,-2497553.586959839,-16370679.85534668,10659543.991088867,397942.27480888367,-843963.3250236511,-7602790.832519531,-6797224.998474121,21325002.670288086,12646570.205688477,-1090332.8657150269,18028745.651245117,28833436.965942383,12291761.39831543,17065288.543701172,-3076694.0116882324,2555697.202682495,-14279865.264892578,15787041.664123535,380838.42396736145,-19618700.02746582,21799930.572509766,13816424.369812012,8636785.507202148,8654597.282409668,-22917522.430419922,-20288770.67565918,-29480312.34741211,-22745962.142944336,-22473680.49621582,-18235233.306884766,-589678.5855293274,-18883531.57043457,-19742605.209350586,-20227024.07836914,-17228033.0657959,-18660795.211791992,13911728.858947754,-18790658.950805664,-17681083.67919922
0.47,-152088912.9638672,-29606302.26135254,-33552566.528320312,-35341487.884521484,-4515479.08782959,-76880805.96923828,-61642951.96533203,-29555036.544799805,-3125981.330871582,-13857259.750366211,-5158933.639526367,8205443.382263184,-17019313.81225586,-33054901.123046875,-96529266.35742188,-33905532.83691406,-2908138.7519836426,-8192852.973937988,-6020843.505859375,11005399.703979492,-32819049.835205078,-51725620.26977539,-17824241.638183594,4070242.404937744,-9096910.47668457,14802801.132202148,3521430.015563965,-554455.3995132446,-8821928.024291992,-7480976.104736328,20232631.68334961,16151082.992553711,3063194.513320923,23013076.782226562,33420707.70263672,14164862.632751465,17390913.009643555,-4318075.180053711,1276219.367980957,-13064129.829406738,14790266.990661621,5140541.076660156,-13993848.80065918,26083963.39416504,19303752.899169922,13856763.83972168,7978399.276733398,-24220670.700073242,-20343240.73791504,-31963895.797729492,-15451998.710632324,-15114798.545837402,-14274001.121520996,5339588.165283203,-20689588.54675293,-21446641.92199707,-21714971.5423584,-13363620.75805664,-14654815.673828125,14837697.02911377,-20796741.485595703,-18038629.53186035
0.475,-153995498.65722656,-31628274.91760254,-33725616.455078125,-36851150.51269531,-4565572.738647461,-77403572.08251953,-62950969.69604492,-30961132.049560547,-2622447.967529297,-12314661.979675293,-3281536.102294922,9985154.151916504,-15747521.40045166,-30979982.376098633,-96833740.234375,-33989307.40356445,-3069351.9115448,-7740709.7816467285,-4844180.107116699,12693204.879760742,-31682266.235351562,-50532260.89477539,-15277435.302734375,3321646.6903686523,-8401418.685913086,14923114.776611328,4483155.250549316,439760.83397865295,-8188855.171203613,-6878721.714019775,20554080.963134766,20848094.940185547,3200452.0893096924,22289899.826049805,33925018.310546875,14141926.765441895,16740835.189819336,-3859319.6868896484,1497141.0036087036,-11440554.61883545,16662935.256958008,3590578.556060791,-14695184.707641602,26172931.671142578,20685106.27746582,14768383.026123047,7026014.804840088,-24783590.31677246,-20693561.553955078,-32183906.55517578,-14736011.505126953,-14343702.31628418,-13910228.729248047,5561719.4175720215,-21347118.377685547,-21987651.824951172,-21886571.884155273,-13068805.694580078,-14116993.90411377,14432899.475097656,-21636573.791503906,-17181049.346923828
0.48,-156167358.3984375,-31509008.407592773,-36165977.478027344,-45868129.73022461,-2824283.3614349365,-88064285.27832031,-83025039.67285156,-36916828.15551758,-2701190.233230591,-9394917.488098145,128999.45676326752,10991141.319274902,-17521129.608154297,-32049232.482910156,-113941642.76123047,-51553184.509277344,-7214121.8185424805,-7741124.153137207,-961748.7788200378,16394500.732421875,-31607828.14025879,-51983211.517333984,-17121395.111083984,-7892795.085906982,-22974679.946899414,6015261.173248291,-300296.00858688354,438820.1832771301,-4520501.613616943,-6425782.203674316,22181354.522705078,20358243.942260742,-4775292.39654541,10158183.097839355,24315807.342529297,9522504.806518555,12956632.614135742,-624820.88804245,3303993.4635162354,-13028178.215026855,20967926.025390625,-5423463.821411133,-27925336.837768555,16985080.71899414,8460037.231445312,1418200.135231018,5553383.827209473,-23868255.615234375,-23351442.337036133,-27735219.955444336,-32106803.89404297,-31628902.435302734,-26263345.71838379,-12831216.812133789,-18909709.930419922,-19479513.16833496,-19313182.830810547,-25341678.619384766,-26227657.318115234,9412257.194519043,-19175577.16369629,-15356293.678283691
0.485,-152945632.9345703,-26645587.921142578,-37449413.29956055,-52855316.162109375,-576413.7506484985,-95243820.19042969,-101787612.91503906,-41181484.22241211,-2430030.584335327,-6610363.960266113,2714574.5754241943,9839281.08215332,-21965688.705444336,-37747611.99951172,-130054443.359375,-69242202.75878906,-10969264.98413086,-7455479.621887207,2878342.866897583,19327453.61328125,-32827793.12133789,-56107326.50756836,-24387699.127197266,-17944627.76184082,-38941028.5949707,-3722320.318222046,-6058001.99508667,-751987.2188568115,-890811.5029335022,-7222376.823425293,22152017.59338379,13578482.627868652,-14120248.794555664,-2863330.364227295,13037191.390991211,4194157.600402832,8755657.196044922,2188874.7215270996,4075272.0832824707,-17519556.045532227,22276185.989379883,-13125490.188598633,-42639457.70263672,5849034.309387207,-7413118.362426758,-15345067.977905273,3829642.0574188232,-23257543.563842773,-27337478.637695312,-24107662.200927734,-53608909.606933594,-53041072.845458984,-43014324.18823242,-35665985.107421875,-17263107.299804688,-17828859.329223633,-18040966.033935547,-41940128.326416016,-42823837.28027344,1788375.973701477,-17418352.127075195,-16167089.462280273
0.49,-146015716.55273438,-21369771.95739746,-36689376.83105469,-50832015.99121094,-1003059.5064163208,-88938796.99707031,-99929359.43603516,-39172855.377197266,-1515144.7057724,-5814209.938049316,2214980.8406829834,6607529.163360596,-26922075.271606445,-45999977.111816406,-128528793.33496094,-69010375.9765625,-10008906.364440918,-6388200.759887695,4055746.555328369,19206375.122070312,-34592662.8112793,-60671619.4152832,-33177890.77758789,-17182352.06604004,-40501270.29418945,-4816292.762756348,-6582802.772521973,-1826514.720916748,-523295.521736145,-9188617.706298828,18463336.944580078,5732633.590698242,-16868322.372436523,-5158057.21282959,10598398.208618164,2980361.4616394043,7551742.5537109375,1426767.349243164,1855163.812637329,-22036104.202270508,17709749.221801758,-13173083.305358887,-46581123.35205078,1810612.0824813843,-12524559.97467041,-20496068.954467773,1919309.6160888672,-25049886.70349121,-30798820.49560547,-27092971.801757812,-60498867.03491211,-59902301.78833008,-50274333.95385742,-43027652.740478516,-20237075.805664062,-20820709.228515625,-21592302.322387695,-49122245.78857422,-50108829.498291016,-3511710.4053497314,-20354196.548461914,-20324350.357055664
0.495,-143026077.2705078,-22967067.71850586,-37231094.36035156,-43159576.416015625,-5279499.530792236,-74443740.84472656,-80262474.0600586,-33219604.4921875,-1101757.4071884155,-7661600.112915039,-1042836.4276885986,3048126.9359588623,-30032550.811767578,-51978813.17138672,-111776054.38232422,-52022132.873535156,-5333545.684814453,-5369028.568267822,2187042.474746704,16411003.112792969,-36011585.2355957,-62863079.07104492,-37492641.44897461,-8204589.84375,-27391696.92993164,2948064.3272399902,-1473192.572593689,-1888778.0904769897,-3319066.5245056152,-11019626.61743164,13086253.16619873,2813136.339187622,-11691087.72277832,3569722.4140167236,17942083.35876465,6477347.850799561,9938728.332519531,-2180263.7577056885,-1993834.8531723022,-23392379.760742188,11021989.822387695,-7830156.326293945,-38685821.533203125,6301870.822906494,-3607270.9560394287,-10558505.058288574,483762.9795074463,-28567140.579223633,-32006633.758544922,-35117530.822753906,-48851547.24121094,-48311355.59082031,-42652313.232421875,-30176128.387451172,-26249261.8560791,-26822263.717651367,-27770273.208618164,-41582214.35546875,-42673706.0546875,-2821591.377258301,-26366184.23461914,-24267288.208007812
0.5,-145989990.234375,-31441747.665405273,-40505645.751953125,-35039810.18066406,-10565376.281738281,-62105751.037597656,-57106529.235839844,-27917783.737182617,-2071423.7689971924,-11241036.415100098,-4889789.10446167,1286410.5701446533,-30136455.535888672,-52297424.31640625,-91680961.60888672,-31005504.608154297,-1132681.6082000732,-5660891.056060791,-1478471.9944000244,12760787.963867188,-36567165.37475586,-61226009.368896484,-34879726.40991211,1317449.5697021484,-10010014.533996582,13152365.684509277,4982008.457183838,-1331395.149230957,-6817355.632781982,-11382682.800292969,9648648.262023926,5301286.220550537,-2699730.87310791,15807022.094726562,28648979.18701172,11967541.694641113,14418742.179870605,-5410471.439361572,-4495753.288269043,-20173919.677734375,7473708.629608154,-2326559.7820281982,-25557828.903198242,14888454.43725586,12419687.271118164,7842311.382293701,1069830.298423767,-30768865.58532715,-29574871.063232422,-41762866.97387695,-27694353.103637695,-27267715.454101562,-25519418.716430664,-6096982.955932617,-30699552.536010742,-31256553.649902344,-31657899.856567383,-24672519.68383789,-25793151.85546875,3464972.2576141357,-30782575.607299805,-25802886.962890625
