time,Fp1,Fpz,Fp2,AF3,AF4,F7,F5,F3,F1,Fz,F2,F4,F6,F8,FT7,FC5,FC3,FC1,FCz,FC2,FC4,FC6,FT8,T7,C5,C3,C1,Cz,C2,C4,C6,T8,TP7,CP5,CP3,CP1,CPz,CP2,CP4,CP6,TP8,P7,P5,P3,P1,Pz,P2,P4,P6,P8,PO7,PO5,PO3,POz,PO4,PO6,PO8,CB1,O1,Oz,O2,CB2
0.0,156784.34073925018,256545.36485671997,385080.2481174469,205078.1548023224,483824.9087333679,677249.014377594,266425.6691932678,311763.07797431946,571461.2007141113,-100608.92254114151,71843.07277202606,-303760.3199481964,-409363.2102012634,-377313.85231018066,504416.46575927734,412324.1901397705,397545.9635257721,4093.0393151938915,-252455.86037635803,-423464.3578529358,-304245.32294273376,-661150.6938934326,-439532.607793808,2002721.0712432861,190504.22310829163,414405.7035446167,216942.63815879822,120507.32970237732,146919.45910453796,-328538.11979293823,-71266.45743846893,-298444.4797039032,294438.4813308716,421916.4550304413,540630.4001808167,255345.6425666809,22672.945633530617,128534.36172008514,-211997.47920036316,-41824.48238134384,189472.2729921341,432953.00006866455,324212.1934890747,656007.8263282776,446435.00447273254,371467.8883552551,467541.1880016327,293705.40380477905,-29954.01807129383,800792.7536964417,376717.2396183014,355378.8661956787,530165.0762557983,585556.2090873718,738553.2259941101,834405.8990478516,775014.340877533,394571.36392593384,407501.757144928,241469.23422813416,739707.350730896,544501.0662078857
0.005,30270408.630371094,36986640.93017578,39846588.134765625,24523128.509521484,24051681.518554688,15505484.580993652,9217341.423034668,10407754.898071289,14781079.292297363,9763470.649719238,7694515.705108643,6090202.331542969,271992.11716651917,-1236097.0973968506,5276225.0900268555,5762918.949127197,6137916.564941406,4059771.0609436035,3129233.3602905273,-1404344.916343689,-3291988.3728027344,-8173787.1170043945,-8480168.342590332,28674617.767333984,4459997.653961182,6515214.443206787,5613754.749298096,1901449.9187469482,-3826509.714126587,-12122716.903686523,-9096014.022827148,-7513387.680053711,2801002.7408599854,4495709.419250488,5439675.807952881,4472795.009613037,495320.1413154602,-2647129.774093628,-10943641.662597656,-10150897.026062012,-5916673.183441162,-4879948.139190674,-422214.95509147644,4058162.212371826,5963414.192199707,-125612.16950416565,-4062082.7674865723,-9206027.98461914,-9148438.453674316,-5801989.555358887,-4480100.631713867,-5118949.890136719,-4391278.7437438965,-3448931.2171936035,-7061428.070068359,-6070807.456970215,-7077341.079711914,-7471353.054046631,-3402773.141860962,-6419282.43637085,-5341655.254364014,-7025121.212005615
0.01,52712089.53857422,63338016.510009766,67207679.74853516,40023517.60864258,41301708.22143555,22575784.68322754,13927182.1975708,15539546.966552734,23280359.268188477,17323646.545410156,14658306.121826172,14072208.404541016,5960865.020751953,2183994.0547943115,6425949.0966796875,7488825.32119751,8428759.574890137,6307632.923126221,5322550.7736206055,-315805.8822154999,-2636085.033416748,-8602498.054504395,-9739863.395690918,38881149.29199219,4682765.960693359,7962105.274200439,7252461.910247803,2536419.153213501,-4965553.283691406,-15093228.340148926,-11196746.826171875,-9266803.741455078,3416248.083114624,4844478.130340576,6343823.432922363,5356758.117675781,693561.315536499,-2935779.094696045,-14542308.807373047,-13059990.882873535,-8763006.210327148,-7598100.662231445,-1960316.3003921509,3888756.9904327393,6866668.224334717,-474736.9587421417,-5022945.880889893,-11808693.885803223,-11163314.819335938,-8041599.273681641,-7636864.185333252,-8533586.502075195,-7622684.955596924,-5607636.451721191,-9610768.31817627,-8652171.13494873,-10131548.881530762,-11743557.929992676,-6611186.981201172,-9509531.97479248,-8237274.169921875,-10830408.096313477
0.015,68961425.78125,80000160.21728516,82625312.80517578,47925888.06152344,50702259.0637207,23010007.858276367,15313572.883605957,16811695.098876953,25907091.14074707,21511072.158813477,19262948.989868164,21662134.170532227,14795411.109924316,8905551.91040039,4836775.779724121,6528326.034545898,7653403.282165527,6905543.327331543,6048083.305358887,1990383.6250305176,572413.2061004639,-3244055.986404419,-5638772.487640381,33673816.6809082,2262120.7237243652,5725810.527801514,5636181.354522705,1947055.9358596802,-3964897.1557617188,-10700334.548950195,-7705711.364746094,-6574210.643768311,1893859.1480255127,2135705.9478759766,4051187.038421631,3471017.599105835,648531.0792922974,-1451604.8431396484,-11963993.072509766,-9659705.16204834,-7915799.140930176,-8361704.8263549805,-3832176.2084960938,1009591.6986465454,4167430.4008483887,-386633.2471370697,-3123637.914657593,-8423580.169677734,-6875648.975372314,-7064989.5668029785,-9079057.693481445,-9785964.965820312,-8663538.932800293,-5612888.813018799,-7022918.224334717,-7297917.366027832,-8785537.719726562,-13475431.442260742,-9019497.871398926,-9336384.773254395,-8388747.215270996,-11882907.86743164
0.02,84829551.69677734,93937614.44091797,93629524.23095703,55201854.70581055,54714767.45605469,23622943.878173828,17253007.888793945,18755378.72314453,26695894.241333008,22975654.60205078,20376485.82458496,25066478.729248047,20144317.626953125,13424499.51171875,3822318.0770874023,6360386.371612549,6750003.814697266,7346335.887908936,6161039.352416992,3402986.764907837,2414784.9082946777,651030.8980941772,-3445070.743560791,26566242.218017578,1127697.5870132446,3966738.224029541,3927293.539047241,1116566.0619735718,-3419117.4507141113,-7213412.284851074,-5484554.767608643,-5133023.262023926,-600673.7351417542,-411981.37402534485,1996689.3196105957,1618513.584136963,538006.7229270935,-935550.8685112,-9788012.504577637,-6933625.221252441,-6431998.252868652,-9825736.045837402,-5324093.341827393,-1483638.048171997,1627039.7901535034,-344550.07314682007,-2311589.241027832,-5922200.2029418945,-3501465.082168579,-7770418.167114258,-10612849.235534668,-10949200.630187988,-9369752.883911133,-5717538.356781006,-4738343.238830566,-6695585.72769165,-8076395.9884643555,-16702714.920043945,-11602734.565734863,-9760793.685913086,-9641837.120056152,-14415712.356567383
0.025,99755241.39404297,106408775.32958984,102439315.79589844,63727256.774902344,56015956.87866211,27598348.61755371,21129508.97216797,22859807.96813965,28511848.44970703,23583232.879638672,19570629.119873047,23629697.799682617,18985414.505004883,12147257.804870605,4671427.249908447,8343040.466308594,7652856.826782227,8664097.785949707,6876983.642578125,3864324.0928649902,1581237.0777130127,-636276.6623497009,-6656905.174255371,25926067.352294922,2143489.122390747,4494242.191314697,3868487.1196746826,1101808.5479736328,-4012742.9962158203,-8518705.368041992,-7656965.255737305,-7802286.148071289,-2373711.109161377,-1232963.0851745605,1523460.1497650146,954300.5228042603,361484.97462272644,-2518335.3424072266,-11590993.881225586,-9083962.440490723,-7746348.857879639,-12697607.99407959,-6554206.848144531,-2799982.5477600098,-199001.59537792206,-1903542.6378250122,-5044816.017150879,-8577987.670898438,-5959166.049957275,-12207124.710083008,-13708348.274230957,-13872440.338134766,-12604793.548583984,-9080552.101135254,-7711762.428283691,-10445123.672485352,-11807730.674743652,-22721355.438232422,-15791522.026062012,-13743268.966674805,-14863962.173461914,-20163227.081298828
0.03,107895118.7133789,112936050.41503906,105556205.74951172,69659591.67480469,56639862.060546875,32808303.833007812,25478551.864624023,27218812.942504883,31330076.217651367,25388732.91015625,20274986.267089844,21360216.14074707,15782858.848571777,8229633.331298828,6846942.901611328,11621814.727783203,10596501.350402832,11090750.694274902,8759210.586547852,5118678.092956543,666941.5235519409,-3373299.8371124268,-10736810.684204102,29445079.803466797,3904097.557067871,6509144.306182861,5204091.0720825195,2163223.9818573,-4269908.905029297,-10890449.523925781,-10549865.72265625,-11216347.694396973,-1704456.3293457031,-614842.8320884705,1842429.0418624878,751518.0706977844,17293.12539100647,-4630233.7646484375,-14844844.818115234,-13279640.197753906,-11323412.895202637,-14719017.98248291,-7539589.881896973,-4116539.95513916,-3331319.808959961,-5833786.487579346,-9744481.086730957,-13705069.541931152,-11684262.2756958,-16974838.256835938,-17292778.01513672,-17591835.021972656,-18375072.479248047,-15966449.737548828,-14796955.108642578,-16722972.869873047,-18091592.78869629,-28157590.866088867,-21077051.162719727,-19769863.12866211,-22099407.196044922,-26120489.1204834
0.035,108310592.65136719,112977355.95703125,103443016.0522461,71519439.69726562,59010509.4909668,37352115.631103516,29463319.778442383,30881673.81286621,34616340.63720703,29385723.114013672,24445579.528808594,22747539.520263672,16996816.635131836,8405380.249023438,10662117.958068848,15810025.215148926,15142220.497131348,14493166.92352295,11473458.290100098,7792406.08215332,2305922.508239746,-2132041.2158966064,-9224268.913269043,33085899.353027344,6619145.393371582,9467728.614807129,7408404.82711792,3729135.036468506,-3279854.0592193604,-9988659.858703613,-9617445.945739746,-10399613.380432129,2028068.0656433105,1417266.845703125,2790534.734725952,674365.1032447815,-365668.1776046753,-5330218.79196167,-15594213.485717773,-14275452.613830566,-12777173.99597168,-13930732.727050781,-7404314.994812012,-5269845.008850098,-7293329.71572876,-10280460.357666016,-12899537.086486816,-15943405.151367188,-14733600.616455078,-17782911.30065918,-18739179.611206055,-19247743.606567383,-22727916.717529297,-22336833.953857422,-19962806.701660156,-20390579.223632812,-21752391.815185547,-29209228.515625,-24418117.52319336,-23546348.571777344,-26345504.760742188,-28287429.809570312
0.04,105840110.7788086,110629318.23730469,101050903.3203125,71434677.12402344,63479194.64111328,41119930.267333984,32792774.200439453,33998962.40234375,37747852.32543945,33979198.45581055,30084476.470947266,27367345.809936523,22887882.232666016,14591879.844665527,16058206.558227539,20335096.35925293,19452123.641967773,17665748.596191406,13970003.128051758,10244989.395141602,5691360.4736328125,3018859.386444092,-2026757.4787139893,36951496.12426758,10910375.595092773,12702118.873596191,9596981.048583984,4861506.462097168,-1827703.9527893066,-6599663.734436035,-5229744.911193848,-4968885.42175293,6974196.910858154,4710197.448730469,4671547.412872314,1056641.5786743164,-452729.40397262573,-4433790.20690918,-13151814.460754395,-10791651.725769043,-9253166.198730469,-11262712.478637695,-5695675.373077393,-4771552.562713623,-8745591.163635254,-12023587.226867676,-12649094.581604004,-13532079.696655273,-12960473.06060791,-14514627.456665039,-17111919.403076172,-17666530.60913086,-22092403.411865234,-23595869.064331055,-19041149.139404297,-18898773.193359375,-20361635.208129883,-25967216.49169922,-23255575.18005371,-22748283.38623047,-25034551.6204834,-25919057.846069336
0.045,101013748.16894531,105297126.77001953,98043266.29638672,68485923.76708984,65204483.03222656,42129146.575927734,32974090.576171875,34340839.38598633,38215465.5456543,35117416.38183594,32435199.737548828,29827182.76977539,26785921.096801758,20612236.02294922,19856494.903564453,22262168.884277344,20103189.46838379,18097091.674804688,14741683.959960938,10323353.76739502,7534373.760223389,6696632.385253906,4302333.831787109,41118392.94433594,14281876.564025879,13915527.34375,10040065.76538086,4828637.599945068,-1013955.9507369995,-4367437.839508057,-1447796.5831756592,502005.33866882324,9947942.733764648,7480143.070220947,6426078.319549561,1615523.5767364502,-130314.24582004547,-3101025.342941284,-9784643.173217773,-6167182.445526123,-3479579.210281372,-8858392.715454102,-3541574.9549865723,-2623519.6590423584,-6390310.764312744,-9960055.351257324,-10073671.340942383,-9158407.211303711,-9368911.743164062,-10395719.528198242,-14096919.059753418,-14559503.555297852,-17606174.46899414,-19537702.560424805,-13883399.963378906,-14564434.051513672,-16260051.727294922,-21361646.65222168,-18427146.911621094,-18913818.359375,-20301557.540893555,-21258626.93786621
0.05,86368087.76855469,89576026.9165039,86373214.72167969,57775226.59301758,57561588.287353516,36644447.326660156,26835083.0078125,28408315.658569336,32910575.86669922,29619787.216186523,28091794.967651367,25520296.096801758,22623918.533325195,18728458.404541016,18260864.2578125,18573045.73059082,15411647.79663086,14276284.217834473,12644242.286682129,7370131.969451904,5604305.744171143,4523849.010467529,3882463.4552001953,42718418.12133789,13178891.1819458,11520713.806152344,8036159.515380859,3595244.4076538086,-1210267.7822113037,-4930108.070373535,-1147297.1439361572,1569454.7891616821,10041123.390197754,7899641.513824463,6623185.157775879,1719461.441040039,295361.0122203827,-2247544.050216675,-7846943.8552856445,-4098219.394683838,-680045.9623336792,-7064469.814300537,-2191681.385040283,-599136.0545158386,-2992747.0684051514,-6349236.488342285,-7586754.79888916,-6011630.535125732,-7298903.942108154,-7580050.468444824,-11290348.052978516,-11662852.28729248,-13289771.08001709,-14188654.899597168,-9102931.97631836,-10813494.682312012,-12638323.783874512,-17150156.021118164,-12886401.176452637,-14628279.685974121,-15489475.25024414,-16418540.954589844
0.055,58623367.30957031,61629665.37475586,62518299.1027832,39507560.72998047,40917819.97680664,25491149.90234375,16119485.855102539,17603921.89025879,23109750.747680664,19464639.66369629,18664209.365844727,15889099.12109375,11630701.065063477,8280597.686767578,12566813.468933105,11150901.794433594,8545467.376708984,8292528.15246582,8497961.044311523,2794219.2554473877,902024.1498947144,-2446212.2917175293,-2741493.4635162354,40318748.474121094,8504045.486450195,7662510.395050049,5517353.534698486,2012175.5599975586,-2263208.3892822266,-7140978.3363342285,-3960769.6533203125,-2051517.7249908447,9599780.082702637,6626230.239868164,5669701.099395752,1507252.0971298218,449529.5286178589,-1901129.3649673462,-8046816.825866699,-5368555.068969727,-2608845.4723358154,-4981985.092163086,-1478916.5258407593,184709.26582813263,-1683151.9603729248,-4134542.942047119,-6541354.656219482,-4884463.310241699,-6973695.278167725,-5923081.874847412,-8506851.196289062,-8807081.22253418,-11133682.250976562,-11014620.780944824,-6570646.7628479,-8440022.468566895,-10073530.197143555,-13095928.192138672,-8530774.116516113,-10832919.120788574,-11627823.829650879,-12250793.45703125
0.06,28382814.407348633,32731369.018554688,35680683.13598633,22694892.88330078,24308191.299438477,15725738.525390625,7549657.821655273,8838493.347167969,14990713.119506836,10983595.848083496,9668585.777282715,6742463.5887146,386763.3044719696,-4070338.726043701,8665945.053100586,5891985.4164123535,4540672.302246094,4256983.757019043,5147595.8824157715,-964022.5768089294,-3621811.1515045166,-9680836.67755127,-10321695.327758789,37306724.548339844,5144616.603851318,5845653.057098389,4776235.580444336,1170853.2571792603,-3731010.675430298,-9504298.210144043,-7919808.387756348,-7326015.472412109,10648009.300231934,5825455.665588379,5047041.416168213,1453389.1677856445,296090.2750492096,-1712146.0437774658,-9479011.535644531,-8347900.390625,-6535287.380218506,-3049577.7130126953,-805149.1379737854,245685.56249141693,-2437611.1030578613,-3746134.7579956055,-6291954.517364502,-4917760.848999023,-7192492.961883545,-5379047.870635986,-5611936.092376709,-5820854.187011719,-10078397.750854492,-9820019.721984863,-4930458.545684814,-6692300.319671631,-7963301.181793213,-9401165.962219238,-5567482.471466064,-7587522.506713867,-8438429.832458496,-9446641.92199707
0.065,10564232.82623291,16003841.400146484,18154024.124145508,15254845.61920166,15700037.002563477,12970477.104187012,5235112.66708374,6576663.017272949,12839118.957519531,8294803.619384766,5022988.796234131,1696772.6945877075,-6496130.466461182,-11969282.150268555,9733379.364013672,5756858.825683594,4450181.96105957,3754782.9151153564,4611604.690551758,-2540609.59815979,-6201025.485992432,-14159101.486206055,-14786493.301391602,37704364.77661133,5651160.717010498,6357003.211975098,5472826.957702637,1283503.532409668,-4999444.961547852,-11676383.018493652,-11463844.299316406,-11283070.56427002,12064310.073852539,6227108.478546143,5131382.942199707,1484121.7994689941,71033.23936462402,-1575220.5848693848,-10760684.967041016,-11204745.292663574,-9464773.178100586,-2794666.528701782,-488363.8322353363,502373.8741874695,-3126909.9712371826,-3323576.9271850586,-5414999.008178711,-5416440.010070801,-7929204.940795898,-6744279.861450195,-4047026.1573791504,-4227008.819580078,-9028552.055358887,-8653943.061828613,-3265939.474105835,-5928348.064422607,-7059961.318969727,-7525006.294250488,-4086429.1191101074,-5696227.073669434,-6657473.087310791,-8718007.08770752
0.07,6987565.517425537,10934273.719787598,11035701.751708984,14266119.003295898,13253014.56451416,14647500.991821289,5823890.686035156,7393822.66998291,13903480.529785156,8854918.479919434,3436428.3084869385,-842912.7931594849,-9684448.2421875,-14752335.548400879,12462479.591369629,7517716.884613037,4981594.562530518,4398315.906524658,5520554.542541504,-2959719.657897949,-7614589.691162109,-16290344.23828125,-16091938.018798828,40900939.94140625,7672861.099243164,6815598.964691162,5763485.908508301,1473545.0744628906,-5850111.00769043,-13891040.802001953,-13827094.078063965,-12868828.773498535,11967802.047729492,6986941.337585449,5534539.222717285,1623905.4203033447,-57133.69697332382,-1647068.3813095093,-11366765.022277832,-13006314.277648926,-10767011.642456055,-3939496.0403442383,-698277.5330543518,1525773.1676101685,-2403801.679611206,-1612756.0138702393,-3600468.873977661,-6022993.087768555,-9358946.800231934,-9182297.706604004,-4645909.786224365,-4948546.886444092,-8203734.397888184,-6990813.732147217,-2387529.6115875244,-6681779.384613037,-8057506.561279297,-7770799.63684082,-4124962.329864502,-5702470.779418945,-6952251.91116333,-9402480.125427246
0.075,5882862.091064453,6306776.04675293,5846624.374389648,11327757.835388184,9847329.139709473,14134184.837341309,3808524.6086120605,5449191.570281982,12779599.1897583,7540035.247802734,1543816.6856765747,-3616968.870162964,-11508097.648620605,-15184016.227722168,12189250.946044922,6839071.273803711,3754140.853881836,3400648.355484009,4893655.300140381,-4062412.2619628906,-9137326.24053955,-17501436.233520508,-16077558.517456055,42886692.04711914,8124185.562133789,6263334.274291992,5296797.275543213,982298.1953620911,-6566761.016845703,-15846558.570861816,-14580626.487731934,-12360925.674438477,11048264.503479004,7635529.518127441,6428813.934326172,2448792.4575805664,-81412.29301691055,-1819975.8529663086,-11629656.791687012,-13340313.911437988,-10585055.351257324,-4226445.198059082,-304416.1796569824,3524087.66746521,-647877.8719902039,485027.37283706665,-1856720.3283309937,-5889668.941497803,-9730783.462524414,-9467550.277709961,-5503166.198730469,-5975342.750549316,-7510277.271270752,-5744786.739349365,-2285721.54045105,-7132866.859436035,-8859187.126159668,-8054886.817932129,-4466447.830200195,-6276431.560516357,-7705911.636352539,-9494478.225708008
0.08,-482487.4699115753,-2545174.5986938477,-1283591.1512374878,5054862.976074219,4078997.6119995117,10013406.753540039,-604606.3899993896,892404.4966697693,9106671.333312988,3804280.0426483154,-720660.0904464722,-6046711.444854736,-12139596.939086914,-14899218.559265137,9241100.311279297,4019788.7420654297,2022566.795349121,978694.0217018127,2232493.1621551514,-5795258.99887085,-10255917.5491333,-17935777.66418457,-15652482.032775879,41551303.86352539,6892003.059387207,5757530.689239502,4973960.399627686,213686.33210659027,-7056003.570556641,-16565416.33605957,-13609344.482421875,-10452345.848083496,11199920.654296875,8229578.971862793,7669208.526611328,3729074.001312256,2303.8643412292004,-1435543.417930603,-11343195.915222168,-11904994.010925293,-8422576.904296875,-2840760.9462738037,1527487.6356124878,5810734.272003174,976842.999458313,1610591.5307998657,-721147.0007896423,-3837851.2859344482,-6686774.730682373,-5456131.935119629,-4259652.137756348,-4772458.553314209,-5934899.33013916,-4911949.157714844,-768193.9601898193,-4244610.786437988,-6052439.6896362305,-6454742.908477783,-3362694.74029541,-5419860.83984375,-6284433.364868164,-7851277.3513793945
0.085,-7427730.560302734,-9167459.487915039,-5715451.240539551,1166940.0930404663,869555.8905601501,6707423.210144043,-2966882.7056884766,-1626665.9498214722,6744930.744171143,1366747.9753494263,-945685.5058670044,-6304892.063140869,-11161817.55065918,-14123008.728027344,7445703.983306885,2208916.9025421143,1306324.2435455322,-988774.8956680298,-203592.6729440689,-6622265.338897705,-9974833.488464355,-17443908.69140625,-14833384.51385498,38745494.8425293,5418641.567230225,5448588.3712768555,4581118.583679199,-43961.22321486473,-6770426.7501831055,-15607128.143310547,-11584204.67376709,-8134846.6873168945,12243942.260742188,8322896.0037231445,7838626.384735107,3899912.5957489014,215635.38908958435,-33211.20887994766,-9674576.759338379,-9049661.636352539,-4604783.058166504,-1639127.9697418213,3685768.3658599854,6940204.620361328,1724464.2972946167,2154245.376586914,677925.8251190186,117588.97453546524,-836108.0884933472,850090.0864601135,-1466127.7532577515,-1928116.3215637207,-3233377.9335021973,-3009660.005569458,3713653.326034546,2099939.5847320557,527581.0956954956,-3755223.512649536,-771470.0102806091,-2907770.872116089,-2354936.361312866,-5353048.324584961
0.09,-9842876.434326172,-9770906.448364258,-5275465.488433838,1333257.555961609,1756123.1851577759,6692984.104156494,-2249031.3053131104,-1030703.5446166992,6547528.266906738,1481292.724609375,274767.0114040375,-5882663.726806641,-10595179.557800293,-13984484.672546387,8305460.9298706055,2207715.9881591797,537116.289138794,-2057655.0960540771,-1252774.8346328735,-6641770.362854004,-9579774.856567383,-17313488.006591797,-14181535.720825195,37660926.818847656,4528970.241546631,4448624.134063721,3249596.357345581,-76839.73759412766,-6132051.944732666,-14276540.756225586,-10029634.475708008,-6623428.3447265625,12831869.125366211,7856216.907501221,6455937.385559082,2512686.9678497314,448229.5513153076,1578332.6625823975,-7209908.008575439,-6373363.494873047,-1272913.3367538452,-1556944.3702697754,5045869.827270508,6798948.764801025,2110746.145248413,3734374.2847442627,2990099.6685028076,3917121.648788452,3971202.850341797,5371068.954467773,817020.2374458313,314867.2580718994,-310939.07356262207,829868.6146736145,9299098.014831543,8183928.489685059,6893375.396728516,-1785587.7876281738,1853987.455368042,10416.005738079548,1975555.7775497437,-3068220.1385498047
0.095,-12382692.337036133,-10984663.009643555,-5953009.128570557,271471.70901298523,1689208.2691192627,7234474.658966064,-1942099.928855896,-895050.1680374146,5322864.532470703,1125577.0921707153,-828983.4856987,-8010326.385498047,-12919196.128845215,-15924032.211303711,9982697.486877441,2425708.770751953,-1317527.0557403564,-2993636.3697052,-2344122.886657715,-7869208.335876465,-11426495.552062988,-18933881.759643555,-14488466.262817383,39692577.36206055,4992904.6630859375,3643726.348876953,1938367.9628372192,-916016.8170928955,-6722865.104675293,-14638238.906860352,-10224199.295043945,-6511490.821838379,13750066.757202148,8469137.191772461,5956561.56539917,1869371.0565567017,499459.77330207825,1752599.7161865234,-6448115.825653076,-5796103.000640869,-228472.039103508,-158203.16970348358,6938060.283660889,7626013.278961182,3560420.274734497,6625948.905944824,4903352.2605896,4983027.458190918,4775438.30871582,6427789.688110352,2809973.2398986816,2174106.1210632324,2469225.8834838867,5173861.503601074,12497419.357299805,10570425.987243652,9374323.844909668,-291333.7051868439,4088080.883026123,2794977.6649475098,5106638.431549072,-494510.9784603119
0.1,-19218038.55895996,-17405029.296875,-11279318.809509277,-3884450.674057007,-1826213.3598327637,6339384.55581665,-3145323.7533569336,-2199748.0392456055,2698496.8185424805,-961913.4068489075,-4619021.415710449,-11712649.34539795,-16496536.254882812,-18621210.0982666,11384860.038757324,2905268.669128418,-2210711.2407684326,-3379837.5129699707,-4171278.476715088,-10511195.182800293,-14697102.546691895,-21179962.158203125,-15157956.12335205,43731918.33496094,7824155.807495117,5333078.384399414,2795674.0856170654,-2468020.9159851074,-8884878.158569336,-16876619.338989258,-11798316.00189209,-7120465.7554626465,17083850.860595703,11593517.303466797,8755992.889404297,4039534.568786621,353687.2863769531,-36772.411316633224,-8682634.353637695,-7549128.05557251,-795021.5339660645,4730476.856231689,11065073.96697998,11073234.558105469,6446749.687194824,8802687.644958496,4414692.8787231445,2830666.0652160645,2545389.175415039,5590791.702270508,6292816.638946533,5609933.376312256,5379543.304443359,7379573.822021484,12090940.475463867,9534522.05657959,8259230.613708496,2446489.8109436035,6858895.778656006,5618575.572967529,7086607.456207275,3069639.4443511963
0.105,-22406454.08630371,-20929416.65649414,-14040909.767150879,-4694374.084472656,-3280137.300491333,6837727.5466918945,-2131547.689437866,-1032577.2762298584,3089416.980743408,-1369487.7624511719,-6063347.816467285,-12028576.850891113,-16688535.690307617,-18456378.936767578,13553507.804870605,5415685.653686523,220261.02244853973,-2042982.578277588,-4754213.809967041,-11702699.661254883,-15466163.635253906,-21400308.60900879,-14528682.708740234,47382572.174072266,12182881.355285645,9230676.651000977,5640388.488769531,-3209655.76171875,-10455562.591552734,-18762432.098388672,-12976556.777954102,-7210565.090179443,22036468.505859375,15595706.939697266,13151120.18585205,7299327.373504639,273649.30510520935,-2250708.1031799316,-11614136.695861816,-9607349.395751953,-1064983.0102920532,10688459.396362305,15788385.391235352,15260731.69708252,9034595.489501953,8391111.373901367,1767634.1533660889,-207249.62651729584,453885.40625572205,4786917.209625244,10562488.555908203,9947010.99395752,7627617.835998535,6457361.221313477,10100587.844848633,7787679.672241211,6388458.251953125,6382284.641265869,10034603.118896484,7724592.685699463,8153918.266296387,6481180.191040039
0.11,-14138526.916503906,-14096363.067626953,-8050223.350524902,1060456.0375213623,1158462.8820419312,10587753.295898438,2284785.032272339,3564874.6490478516,7436452.865600586,1418259.1438293457,-2848145.4849243164,-8057256.698608398,-12893694.877624512,-14682054.51965332,16244377.136230469,8994280.815124512,3837292.6712036133,-124427.62404680252,-3137428.5221099854,-10083406.448364258,-12673924.446105957,-19490636.825561523,-12429145.812988281,48648525.23803711,14825800.895690918,11703864.097595215,7418630.599975586,-2474624.8722076416,-9711842.53692627,-18715648.651123047,-12710673.332214355,-6376674.652099609,24899686.813354492,17314561.84387207,15120309.829711914,8117436.408996582,479298.8896369934,-3002591.848373413,-12148581.504821777,-9852645.874023438,-421774.11913871765,13294457.43560791,17682088.85192871,17081153.869628906,9643239.974975586,6467656.61239624,-327018.8868045807,-1308452.9638290405,345748.03709983826,4544196.605682373,12769845.962524414,12149624.824523926,8002513.885498047,4465290.546417236,9250102.996826172,7361133.575439453,5853845.119476318,9448881.149291992,12017200.469970703,8118386.268615723,8334623.336791992,8002631.187438965
0.115,-5870038.5093688965,-7882067.680358887,-2964823.9612579346,3957009.0770721436,3932753.324508667,12772676.467895508,4070276.7372131348,5085710.048675537,8434000.015258789,1961697.9360580444,-1121711.1349105835,-6335914.611816406,-11034303.665161133,-11973123.550415039,16741773.60534668,9471456.527709961,3612058.401107788,-954918.2653427124,-2461103.677749634,-8997517.585754395,-10979338.645935059,-18749870.30029297,-11049566.268920898,47250450.134277344,13799516.677856445,10476829.528808594,6152615.070343018,-1888865.2324676514,-8435012.817382812,-18169673.919677734,-12008510.58959961,-5296178.340911865,24380193.71032715,16594306.945800781,13978686.332702637,6225576.400756836,824056.2081336975,-2315587.7590179443,-10719522.476196289,-8518233.299255371,476887.583732605,12484694.480895996,16816007.614135742,16756942.749023438,9235676.765441895,5997806.549072266,-41050.62410235405,-97636.4016532898,1792886.734008789,4989082.813262939,12883262.634277344,12131011.962890625,7697044.849395752,4377592.56362915,10357424.73602295,8571496.963500977,6994815.349578857,10963932.037353516,12698771.476745605,7949081.4208984375,8613312.721252441,8276241.302490234
0.12,-17131944.65637207,-19847167.96875,-13743217.468261719,-6083919.048309326,-4609221.935272217,8262661.933898926,-1838095.0689315796,-1472877.6216506958,173134.65476036072,-4861554.145812988,-7316271.781921387,-12152621.269226074,-16020460.12878418,-15134485.244750977,14331013.679504395,5648502.349853516,-1281719.3269729614,-5363504.886627197,-5831239.223480225,-11871529.579162598,-14572891.235351562,-21426776.885986328,-12251954.078674316,45014698.02856445,11523853.302001953,7883732.795715332,3627934.694290161,-3231350.6603240967,-9617123.6038208,-19343599.319458008,-12411440.8493042,-4622036.933898926,23958301.544189453,16718391.418457031,13142063.14086914,4949768.06640625,927742.1236038208,-1750176.6681671143,-10352494.239807129,-7636530.39932251,1391596.6749191284,12800261.497497559,17137910.842895508,17379230.499267578,10169017.791748047,8011360.168457031,1355407.5956344604,1376772.7613449097,3631972.7897644043,6619380.950927734,14571418.762207031,13782008.171081543,9809706.687927246,6729105.9494018555,12346937.17956543,10895800.590515137,9364145.278930664,12927512.168884277,14498122.215270996,9763346.672058105,10491643.905639648,9884799.003601074
0.125,-43544605.25512695,-44708419.79980469,-35562393.18847656,-21889657.974243164,-19299316.40625,1661001.9207000732,-9856011.390686035,-9805849.075317383,-10791289.329528809,-14048691.749572754,-16888404.846191406,-20640483.856201172,-24063388.82446289,-22228612.899780273,13172979.354858398,2695197.343826294,-5212635.517120361,-9226030.349731445,-10579859.733581543,-16243700.02746582,-20397979.736328125,-25275293.350219727,-14918752.670288086,44766952.51464844,12071424.48425293,7710477.828979492,2958998.680114746,-5573200.225830078,-12725443.840026855,-21722133.63647461,-13745522.499084473,-4330759.525299072,26916046.142578125,19641569.137573242,14883851.051330566,6309973.71673584,613354.1464805603,-2074336.5287780762,-11800965.309143066,-8264129.638671875,2550288.677215576,16668384.552001953,20592775.344848633,19964611.053466797,12630769.729614258,10281002.99835205,1634656.548500061,1531881.4516067505,5059273.242950439,9142069.816589355,19327604.293823242,18737960.815429688,14637789.726257324,9133871.078491211,13963116.645812988,13442949.295043945,12115942.001342773,16601123.809814453,18618059.158325195,13538143.157958984,13653048.515319824,13395433.42590332
0.13,-55064857.482910156,-54513580.322265625,-44263793.9453125,-24934890.747070312,-23348663.330078125,3326250.7915496826,-9383075.714111328,-8880352.973937988,-11767815.589904785,-14984502.792358398,-18538644.790649414,-22092321.395874023,-26754199.981689453,-26367658.615112305,17190385.818481445,5791122.4365234375,-2980242.967605591,-8111743.927001953,-10815384.864807129,-16510639.190673828,-21690458.297729492,-26570219.039916992,-16573617.935180664,47651878.356933594,15853464.126586914,10326819.41986084,4756415.843963623,-6200088.024139404,-14080675.12512207,-22907308.57849121,-14569116.592407227,-4574918.270111084,31197999.954223633,23066284.1796875,17282617.568969727,8446479.797363281,109954.3645977974,-2476229.190826416,-12573606.491088867,-9453339.576721191,3173206.329345703,20693662.643432617,23951536.178588867,21865449.905395508,14245022.773742676,10378664.97039795,775305.2115440369,1032003.7603378296,5413208.484649658,10699622.15423584,23038475.036621094,22678947.44873047,18005783.081054688,9348290.44342041,14830506.324768066,14945607.18536377,13857980.728149414,19606016.159057617,22109479.904174805,15691170.692443848,15686645.5078125,15749991.416931152
0.135,-36142196.65527344,-36017868.04199219,-28559707.641601562,-10813262.939453125,-11145667.07611084,13977211.952209473,-3589.414060115814,1198444.0088272095,-1259496.4504241943,-6134093.284606934,-9911980.628967285,-15211237.907409668,-22162796.020507812,-24648626.32751465,23406290.05432129,12123910.903930664,3039613.723754883,-3394940.8531188965,-5794566.631317139,-12120711.326599121,-17386606.216430664,-25157360.076904297,-16927637.100219727,51344467.16308594,18943782.806396484,12666504.859924316,6866639.137268066,-4387722.969055176,-12219204.902648926,-22390205.38330078,-14405018.80645752,-6135977.745056152,32020252.227783203,23618295.669555664,17522958.755493164,8751743.31665039,-192768.58866214752,-2250144.2432403564,-11250397.682189941,-10058565.139770508,1828490.7341003418,20590707.778930664,23526247.024536133,20952005.38635254,13516047.477722168,8672029.495239258,376938.7900829315,1175481.677055359,4259378.433227539,9613800.048828125,21518636.70349121,21168687.82043457,16591228.485107422,7835724.830627441,14999229.431152344,14515245.43762207,13493537.902832031,18723514.556884766,21351638.793945312,13608786.582946777,14953619.956970215,14101741.790771484
0.14,-10300210.952758789,-11748000.144958496,-8000527.381896973,3056171.417236328,2559541.702270508,21188856.12487793,6494407.653808594,7873608.112335205,8102760.314941406,1936728.835105896,-1435819.8642730713,-8862709.045410156,-17012323.3795166,-21498035.430908203,24428079.60510254,13645847.32055664,5669983.386993408,-800485.4917526245,-1458052.396774292,-8549185.752868652,-13233306.884765625,-23821388.244628906,-17663640.97595215,51690776.82495117,17783020.01953125,12226468.086242676,7216691.970825195,-2495396.375656128,-9932200.43182373,-21861722.946166992,-13859540.939331055,-8861412.048339844,28219161.987304688,21033885.955810547,15683930.397033691,7219859.600067139,-120867.5354719162,-2032502.6512145996,-9762189.865112305,-10092109.680175781,-1124888.300895691,16958667.755126953,20267814.63623047,18578227.996826172,11560130.11932373,6923883.91494751,510685.92071533203,1631114.12525177,2162476.3011932373,6624215.602874756,16668701.171875,16208255.767822266,12473490.715026855,6199128.150939941,14000012.397766113,12494053.840637207,11325696.94519043,14387268.06640625,17062063.217163086,9090281.48651123,12255885.124206543,9690771.102905273
0.145,-8215023.994445801,-9631113.052368164,-6487602.233886719,1263730.525970459,2834044.6949005127,15735805.51147461,2036753.1776428223,3122175.931930542,6761805.534362793,1043035.626411438,-1598240.0178909302,-9404838.562011719,-16691917.419433594,-21449476.24206543,17932676.315307617,7780008.316040039,2275187.9692077637,-2734596.9676971436,-2098244.4286346436,-9207966.804504395,-12976029.396057129,-23437496.185302734,-18842712.40234375,47057178.49731445,12972311.973571777,9537964.820861816,5875165.4624938965,-2620863.914489746,-9860694.885253906,-21846603.393554688,-12750222.206115723,-10481133.460998535,22920120.239257812,17407684.326171875,13503722.190856934,5322103.023529053,163925.27520656586,-2750045.2995300293,-10091745.376586914,-9899160.385131836,-3132821.798324585,13183760.643005371,17242136.001586914,16658597.946166992,9597878.456115723,4963183.879852295,-822780.5495262146,888364.0766143799,274820.476770401,4112503.5285949707,13108212.4710083,12704490.661621094,9308081.62689209,3888981.1038970947,10809552.192687988,9733448.028564453,8402858.73413086,9727476.119995117,12749594.688415527,5132477.760314941,8722346.305847168,5775738.716125488
0.15,-24839544.29626465,-24456682.205200195,-18926326.751708984,-8635271.072387695,-5106699.9435424805,4683039.665222168,-6689871.788024902,-5677782.05871582,806319.2963600159,-3684072.494506836,-5611271.858215332,-12580673.217773438,-18360296.24938965,-22768093.10913086,9769343.376159668,857794.7020530701,-2042616.367340088,-5126467.227935791,-4430650.234222412,-10792134.284973145,-13583421.70715332,-22301677.703857422,-18421640.396118164,40224395.751953125,7852070.8084106445,6885764.122009277,4536313.056945801,-3748383.2836151123,-10827394.485473633,-21081174.850463867,-10462427.139282227,-9117225.646972656,18327344.89440918,13675747.871398926,11315787.315368652,3489498.8536834717,365196.168422699,-4276588.439941406,-11435231.20880127,-9669073.104858398,-2864851.713180542,9528903.96118164,14170238.494873047,14188778.8772583,6904562.473297119,960927.3672103882,-4645445.346832275,-1681999.683380127,-1419888.973236084,2845842.5998687744,10523755.073547363,10370191.57409668,6114854.81262207,-1382337.5701904297,5077002.52532959,6153960.227966309,4839919.567108154,5524104.595184326,8912592.887878418,1149773.4785079956,3773192.4057006836,2627037.286758423
0.155,-30910015.106201172,-29444355.010986328,-21900005.340576172,-9598731.994628906,-6089752.674102783,1096310.6155395508,-8602800.369262695,-7215748.310089111,1367678.2846450806,-2803179.7409057617,-4500867.3667907715,-11814869.88067627,-17428796.768188477,-22026668.548583984,6150640.487670898,-682993.8888549805,-1746400.9523391724,-3522230.625152588,-3114036.5600585938,-9218001.365661621,-11746219.635009766,-20766103.744506836,-16605043.411254883,35179237.365722656,4670139.789581299,5749882.698059082,4572427.272796631,-3607826.4713287354,-10577733.993530273,-19980615.615844727,-8674603.462219238,-7058022.975921631,13539747.23815918,9388926.50604248,8480496.406555176,1555027.3656845093,339536.07082366943,-5877437.591552734,-12520928.382873535,-10535701.751708984,-2727946.7582702637,3583538.770675659,8686392.784118652,9469444.274902344,3008003.9501190186,-4755701.065063477,-8976076.126098633,-5325791.358947754,-4371951.580047607,840837.836265564,4818024.635314941,4857064.723968506,-409798.7413406372,-9277341.842651367,-1547647.8338241577,1229358.434677124,70436.29139661789,-323313.4150505066,3015464.0674591064,-5129041.1949157715,-2901936.7694854736,-2287838.6974334717
0.16,-18910205.841064453,-18313859.939575195,-10876143.455505371,-1315029.7403335571,975589.9906158447,6087834.358215332,-3810803.174972534,-2147341.251373291,7614961.624145508,2695456.9816589355,294490.7248020172,-9068711.280822754,-16162643.432617188,-21386173.248291016,6758280.277252197,1899190.5450820923,1919998.4073638916,387630.8500766754,798858.7617874146,-6526299.476623535,-10348440.170288086,-22516698.837280273,-17403257.369995117,33369583.129882812,3523492.0978546143,5978690.147399902,5725689.888000488,-2237813.949584961,-9888125.4196167,-21436353.68347168,-10792666.4352417,-9117022.514343262,8627158.164978027,5633255.958557129,5939503.192901611,479908.2279205322,216699.7194290161,-7247282.5050354,-14272279.739379883,-14174570.083618164,-5900743.48449707,-3441389.560699463,2483139.2765045166,4541117.6681518555,247348.45757484436,-8450016.021728516,-10908801.078796387,-9001248.359680176,-9041171.073913574,-3427554.130554199,-3056056.7378997803,-3028411.1499786377,-8053439.140319824,-15031017.303466797,-5922122.955322266,-3868045.3300476074,-4937810.42098999,-7257269.859313965,-4033280.849456787,-11766221.046447754,-8490487.098693848,-8706340.789794922
0.165,-10926979.064941406,-11773441.314697266,-5142358.303070068,1469695.6872940063,2997903.823852539,10188819.885253906,-1167548.1796264648,237783.92374515533,9150787.353515625,3537920.4750061035,-117957.61436223984,-10832132.339477539,-19642250.061035156,-25197519.302368164,8206533.432006836,3662191.390991211,3679102.659225464,1248399.8537063599,1405664.086341858,-7723672.389984131,-13693435.668945312,-28660657.88269043,-22771892.547607422,34515319.82421875,4180630.683898926,6792967.319488525,6536955.3565979,-1807451.605796814,-11006969.451904297,-26064491.271972656,-16667778.015136719,-15663333.892822266,7355249.881744385,5467672.348022461,5890261.650085449,1498269.5579528809,233411.32700443268,-8239193.916320801,-17408716.201782227,-19557979.583740234,-11139219.284057617,-5446252.822875977,1512884.9744796753,4034215.4502868652,1560698.0323791504,-7035768.032073975,-9825526.237487793,-11681457.51953125,-12960494.041442871,-7543602.94342041,-5423788.547515869,-5511449.813842773,-9313758.850097656,-14124018.669128418,-5878542.900085449,-5969165.325164795,-7116087.913513184,-9735519.409179688,-6049151.89743042,-12906540.870666504,-8754954.33807373,-11542021.751403809
0.17,-19188362.12158203,-21045324.325561523,-14358395.57647705,-5811273.097991943,-4680974.960327148,9936809.539794922,-3219381.093978882,-2311066.6275024414,3085170.7458496094,-2739670.753479004,-6918065.547943115,-16248519.897460938,-25563362.12158203,-30820266.723632812,10625269.889831543,4221050.262451172,2231060.743331909,-2166835.5464935303,-2890400.171279907,-12533616.065979004,-19209667.205810547,-33776237.48779297,-27620414.73388672,38789913.177490234,6952073.097229004,7874487.400054932,6050468.444824219,-3113032.341003418,-13213311.195373535,-29525800.704956055,-20549175.262451172,-20155399.322509766,12511752.128601074,9958691.596984863,8550614.356994629,3795740.842819214,448482.5134277344,-8207922.93548584,-19358688.354492188,-22085779.190063477,-13218617.43927002,786483.4666252136,7942391.872406006,8874299.049377441,5950243.949890137,-2261180.639266968,-7552483.081817627,-12083857.536315918,-12983081.817626953,-7187812.805175781,1744752.287864685,1542917.1323776245,-1780243.8735961914,-8109004.974365234,-2425701.141357422,-3275951.147079468,-4534177.780151367,-3933931.827545166,404370.6953525543,-6648710.250854492,-3240636.110305786,-7093259.811401367
0.175,-27296833.038330078,-30547975.540161133,-23238407.135009766,-10668467.52166748,-10753239.631652832,11569375.991821289,-3435146.0933685303,-2788583.278656006,-1632229.8049926758,-7780897.14050293,-11071164.13116455,-17449188.232421875,-25841485.97717285,-30349555.96923828,15804670.333862305,6745314.598083496,1356406.331062317,-5372674.465179443,-6714037.895202637,-15142767.906188965,-19993724.822998047,-31934474.94506836,-25273801.803588867,45349575.04272461,10962596.893310547,9091044.425964355,4805327.415466309,-4304717.540740967,-13339370.727539062,-27693069.458007812,-17584236.14501953,-16817863.46435547,20303680.419921875,15481534.004211426,11019965.171813965,4895254.611968994,659123.5995292664,-6770709.037780762,-17083700.18005371,-18652086.25793457,-9612904.54864502,9641648.292541504,15572319.030761719,13941421.508789062,8744513.511657715,1075575.1132965088,-5910753.25012207,-9748567.581176758,-9353240.966796875,-2045276.6418457031,11449999.809265137,11110439.30053711,6623814.582824707,-3349656.581878662,1048489.5706176758,1691108.8228225708,485687.5240802765,5397198.20022583,9471213.340759277,935290.515422821,3223588.228225708,816131.591796875
0.18,-21647754.669189453,-26758535.385131836,-18883970.260620117,-5480265.6173706055,-7198171.138763428,16888395.309448242,830469.54870224,1379853.1293869019,1283763.5278701782,-5203474.998474121,-7288542.2706604,-12039760.58959961,-19053600.311279297,-22839359.283447266,20644569.396972656,10360398.292541504,3127402.5440216064,-4782329.082489014,-5396926.403045654,-12394487.380981445,-15023239.135742188,-25135480.880737305,-17300197.60131836,49700065.61279297,13106265.0680542,9573439.598083496,3902650.5947113037,-3695181.6082000732,-10751049.995422363,-22700405.12084961,-10814523.696899414,-9022869.110107422,23202028.274536133,16982135.772705078,10386178.016662598,3695691.1087036133,636949.3007659912,-4938014.507293701,-12206585.884094238,-12520292.282104492,-4442998.886108398,12211468.696594238,16579053.87878418,13813422.203063965,7135797.97744751,735530.0188064575,-5264299.8695373535,-6477679.252624512,-5818557.262420654,2626820.3258514404,13462882.041931152,12981796.264648438,6909624.099731445,-3677885.5323791504,2054127.4547576904,4232191.08581543,3250352.621078491,9119121.551513672,12018165.588378906,2562944.8890686035,5427072.048187256,4318317.890167236
0.185,-17419887.54272461,-22756578.44543457,-13849476.81427002,-1345459.222793579,-2835081.5773010254,16790489.196777344,2089225.5306243896,2362883.0909729004,5696297.168731689,248955.8905363083,-1869687.4380111694,-7515411.853790283,-13894395.82824707,-17513994.216918945,18558675.76599121,9575804.710388184,4289974.689483643,-2449187.994003296,-1255250.096321106,-7970611.572265625,-10965155.601501465,-21267042.16003418,-12685405.731201172,46624965.66772461,10630117.416381836,8063134.19342041,3542297.124862671,-2154289.960861206,-8663198.471069336,-20351291.65649414,-7856079.1015625,-5715246.677398682,18538089.752197266,13515079.498291016,7074388.9808654785,1755191.2069320679,407793.1046485901,-4291282.176971436,-9781572.341918945,-10127236.366271973,-3676182.270050049,6692686.080932617,10887887.954711914,9150678.634643555,3442806.4823150635,-1043313.0264282227,-5339069.366455078,-5212162.017822266,-5330417.633056641,1875871.0622787476,7024655.342102051,6555310.249328613,395280.4505825043,-6642221.927642822,969216.9427871704,2538998.1269836426,1734184.3843460083,4485199.928283691,6750135.42175293,-1677792.4299240112,2953756.809234619,591784.417629242
0.19,-33499160.766601562,-36012409.21020508,-25081470.489501953,-10361534.118652344,-8447244.644165039,5231476.306915283,-5665302.753448486,-5747998.237609863,3215469.3603515625,832871.4966773987,-2327110.2905273438,-10048564.910888672,-16800992.965698242,-20794521.33178711,8852169.036865234,2681845.9033966064,1543922.781944275,-2301521.5396881104,474990.0996685028,-6735791.206359863,-12519430.160522461,-23689508.43811035,-15797435.760498047,37175777.435302734,4851561.069488525,4790179.252624512,3208297.4910736084,-1561670.0649261475,-9488240.242004395,-22372364.044189453,-10990323.066711426,-9639223.098754883,11453039.169311523,9071469.3069458,4199586.391448975,1072885.1556777954,220821.02298736572,-5011706.829071045,-11730401.039123535,-13180083.274841309,-7626780.5099487305,-206852.39136219025,5461472.988128662,5324108.123779297,1639724.612236023,-1434554.3384552002,-6179458.6181640625,-6893901.348114014,-7122033.11920166,-3031638.8607025146,629568.4576034546,399983.7040901184,-4077445.5070495605,-8051728.248596191,-506875.81300735474,-913823.3661651611,-1765388.2503509521,-2205956.9358825684,787783.3843231201,-5755504.131317139,-668934.1068267822,-5546841.144561768
0.195,-57438182.83081055,-56117332.458496094,-43194030.76171875,-24699375.15258789,-18045049.6673584,-8353769.302368164,-15734436.988830566,-15800675.392150879,-3266324.043273926,-2496886.730194092,-5977361.20223999,-15227974.891662598,-22348577.49938965,-26227796.55456543,145584.62798595428,-3897373.4378814697,-2498820.5432891846,-4085338.592529297,-792452.871799469,-8272560.119628906,-16171167.373657227,-27389457.70263672,-20208942.413330078,29550411.224365234,938892.6029205322,2381021.26121521,3082125.9021759033,-2011808.8722229004,-11456994.05670166,-24945917.1295166,-14671906.471252441,-13901500.701904297,8619606.018066406,7952668.6668396,4098342.4186706543,1764913.2013320923,254305.4223060608,-5772651.195526123,-14728940.0100708,-17030832.290649414,-10991527.557373047,-2051476.001739502,5180176.258087158,5672353.744506836,2273521.661758423,-704915.1659011841,-7664772.033691406,-9523029.327392578,-8771111.488342285,-6681181.43081665,223005.63752651215,286014.02044296265,-2408723.3543395996,-7654666.423797607,-1827323.7943649292,-3144049.1676330566,-4169785.976409912,-4240723.609924316,-294805.8247566223,-6150451.183319092,-2633547.067642212,-8232423.782348633
0.2,-60007755.279541016,-57006530.76171875,-43616958.61816406,-26464603.424072266,-17096181.869506836,-9614495.277404785,-16447746.276855469,-16054483.413696289,-3852250.576019287,-2751494.884490967,-5166164.875030518,-14938137.05444336,-21228429.794311523,-23396942.138671875,1090065.1216506958,-2971770.0481414795,-2277419.5671081543,-4167478.084564209,-1208004.2362213135,-8748282.432556152,-16204759.59777832,-26645233.154296875,-17814025.87890625,30726751.32751465,2819253.921508789,3524673.4619140625,4086771.011352539,-2083418.607711792,-11534774.780273438,-24846174.240112305,-13551606.178283691,-11779651.641845703,11449921.607971191,10699334.144592285,6328874.111175537,2658617.2580718994,433049.91722106934,-5685811.996459961,-15299664.497375488,-17187831.87866211,-9862206.45904541,786397.8743553162,8193236.351013184,8551489.83001709,2827054.262161255,-612689.733505249,-8678332.328796387,-10583953.857421875,-9242846.488952637,-6175255.77545166,3278292.417526245,3448349.714279175,1035801.2914657593,-7757378.578186035,-3106123.924255371,-3564373.9700317383,-4653741.836547852,-1637855.7682037354,2000298.9768981934,-4710917.4728393555,-2559539.556503296,-6464352.130889893
0.205,-37551559.44824219,-35156806.94580078,-22713521.95739746,-13118071.556091309,-4377588.748931885,1615554.4519424438,-6967416.286468506,-6146576.404571533,3614184.856414795,1761773.705482483,484182.6856136322,-9033209.800720215,-13333208.084106445,-12653656.959533691,10076538.0859375,4248280.048370361,2853648.6625671387,-1456603.1694412231,892086.3270759583,-7068388.46206665,-12713429.45098877,-22235832.21435547,-9886651.039123535,38714790.34423828,8761695.861816406,7568927.764892578,6150225.639343262,-1379333.9729309082,-9748300.552368164,-23232862.47253418,-8865326.881408691,-5392790.3175354,16396516.799926758,14562266.34979248,8755741.119384766,3146476.7456054688,552989.5424842834,-5259045.600891113,-13877777.099609375,-14239127.159118652,-5846966.743469238,4045128.82232666,10342904.090881348,10803772.926330566,2110969.066619873,-835976.6006469727,-7683279.991149902,-9292251.586914062,-8558899.879455566,-3181970.1194763184,5190357.208251953,5246981.143951416,1826176.404953003,-8083826.065063477,-2947277.307510376,-2389076.7097473145,-3392058.849334717,1861795.18699646,4228120.32699585,-3468624.5918273926,-434824.138879776,-2639887.571334839
0.21,-17168680.19104004,-14961286.544799805,-3055769.920349121,-608899.5933532715,6372402.667999268,10931363.105773926,1305429.458618164,2196332.4546813965,10481164.932250977,5237751.483917236,4019253.2539367676,-4422902.1072387695,-6732307.910919189,-4044327.2590637207,16993293.76220703,9443027.49633789,7062716.484069824,607211.172580719,2499423.9807128906,-5843930.244445801,-10004339.218139648,-18637140.27404785,-4370368.480682373,44945995.33081055,12747877.12097168,10430692.672729492,7412376.403808594,-1140111.804008484,-8469305.992126465,-22356422.424316406,-5058188.915252686,-1455516.0999298096,19426200.86669922,16384513.854980469,9521133.422851562,3342447.280883789,520072.4005699158,-5120307.922363281,-12533132.553100586,-11250751.495361328,-2676915.8840179443,5286775.1121521,10299022.674560547,11420304.298400879,1656835.436820984,509943.9024925232,-4494876.861572266,-6358417.03414917,-6257707.595825195,-155021.20554447174,5743464.469909668,5604185.104370117,1361938.9533996582,-6091496.94442749,556555.3307533264,1002718.3294296265,37025.25421977043,4547069.072723389,6151639.938354492,-1559224.4863510132,3829884.0522766113,1215320.5871582031
0.215,-20151657.104492188,-16180774.688720703,-2904299.736022949,-2215329.885482788,5208413.600921631,7022782.325744629,-1349196.6724395752,-478396.9223499298,8874230.38482666,3038961.64894104,1523025.393486023,-5217371.463775635,-6387000.560760498,-3799259.662628174,14253346.44317627,6616483.688354492,5002017.498016357,-1303542.3755645752,732376.6946792603,-6932826.995849609,-10068223.95324707,-17772821.4263916,-4859532.833099365,43237701.416015625,10403984.069824219,8729120.254516602,6185115.337371826,-2128167.3908233643,-8652429.580688477,-22130107.879638672,-3851273.775100708,-2017280.5786132812,18581409.454345703,14611989.02130127,7999709.129333496,3103713.274002075,422140.56849479675,-5016977.310180664,-11712598.80065918,-9615036.010742188,-1692240.595817566,4476964.950561523,8834354.400634766,10913702.964782715,2530556.4403533936,3143238.306045532,-1184592.366218567,-3251043.3197021484,-2698227.882385254,2022144.5560455322,6384088.039398193,6072702.407836914,2092009.0675354004,-2476878.4046173096,5797908.782958984,5624443.531036377,4565614.223480225,6104539.394378662,7954477.787017822,978320.8966255188,7946993.350982666,3403500.79536438
0.22,-39340339.66064453,-33157524.10888672,-17044893.264770508,-14774231.910705566,-3926893.949508667,-6794347.763061523,-12732482.91015625,-11587666.511535645,536697.0300674438,-2708161.5924835205,-3664853.096008301,-9317910.194396973,-10055625.915527344,-8670841.217041016,4076106.071472168,-2037317.7528381348,-1897799.8495101929,-5891537.189483643,-2845700.979232788,-8909532.54699707,-11463246.34552002,-18717226.028442383,-7638566.970825195,35335258.48388672,3421457.290649414,3672385.9310150146,3372122.049331665,-3228128.19480896,-9019165.992736816,-21786283.493041992,-4356216.4306640625,-3759572.744369507,14438940.048217773,10237903.594970703,5039395.332336426,2229386.806488037,401575.5355358124,-4673552.0362854,-11242691.040039062,-9390885.353088379,-2137078.7620544434,1910651.3261795044,6354139.32800293,9453393.936157227,3164815.1874542236,4012225.1510620117,-516593.7542915344,-2063119.888305664,-759458.8994979858,2511652.708053589,5783724.308013916,5341648.578643799,2095513.5822296143,-2132719.9935913086,7417611.122131348,7202213.764190674,6136479.85458374,4745378.9710998535,7013129.234313965,740237.7128601074,7629139.423370361,1735766.6492462158
0.225,-55301651.00097656,-48595302.58178711,-30115072.25036621,-26623571.395874023,-11993175.506591797,-18606889.724731445,-22827871.322631836,-21236673.35510254,-6923038.959503174,-6925849.914550781,-6740198.612213135,-13230027.198791504,-13929881.09588623,-12981288.90991211,-4619610.786437988,-9151179.313659668,-7228881.8359375,-8695768.356323242,-4367753.982543945,-9356292.724609375,-12691128.730773926,-20722545.623779297,-8766133.308410645,28362718.58215332,-2075499.0577697754,42755.46222925186,1913120.5081939697,-2824156.0459136963,-8458170.890808105,-21970952.9876709,-6046694.278717041,-4436101.913452148,10081832.885742188,6624057.292938232,2676370.38230896,1406687.617301941,507189.5718574524,-4565420.150756836,-12053624.153137207,-10964029.312133789,-3588181.495666504,-1452095.38936615,3488637.2089385986,7325805.187225342,1621430.516242981,1313271.8801498413,-3076395.9884643555,-4185492.992401123,-3257407.6652526855,91971.46445512772,2287863.01612854,1768893.837928772,-1554837.1076583862,-7629613.876342773,2434181.6902160645,2564998.6267089844,1747251.033782959,-549991.8460845947,1726387.2623443604,-4439304.351806641,1701473.8321304321,-3998584.985733032
0.23,-57473468.78051758,-52035339.35546875,-33345939.63623047,-29595571.517944336,-13939911.842346191,-19544858.932495117,-23740537.643432617,-21994426.727294922,-7859469.890594482,-6722149.37210083,-5954770.565032959,-14796705.24597168,-15989520.072937012,-14448236.465454102,-4714720.249176025,-9058168.411254883,-6288483.619689941,-6943045.139312744,-2311771.1544036865,-7582990.1695251465,-12940059.661865234,-22813863.75427246,-8572252.27355957,28034955.978393555,-1453146.3384628296,1291856.1697006226,3652477.502822876,-769784.0332984924,-7196820.7359313965,-22940435.4095459,-8269515.9912109375,-5190161.228179932,9054380.416870117,6842290.40145874,2584575.891494751,1646978.259086609,649785.7570648193,-5052378.6544799805,-14456977.844238281,-13865192.413330078,-6010995.864868164,-3335155.487060547,1852924.9429702759,5704066.276550293,-1618726.8495559692,-2952997.6844787598,-6514800.548553467,-8290858.268737793,-8924057.960510254,-4543555.736541748,-2101656.436920166,-2631000.280380249,-7325002.670288086,-14949934.959411621,-5309657.573699951,-5369301.319122314,-5919726.371765137,-6683626.651763916,-4408173.084259033,-11368462.562561035,-5446273.326873779,-10346508.979797363
0.235,-44988666.53442383,-41241477.966308594,-24548513.412475586,-21595249.17602539,-7947595.596313477,-8913780.212402344,-14859509.468078613,-13399694.442749023,-1551980.2570343018,-1824845.552444458,-1184762.2394561768,-12040948.867797852,-14199269.29473877,-12467522.621154785,3606670.85647583,-1893384.6950531006,21931.907162070274,-1864238.7390136719,1649979.829788208,-4492436.88583374,-10988050.46081543,-22531835.556030273,-8401690.483093262,33994407.653808594,4296684.741973877,6245331.764221191,7403666.973114014,1656640.648841858,-5715327.739715576,-23106826.782226562,-8963624.000549316,-6787963.8671875,11652290.344238281,10222903.25164795,4217494.964599609,2662034.273147583,677572.6675987244,-5618512.6304626465,-16552434.921264648,-15966521.263122559,-8741862.297058105,-2567111.2537384033,1871970.295906067,5226944.923400879,-4596961.975097656,-5807783.126831055,-8319864.273071289,-11405589.10369873,-13737270.35522461,-8748157.501220703,-4251178.741455078,-4778110.980987549,-11321181.297302246,-18557458.877563477,-9773483.276367188,-10705536.842346191,-11338925.3616333,-9456995.964050293,-6855351.448059082,-15364199.6383667,-9016660.690307617,-13789416.313171387
0.24,-23133035.65979004,-20610445.022583008,-6506081.104278564,-6392339.706420898,4679371.8338012695,6672513.008117676,-2063480.6156158447,-982101.559638977,8363541.603088379,6145240.783691406,6657772.064208984,-4943146.705627441,-7766796.112060547,-7030113.220214844,14177128.791809082,7261685.371398926,6944506.1683654785,3139958.143234253,5303267.002105713,-1326693.058013916,-7001871.109008789,-18902814.865112305,-7520871.162414551,40996849.060058594,10285502.433776855,10822444.915771484,10379543.30444336,3233439.9223327637,-4233523.845672607,-21625413.89465332,-7085719.108581543,-7633764.743804932,14658589.363098145,12930042.266845703,5321270.46585083,3024050.47416687,519738.25693130493,-5747688.770294189,-16606418.60961914,-16041791.915893555,-10915277.481079102,-980836.4510536194,1586593.8663482666,4825462.818145752,-6464783.668518066,-6970231.056213379,-8671163.558959961,-12563103.675842285,-15966481.20880127,-11186989.784240723,-4515252.113342285,-5108050.82321167,-12872502.326965332,-18371467.59033203,-10282436.37084961,-11989892.959594727,-12995824.813842773,-8927379.608154297,-6169995.7847595215,-16101648.330688477,-9472220.420837402,-14677854.537963867
0.245,-6523341.655731201,-4608255.386352539,8223057.746887207,5586474.418640137,15738101.959228516,17136997.22290039,6284359.931945801,7272949.21875,15374402.99987793,13076581.001281738,13537476.539611816,1430065.1550292969,-1149921.6556549072,-1403522.8490829468,20702949.52392578,12673497.200012207,10165551.18560791,5437139.987945557,7555031.299591064,707491.5170669556,-4331948.280334473,-15296890.258789062,-5249001.979827881,44537410.736083984,12916926.383972168,12297399.520874023,10936736.106872559,3565852.642059326,-3369359.7316741943,-20353658.67614746,-4836008.071899414,-6395500.659942627,15997850.41809082,12949789.047241211,4886837.959289551,2313879.96673584,259747.65419960022,-5706970.691680908,-15492448.806762695,-15414606.094360352,-11956165.313720703,-447728.0378341675,-10340.922512114048,3704599.380493164,-7401661.396026611,-7681290.626525879,-9228006.362915039,-13260798.454284668,-16772701.263427734,-12499814.0335083,-4877495.765686035,-5585056.781768799,-13730390.548706055,-17999145.5078125,-10470274.925231934,-12214891.43371582,-13424198.150634766,-7943267.345428467,-5745575.904846191,-15917973.518371582,-9805882.453918457,-14843054.77142334
0.25,-10576625.82397461,-8238541.603088379,5192306.995391846,4671408.653259277,15526481.628417969,16472705.841064453,5691809.177398682,6858572.959899902,14912028.312683105,14718546.867370605,14718972.206115723,1244189.739227295,-705639.3027305603,-297142.1182155609,21566493.98803711,12532232.284545898,8980444.90814209,4789012.908935547,8180477.142333984,979085.8626365662,-5664737.224578857,-15397877.69317627,-2770980.5965423584,44805137.634277344,12650285.720825195,11315567.970275879,9622515.678405762,2929240.2267456055,-3641401.767730713,-20789443.969726562,-4426376.819610596,-3696815.4907226562,17324440.002441406,12651334.762573242,4521266.937255859,1871618.9861297607,50409.42132472992,-5671132.564544678,-14615112.3046875,-15090285.301208496,-10785082.817077637,476233.00552368164,-357774.0788459778,3365330.457687378,-7021168.231964111,-7515804.767608643,-9807197.570800781,-13681159.973144531,-16029039.38293457,-11984350.204467773,-4253900.051116943,-4998969.078063965,-13334815.02532959,-17986597.061157227,-10807701.110839844,-11886292.457580566,-12920001.983642578,-6519435.405731201,-5276393.890380859,-14460908.889770508,-9294247.6272583,-13179352.760314941
0.255,-29468294.143676758,-25211467.742919922,-10562146.186828613,-5093327.045440674,6849717.140197754,8999860.763549805,10717.978700995445,1344995.141029358,10162224.769592285,12087938.30871582,11514265.060424805,-3456556.558609009,-5391465.663909912,-2827741.3845062256,19458747.86376953,9840736.389160156,6385655.403137207,3253015.7566070557,7774504.1847229,431169.1224575043,-8201899.528503418,-17469488.1439209,-945536.9710922241,44593933.10546875,11951398.849487305,10219935.417175293,8165768.623352051,2115281.581878662,-4182780.7426452637,-21225563.049316406,-4385932.922363281,-592676.57995224,20036947.25036621,14844741.821289062,6008256.435394287,2769593.2388305664,-54263.18570971489,-5134860.515594482,-13368729.591369629,-13644873.61907959,-6512418.746948242,3870485.544204712,3012330.2936553955,5618888.378143311,-4939254.7607421875,-5294427.871704102,-8663283.348083496,-11725076.675415039,-11967594.146728516,-7462986.946105957,-348320.4245567322,-974232.7928543091,-9662948.608398438,-15651988.02947998,-7794423.1033325195,-7917671.680450439,-8722313.88092041,-2629305.124282837,-1895057.0821762085,-9993795.394897461,-4982735.157012939,-7905132.77053833
0.26,-36308506.01196289,-29362430.572509766,-14561756.134033203,-8065067.291259766,4933635.234832764,4653783.321380615,-2672194.004058838,-1340062.141418457,9535668.37310791,11458478.927612305,11112759.590148926,-3895641.088485718,-6555742.263793945,-2359209.2990875244,17006832.122802734,8397988.319396973,5873563.289642334,3338307.3806762695,7817669.39163208,966282.5465202332,-6837325.096130371,-16831499.099731445,1023251.5335083008,44473766.3269043,11861638.069152832,10301054.954528809,7961035.251617432,2110849.142074585,-3562764.6446228027,-19736076.35498047,-2465024.23286438,2287915.7066345215,21549076.080322266,18252635.955810547,8590392.112731934,4181122.7798461914,-122145.50375938416,-4188780.3077697754,-11181232.452392578,-10512968.063354492,-1231429.934501648,7858055.114746094,7844388.961791992,9389072.41821289,-2437096.59576416,-2474390.0299072266,-6286046.028137207,-7565884.590148926,-6116979.122161865,-322606.32514953613,4887612.819671631,4458993.911743164,-4217481.61315918,-11288997.650146484,-1553699.8510360718,-883269.9060440063,-1750722.1698760986,2016259.4318389893,3079193.592071533,-4893225.193023682,1314234.6143722534,-2013408.1840515137
0.265,-17068813.32397461,-8386228.561401367,5141194.3435668945,2732478.8570404053,17364738.46435547,6354056.835174561,66782.26590156555,1347413.7783050537,15950764.656066895,16365379.333496094,17014774.322509766,3609360.2180480957,229112.23769187927,3728283.643722534,13726341.247558594,8249229.431152344,7609694.480895996,5438660.621643066,9319380.760192871,3127148.151397705,-1757650.2561569214,-13310485.83984375,3020709.991455078,41933917.99926758,11266459.465026855,10827018.737792969,9091278.076171875,3176253.5572052,-2055500.0305175781,-17954172.134399414,-521687.8652572632,3556746.9596862793,18685726.165771484,19139415.740966797,9846266.746520996,4594301.223754883,-189816.74313545227,-4191910.743713379,-10111343.383789062,-8909639.358520508,185050.1000881195,8191073.417663574,9341012.001037598,11510491.371154785,-1605648.6368179321,-2381211.280822754,-6037237.644195557,-5748818.397521973,-4078269.9584960938,3080777.883529663,6339722.633361816,6036103.72543335,-1789957.2849273682,-9611747.741699219,1424286.4847183228,2330483.1981658936,1258343.6965942383,2217497.8256225586,4092411.518096924,-4591865.539550781,3001904.249191284,-1591915.8458709717
0.27,7311584.949493408,16002372.741699219,28004501.342773438,14680146.217346191,31711967.46826172,6091265.678405762,1799877.0475387573,3191028.118133545,22063497.54333496,22116081.23779297,23421730.041503906,11845692.63458252,8213139.533996582,8873308.181762695,7413385.391235352,5952375.411987305,8112340.927124023,7072882.175445557,11127916.33605957,5168764.114379883,1449850.5592346191,-11608352.661132812,2687136.173248291,35319881.439208984,8514647.483825684,9982819.557189941,10085679.054260254,4279389.85824585,-1419858.9324951172,-18464323.043823242,-2202719.211578369,1586015.5820846558,12633504.867553711,16156499.862670898,8452429.77142334,3658623.9337921143,-168968.76692771912,-5632796.764373779,-11922294.616699219,-11725516.319274902,-4460152.149200439,3928407.4306488037,6120057.582855225,10393864.631652832,-2728627.6817321777,-5312136.173248291,-9121417.045593262,-9096360.206604004,-8169121.742248535,-1233566.9994354248,2557001.3523101807,2247289.4191741943,-4440834.999084473,-13100900.650024414,-2988161.563873291,-2667054.8915863037,-3700889.825820923,-3498880.8631896973,-891067.4452781677,-10112217.903137207,-2503582.000732422,-7858873.8441467285
0.275,8561100.959777832,16528991.69921875,27726512.908935547,12639171.600341797,31667852.4017334,-3041677.474975586,-3604045.867919922,-1909052.848815918,19964263.916015625,21741327.2857666,22789047.241210938,11913996.696472168,8197501.182556152,5852373.6000061035,-2050719.976425171,-399442.49391555786,4661698.341369629,5664809.226989746,10981031.41784668,5126639.366149902,-315031.9457054138,-14195295.333862305,-1477474.8086929321,26535383.224487305,3130339.1456604004,6713611.602783203,9115482.330322266,4192192.0776367188,-2078846.6930389404,-20107677.459716797,-6707384.10949707,-3099651.575088501,6832076.072692871,11134256.362915039,5013576.507568359,2008392.8108215332,19293.82234811783,-6417046.546936035,-14052450.180053711,-16326314.926147461,-11319185.256958008,-1876547.3365783691,952728.2118797302,7216101.169586182,-4028199.1958618164,-7285606.384277344,-11408597.946166992,-13089550.018310547,-12943389.892578125,-8744094.848632812,-2646155.35736084,-3011144.3996429443,-9023231.506347656,-17657409.66796875,-9237079.620361328,-10361095.428466797,-11082909.58404541,-10338438.987731934,-7259242.534637451,-16112829.208374023,-9515810.9664917,-15077819.82421875
0.28,-10073932.647705078,-2269024.610519409,8396092.414855957,17861.399799585342,19075353.622436523,-15654973.983764648,-12879417.419433594,-10888626.098632812,12124046.325683594,15356427.192687988,15763127.326965332,4262026.786804199,268013.03029060364,-3309031.4865112305,-11112407.684326172,-7824508.6669921875,-747642.6959037781,1947998.8813400269,8557407.37915039,3112837.553024292,-4010783.1954956055,-18265432.357788086,-7419993.877410889,19309165.954589844,-3350068.8076019287,2211602.9262542725,6231883.525848389,3113141.5367126465,-2392709.732055664,-19763772.96447754,-9374064.445495605,-7768853.664398193,1931356.0724258423,6193634.510040283,1073859.453201294,254676.04398727417,280986.6666793823,-4434880.256652832,-12582206.726074219,-17636709.213256836,-15085224.151611328,-6708048.8204956055,-3551073.5511779785,3925611.2575531006,-4136995.792388916,-5296350.479125977,-8483048.439025879,-11142422.676086426,-12034376.14440918,-11675554.275512695,-5808047.771453857,-6165191.173553467,-11553904.53338623,-17781520.84350586,-8728676.795959473,-11834649.085998535,-12320348.739624023,-13471682.54852295,-9960622.787475586,-17782968.521118164,-11325003.623962402,-17781089.782714844
0.285,-21562870.025634766,-13260240.55480957,-3615731.954574585,-7227608.203887939,9897200.584411621,-20470493.31665039,-17385416.03088379,-15325051.307678223,7762637.138366699,9779773.712158203,9637597.08404541,-3020739.3169403076,-7401013.8511657715,-10312967.300415039,-15107472.41973877,-11217244.148254395,-3392570.4956054688,-553056.2400817871,6340687.274932861,1084480.2856445312,-5606986.045837402,-20435413.360595703,-11580551.147460938,16120754.24194336,-7708261.966705322,-521805.16719818115,3956315.279006958,2486057.0430755615,-1342999.5775222778,-17656641.006469727,-8356472.969055176,-10352031.707763672,-2898511.8865966797,2629148.9601135254,-1514382.8392028809,-911124.9446868896,420751.4822483063,-1175121.4265823364,-8504436.492919922,-15353950.500488281,-15214597.702026367,-10247253.41796875,-6760274.410247803,1816918.4923171997,-3487884.521484375,-1672570.824623108,-2532080.1734924316,-4328095.91293335,-6931439.399719238,-8697897.911071777,-7165823.936462402,-7439692.974090576,-11352736.473083496,-13798355.102539062,-1655577.7788162231,-6389754.295349121,-6937598.22845459,-12976023.67401123,-9004679.679870605,-15999621.391296387,-8209394.454956055,-16436328.887939453
0.29,-15971573.829650879,-7019900.321960449,1776017.665863037,-3789393.901824951,11668350.219726562,-15774815.559387207,-14825534.82055664,-12901821.13647461,10063507.080078125,9429236.41204834,8769020.080566406,-4296285.152435303,-8939724.922180176,-10948581.69555664,-12928299.903869629,-9255314.826965332,-1834104.6571731567,114752.58320569992,6597646.236419678,801660.8953475952,-4867957.592010498,-20425931.930541992,-12379650.115966797,16902072.90649414,-7665085.792541504,311358.42204093933,4415946.483612061,3027779.5791625977,-103321.02328538895,-16670665.740966797,-6336653.232574463,-10791708.946228027,-5606414.318084717,1591471.3144302368,-1415494.2035675049,-707004.4279098511,371972.4118709564,-230692.01409816742,-6694641.590118408,-13649625.778198242,-14714183.807373047,-11872805.59539795,-8237236.022949219,1485965.8479690552,-3214175.4627227783,-1052023.6492156982,-310655.95149993896,-563718.0209159851,-4388628.4828186035,-5300127.029418945,-7823297.97744751,-8030119.895935059,-10229590.41595459,-10993970.87097168,3299261.3315582275,-1582353.4727096558,-2340199.7089385986,-11205436.706542969,-7222342.967987061,-14242630.004882812,-5304114.818572998,-14499275.207519531
0.295,-9286423.683166504,299169.4509983063,9619487.762451172,649712.5029563904,16910840.98815918,-10983716.011047363,-11459057.807922363,-9653860.092163086,13473855.972290039,11972501.754760742,11105267.524719238,-993413.3887290955,-5759973.526000977,-8106328.964233398,-8777117.729187012,-5925504.684448242,348652.78005599976,1997607.946395874,8600452.423095703,2408414.840698242,-3363808.6318969727,-19209871.292114258,-10831553.45916748,19178171.157836914,-4910591.125488281,2875283.4796905518,6404769.420623779,3841657.4001312256,140805.12523651123,-16981182.098388672,-5386991.97769165,-10003933.906555176,-4011638.1645202637,2837094.54536438,448235.06474494934,451350.06308555603,271692.9614543915,-2195184.2308044434,-8603309.631347656,-14263789.176940918,-14840685.844421387,-10997912.406921387,-7966533.660888672,2219890.1176452637,-4030078.411102295,-4442898.273468018,-4147449.016571045,-3805727.958679199,-6945210.4568481445,-5697523.11706543,-7986103.534698486,-8215797.424316406,-10249663.352966309,-12883821.487426758,538438.7373924255,-2824672.9373931885,-3708800.5542755127,-9718218.803405762,-6553599.3576049805,-14401566.505432129,-5692736.1488342285,-13947836.875915527
0.3,-11310867.309570312,-1649889.2307281494,8757994.651794434,-476198.13680648804,18045249.938964844,-12401502.60925293,-12246240.615844727,-10409227.37121582,13479549.407958984,13227731.704711914,13039556.503295898,1947136.1637115479,-2917504.7874450684,-6397982.597351074,-8049575.8056640625,-5524270.534515381,-296972.8112220764,2144800.901412964,9730929.374694824,4301588.535308838,-1673752.3078918457,-17565986.63330078,-9327374.458312988,19571254.73022461,-3924674.2725372314,3650569.9157714844,6907036.781311035,3811083.0783843994,58975.99086165428,-16007291.793823242,-4681509.971618652,-9369009.971618652,-1801673.5315322876,3512049.674987793,1086617.7082061768,692362.6065254211,277329.2362689972,-3816870.2125549316,-10529243.469238281,-14693860.054016113,-14779534.339904785,-10082602.500915527,-8072628.021240234,1965433.0015182495,-6062125.205993652,-8441995.620727539,-8795283.317565918,-9169712.06665039,-10832849.502563477,-8627094.268798828,-8861654.281616211,-9165421.485900879,-12587274.551391602,-17771165.84777832,-6149215.6982421875,-7763778.6865234375,-8666822.43347168,-10388554.573059082,-8156725.883483887,-17092472.076416016,-8689300.537109375,-15553089.141845703
0.305,-9888709.06829834,-2232698.2021331787,7359532.356262207,-1252703.4282684326,17072664.260864258,-14621828.079223633,-14014081.001281738,-12117907.524108887,12602016.44897461,12442851.066589355,13291012.76397705,940690.0405883789,-4102208.137512207,-7882348.06060791,-10911960.60180664,-7335609.912872314,-2262175.3215789795,623495.7575798035,8683823.585510254,4159221.1723327637,-776938.3192062378,-17588157.653808594,-10339116.096496582,17482635.498046875,-6322491.16897583,2092577.2190093994,5480690.002441406,3059412.956237793,377050.0421524048,-13999753.952026367,-4202932.357788086,-10709122.657775879,-4808183.193206787,1516437.4113082886,-780419.5284843445,-817409.9922180176,376911.10372543335,-3017857.551574707,-10171867.370605469,-13740875.244140625,-15181652.069091797,-12488183.02154541,-10416389.465332031,-30253.01545858383,-8380273.818969727,-9695489.883422852,-8682873.725891113,-10622397.422790527,-12724430.084228516,-11085886.95526123,-12000852.584838867,-12327912.330627441,-16141397.476196289,-21469903.94592285,-9866220.474243164,-11187497.13897705,-12099800.109863281,-14838635.444641113,-12359144.21081543,-22092838.287353516,-12441700.93536377,-19585868.83544922
0.31,4073548.3169555664,6907402.515411377,13379183.769226074,4141667.8428649902,17604591.369628906,-9340742.111206055,-10968193.054199219,-9162059.783935547,14566443.44329834,11210330.00946045,11841958.045959473,-3965493.91746521,-9311010.360717773,-12060585.975646973,-11337938.30871582,-6680984.020233154,-1298419.47555542,95709.88267660141,6556282.997131348,974552.4525642395,-2795712.947845459,-21549837.112426758,-14283607.482910156,17082910.537719727,-7951796.531677246,1677952.8856277466,5089881.896972656,2439104.7954559326,-108168.72864961624,-14842044.830322266,-6031557.083129883,-14284595.489501953,-10679407.119750977,-432802.2301197052,-2280797.9583740234,-2069226.2649536133,422667.4437522888,-2009483.5758209229,-10282875.061035156,-13979072.570800781,-17594579.696655273,-16299444.198608398,-12534995.079040527,-1264096.0216522217,-8954607.009887695,-8161745.071411133,-5035472.869873047,-8970746.994018555,-13666908.264160156,-12210668.563842773,-15376254.081726074,-15643332.481384277,-17374990.463256836,-21527484.893798828,-8956286.430358887,-11334266.662597656,-12271883.010864258,-20212051.391601562,-16356657.028198242,-26343854.904174805,-14863070.487976074,-23588275.909423828
0.315,16912986.755371094,14231138.229370117,18392850.875854492,10377030.372619629,17265533.447265625,2491682.291030884,-3316516.399383545,-1728578.4482955933,17765432.357788086,10174104.690551758,8945999.145507812,-9143036.842346191,-14729221.34399414,-16469539.642333984,-4187182.4264526367,-1114565.134048462,3556717.3957824707,1866407.9904556274,5056375.026702881,-3429745.1972961426,-7497046.47064209,-27499021.530151367,-17979587.55493164,22887678.146362305,-4122691.1544799805,5146353.244781494,7712487.697601318,2236423.0155944824,-2574656.4865112305,-19604681.01501465,-9908919.334411621,-17033014.29748535,-9841063.499450684,2090898.2753753662,-161276.50439739227,-772576.8685340881,316755.7418346405,-3573167.562484741,-13330133.438110352,-16779352.18811035,-20428483.963012695,-15480792.999267578,-10329586.98272705,786085.307598114,-6785221.099853516,-6065485.47744751,-3120329.1416168213,-8834704.399108887,-15327405.92956543,-12405065.536499023,-14636127.471923828,-14836925.506591797,-14396993.637084961,-18883008.95690918,-6821400.6423950195,-9990604.400634766,-10929075.241088867,-20293636.322021484,-15744483.947753906,-25515977.85949707,-13904482.8414917,-23154951.095581055
0.32,13471629.14276123,8028769.493103027,13257019.996643066,10218497.276306152,13843339.920043945,12713812.828063965,3632841.110229492,5022571.563720703,18657320.022583008,9337260.246276855,6438205.242156982,-10375532.150268555,-15807528.495788574,-18007879.25720215,7920876.502990723,6293272.495269775,8742291.450500488,4258418.560028076,4820798.873901367,-5705908.298492432,-10723841.667175293,-30016046.52404785,-17865364.07470703,32872676.849365234,3446607.1128845215,10327405.92956543,11128028.869628906,2216320.514678955,-5342332.83996582,-23744892.120361328,-11943447.11303711,-15985122.680664062,297694.47445869446,7980832.576751709,3953048.4676361084,2002476.453781128,121423.27427864075,-6493594.646453857,-16648099.899291992,-19308437.34741211,-20339387.893676758,-9298509.59777832,-5220361.709594727,4167592.0486450195,-3860318.183898926,-5245687.007904053,-4669847.9652404785,-11096356.391906738,-16823026.657104492,-12013217.92602539,-10195858.9553833,-10410997.39074707,-10796673.774719238,-16571683.883666992,-6392488.0027771,-9383525.848388672,-10285906.791687012,-14341387.748718262,-10890596.389770508,-20384595.87097168,-10360948.56262207,-18277305.603027344
0.325,1421371.579170227,-3297093.391418457,4495802.402496338,5973697.185516357,10549839.973449707,16439281.463623047,6308350.563049316,7565135.955810547,17304170.608520508,8969655.990600586,6238107.204437256,-8122666.358947754,-13020391.464233398,-16947290.420532227,16782594.680786133,10367350.578308105,10553238.868713379,4841537.4755859375,5124118.804931641,-4859596.252441406,-9787155.151367188,-27814197.540283203,-15522376.06048584,39403308.8684082,8146807.670593262,12582446.098327637,11700925.827026367,2290796.2799072266,-5764543.056488037,-23581680.297851562,-10622498.512268066,-13305871.00982666,9710163.116455078,11168479.919433594,5441123.485565186,3158350.706100464,-2247.6164158433676,-7392108.44039917,-16613449.096679688,-19188732.147216797,-18065132.14111328,-4713392.734527588,-3196853.1608581543,4848384.380340576,-2715019.702911377,-5580347.061157227,-6350890.636444092,-12535389.90020752,-16950553.89404297,-11947867.393493652,-7840893.745422363,-8142572.402954102,-11234155.654907227,-16361705.780029297,-7304234.504699707,-10232833.862304688,-11064371.109008789,-9744153.97644043,-7645637.035369873,-17316450.119018555,-8398717.880249023,-15090737.342834473
0.33,-3413666.9635772705,-6803387.641906738,1423532.7243804932,3331621.8852996826,9067365.646362305,15025778.770446777,4938852.310180664,6076768.398284912,15282335.28137207,7946308.135986328,6349205.493927002,-8316126.823425293,-12776479.721069336,-18234910.96496582,17425043.1060791,9187691.688537598,8539893.15032959,2802732.9444885254,4332667.827606201,-4040575.0274658203,-8178513.526916504,-26540231.704711914,-16653123.85559082,38475292.20581055,6939839.839935303,10578858.375549316,9105736.73248291,2222862.2436523438,-4549906.7306518555,-21861692.428588867,-10168423.652648926,-14179756.164550781,9466750.144958496,9558003.425598145,3616511.344909668,2298681.0207366943,50879.81000542641,-5860902.309417725,-14712636.947631836,-18514337.53967285,-18121929.168701172,-5980813.980102539,-5344749.450683594,3445594.072341919,-2296153.783798218,-5159403.8009643555,-5084331.035614014,-11394183.158874512,-16291261.672973633,-12981653.213500977,-9550510.40649414,-9918175.69732666,-13547406.196594238,-16374862.670898438,-7420369.625091553,-11160253.524780273,-11879525.184631348,-11515283.584594727,-8789535.522460938,-19207401.275634766,-10063178.062438965,-17384658.813476562
0.335,-4225497.722625732,-8428914.070129395,-1689943.552017212,59207.66666531563,4052829.7424316406,10490009.307861328,362486.72008514404,1427092.0753479004,11191902.160644531,3344925.880432129,1894706.0108184814,-15368103.981018066,-19670761.108398438,-25329816.818237305,12446197.509765625,4948725.700378418,4342249.393463135,-1133816.4806365967,957893.7292098999,-7087829.113006592,-11173666.954040527,-30903749.465942383,-22991394.04296875,34388412.47558594,3672619.104385376,7381678.104400635,6238069.534301758,1203964.2333984375,-5294117.9275512695,-23319934.844970703,-14282252.311706543,-19079811.096191406,4439331.531524658,8268364.906311035,2746373.8918304443,2304709.6729278564,235643.96798610687,-4767809.3910217285,-15134942.054748535,-19988847.732543945,-21395816.802978516,-7661276.817321777,-5285284.519195557,4986373.9013671875,694695.3535079956,-2257616.5199279785,-1727362.9903793335,-9280590.057373047,-15266063.690185547,-13603647.232055664,-9316627.502441406,-9658696.174621582,-10756777.7633667,-13348359.107971191,-5316724.77722168,-9580280.303955078,-10194244.384765625,-14178970.336914062,-9227287.292480469,-20426324.84436035,-11340265.274047852,-20072340.01159668
0.34,-14750271.797180176,-21243835.44921875,-14300520.896911621,-8887271.881103516,-7665574.550628662,3416088.104248047,-6538197.5173950195,-5413561.3441467285,3674119.9493408203,-5098416.328430176,-7429902.076721191,-25565027.236938477,-29506591.796875,-34127052.307128906,7400471.210479736,645513.2365226746,-380787.1341705322,-5486913.681030273,-4333014.965057373,-13341659.545898438,-17915121.07849121,-37618740.08178711,-29034273.147583008,32774627.685546875,2784605.9799194336,5915106.296539307,5092646.12197876,-950904.5481681824,-8979784.965515137,-27311349.868774414,-19789466.857910156,-22584327.697753906,4824636.936187744,11127904.891967773,5000566.482543945,4487461.090087891,419320.31512260437,-5600163.459777832,-17929153.442382812,-22012989.044189453,-23051845.55053711,-3643331.289291382,517440.0210380554,10512703.895568848,5717570.3048706055,1977553.8444519043,953184.1278076172,-7871735.572814941,-13076462.745666504,-11450191.497802734,-2906192.0642852783,-3167135.47706604,-2429321.527481079,-7979971.885681152,-1858850.598335266,-5003609.657287598,-5639847.755432129,-10550384.521484375,-4337594.985961914,-15751375.198364258,-7930040.35949707,-16714841.842651367
0.345,-30627592.086791992,-38243152.6184082,-28335998.53515625,-18809438.705444336,-17691576.00402832,-3364494.562149048,-12436688.423156738,-11183038.711547852,-3054530.620574951,-11841744.422912598,-14241825.103759766,-30626001.358032227,-33765045.166015625,-37265880.5847168,4630631.446838379,-2427839.0407562256,-3943711.042404175,-8238970.756530762,-8015000.343322754,-17529235.83984375,-21855047.22595215,-40095893.85986328,-29523704.528808594,32818058.013916016,3153327.9418945312,5656938.076019287,4886773.109436035,-2521627.66456604,-11687479.972839355,-28898439.407348633,-20751161.575317383,-21340522.76611328,10018429.75616455,13869945.526123047,6521852.493286133,6027149.677276611,517816.84160232544,-6322844.982147217,-18937595.36743164,-21260126.1138916,-20294517.517089844,1969726.2048721313,5752412.796020508,13817059.516906738,7449783.3251953125,3753656.8641662598,1676404.2377471924,-6932572.364807129,-10290972.709655762,-7687094.688415527,3546616.792678833,3298121.929168701,2402223.825454712,-5507537.841796875,128618.16585063934,-1145947.0987319946,-1973948.0018615723,-4127868.65234375,1271763.0863189697,-9897588.729858398,-2857321.02394104,-10396230.697631836
0.35,-32682868.95751953,-39133388.51928711,-26890645.98083496,-19431375.50354004,-15263855.934143066,-5154201.507568359,-13362899.780273438,-12086271.286010742,-2981339.454650879,-10966864.585876465,-11676278.114318848,-27351543.426513672,-29918313.98010254,-33552215.576171875,3014216.899871826,-4285530.090332031,-4871086.597442627,-8028244.972229004,-6895737.648010254,-15666161.53717041,-19129697.799682617,-37219821.92993164,-26364751.8157959,30297586.44104004,970712.1253013611,4549726.486206055,4210171.222686768,-1484603.2857894897,-9622472.763061523,-25933507.919311523,-16621067.04711914,-18527406.692504883,10545126.914978027,10655658.721923828,3297574.758529663,4035421.848297119,546916.9616699219,-4721809.864044189,-16195661.544799805,-18005088.806152344,-17060108.184814453,832798.7194061279,3210055.8280944824,9994962.692260742,3141087.293624878,1109409.3322753906,1135361.671447754,-5843858.71887207,-9361218.452453613,-6455856.800079346,1804702.877998352,1417918.6820983887,-2234004.497528076,-8772911.071777344,-1040453.0763626099,-1904375.3147125244,-2945927.858352661,-3949210.6437683105,158818.43864917755,-10854028.701782227,-2522991.895675659,-9584809.303283691
0.355,-18654357.91015625,-22885229.110717773,-11421342.849731445,-11091815.948486328,-3284951.686859131,-1733487.606048584,-10061010.360717773,-8851726.531982422,2593765.7356262207,-4218983.173370361,-2705311.2983703613,-20533422.470092773,-23266529.083251953,-28409008.026123047,1691023.9458084106,-5090316.295623779,-3665462.7323150635,-5983431.339263916,-2290699.4819641113,-9860675.811767578,-12984345.436096191,-33054206.84814453,-24232063.29345703,25545658.111572266,-3591595.17288208,2334777.1167755127,3045415.6398773193,1401693.2249069214,-4515513.4201049805,-21229072.57080078,-11908405.303955078,-17643655.77697754,4140394.2108154297,3853515.863418579,-2236266.851425171,38984.909653663635,541818.2611465454,-1725687.3846054077,-12436123.847961426,-15182140.350341797,-17264322.28088379,-5783617.01965332,-3778469.3241119385,3296231.269836426,-2430308.8188171387,-2762403.726577759,593357.8610420227,-4618085.3843688965,-10518177.032470703,-8551591.873168945,-5232497.215270996,-5820744.514465332,-9579380.989074707,-13207465.171813965,-3043050.0507354736,-5390505.313873291,-6470454.692840576,-9417914.390563965,-5587827.205657959,-16556646.347045898,-6226278.781890869,-14451025.009155273
0.36,-10113146.781921387,-12592548.370361328,-2683635.950088501,-6157648.086547852,3974106.788635254,1002737.8797531128,-7956446.647644043,-6672953.128814697,5571708.202362061,397489.4881248474,2927896.022796631,-16425691.604614258,-19293241.500854492,-25683282.85217285,1261403.0838012695,-5058704.376220703,-2860529.4227600098,-4962141.990661621,895221.8294143677,-5918839.931488037,-9144356.727600098,-30197431.564331055,-23031961.44104004,22939407.348632812,-6283815.383911133,618671.8940734863,2121251.344680786,2864290.952682495,-1652876.377105713,-18188772.201538086,-9422013.282775879,-16724161.148071289,-444960.50477027893,1195393.2046890259,-4274299.144744873,-1962669.6109771729,490836.4713191986,-41464.83168005943,-10779964.447021484,-13757349.967956543,-18013755.798339844,-8224514.007568359,-5957915.306091309,1641116.1422729492,-2857580.6617736816,-2970547.1992492676,805837.2735977173,-3148907.18460083,-10295177.459716797,-9403070.449829102,-7049656.867980957,-7704812.526702881,-9200829.50592041,-12343787.19329834,-1803092.122077942,-5573455.333709717,-6502015.113830566,-10419023.513793945,-6554633.140563965,-16977197.647094727,-6377271.1753845215,-15880017.280578613
0.365,-21323049.545288086,-22881589.889526367,-12031411.170959473,-11655058.860778809,-698843.8963890076,-1504910.3498458862,-10147814.750671387,-8596650.123596191,2088408.9469909668,-1309289.3362045288,594493.8659667969,-16600423.812866211,-18778472.900390625,-24566022.872924805,1784949.0642547607,-4729050.159454346,-3791775.941848755,-5936120.510101318,83992.77180433273,-6734642.505645752,-9618988.990783691,-28437017.4407959,-20175571.44165039,23532009.12475586,-4865682.601928711,623966.39585495,1840768.9332962036,1279471.755027771,-3359347.8202819824,-17688802.71911621,-8497467.041015625,-13216737.747192383,2611618.5188293457,4579100.131988525,-1585945.1293945312,-693926.751613617,383310.61601638794,-828346.9676971436,-11361862.182617188,-12871965.408325195,-14909799.575805664,-3444105.625152588,-1841543.6744689941,5703498.840332031,1245794.653892517,578467.4286842346,1400099.754333496,-1605540.8716201782,-7012056.827545166,-6005632.400512695,-1244773.030281067,-1759063.1246566772,-1800400.4955291748,-6993435.859680176,2630887.746810913,-879628.7775039673,-1635108.9477539062,-3586852.788925171,-474144.93560791016,-9646574.020385742,-418591.9165611267,-9832234.382629395
0.37,-38969295.501708984,-40143321.9909668,-26879241.943359375,-19699298.858642578,-9556884.765625,-6534832.47756958,-13514738.082885742,-11838070.8694458,-2285413.5036468506,-4922479.629516602,-4508931.1599731445,-18799442.291259766,-20512723.922729492,-24717620.849609375,1968799.4718551636,-4618663.787841797,-4654159.069061279,-6581130.9814453125,-1876528.8591384888,-9578347.206115723,-12210154.53338623,-28514167.78564453,-17674753.189086914,23709823.608398438,-1957899.0936279297,2068279.0279388428,2451371.192932129,-1013563.0369186401,-6753906.25,-19219795.22705078,-8977748.87084961,-10534696.578979492,7690019.607543945,7996754.6463012695,1566975.3551483154,1493378.758430481,259033.1733226776,-3010858.5357666016,-13139752.388000488,-13374237.060546875,-10614036.560058594,436408.78796577454,1033447.7424621582,8870029.44946289,3598788.7382507324,2925538.7783050537,985072.1955299377,-1559892.177581787,-4701037.883758545,-2313601.9706726074,3212782.859802246,2873417.377471924,2542109.966278076,-4399632.930755615,5086855.411529541,2833746.4332580566,2146416.425704956,1711853.5041809082,3943391.5615081787,-4066096.305847168,4359219.551086426,-4271101.474761963
0.375,-42516410.82763672,-43715057.373046875,-30050239.56298828,-19778772.354125977,-12123390.197753906,-8215863.227844238,-13628413.200378418,-12283782.005310059,-1068670.9880828857,-4453460.693359375,-5351666.450500488,-20636344.90966797,-23809450.149536133,-27903089.52331543,1188087.4633789062,-4661884.307861328,-3376480.3409576416,-4850885.391235352,-1033402.3237228394,-10184659.004211426,-13946388.244628906,-31700487.13684082,-19987476.348876953,21966009.14001465,-880677.6404380798,3838313.8179779053,3983180.046081543,-899603.0688285828,-7998843.193054199,-21916481.018066406,-11815965.65246582,-13488338.470458984,7595739.841461182,7211777.210235596,2010874.0329742432,2382841.5870666504,152314.26060199738,-4989810.943603516,-15870277.404785156,-16870016.09802246,-11443386.07788086,-2598116.636276245,-1412664.4134521484,7437418.460845947,1350864.291191101,972431.3020706177,-1133761.1675262451,-4320090.770721436,-7625359.058380127,-3678629.8751831055,257143.46766471863,-91883.52525234222,-471412.39047050476,-7887111.663818359,2063865.9000396729,455704.4804096222,-220508.08370113373,-2021640.3007507324,396854.81786727905,-7432184.219360352,1625689.0296936035,-7085301.399230957
0.38,-31116342.544555664,-32712444.305419922,-21063737.869262695,-12905949.592590332,-7858163.833618164,-4782870.769500732,-10405572.891235352,-9672064.781188965,4122317.7909851074,-620788.1569862366,-1925918.3406829834,-20948812.48474121,-26724554.06188965,-32487590.789794922,1134958.028793335,-3980962.038040161,-890390.7537460327,-2393148.183822632,2013902.9026031494,-8057646.751403809,-13594696.044921875,-35687808.990478516,-25415174.48425293,22040670.39489746,-1013027.9064178467,5144949.436187744,5564291.000366211,1302880.1679611206,-6737249.374389648,-23992897.033691406,-15391284.942626953,-19464435.577392578,4936736.583709717,5773886.680603027,1503505.1107406616,2361066.8182373047,33281.07297420502,-5862492.084503174,-18811048.50769043,-21524919.509887695,-16863468.170166016,-6653803.825378418,-3621975.6603240967,5424777.507781982,-1460362.5535964966,-2236964.225769043,-3346681.1180114746,-7979798.793792725,-13113449.096679688,-8373768.8064575195,-4011548.9959716797,-4526669.502258301,-3851965.6658172607,-12030213.356018066,-2908962.4881744385,-4715156.555175781,-5330719.470977783,-8411952.97241211,-5189166.54586792,-13806962.966918945,-4117329.5974731445,-13797277.450561523
0.385,-18043758.392333984,-20364259.719848633,-10336625.099182129,-6972041.606903076,-2822447.5383758545,1516737.2226715088,-6191334.247589111,-5864586.83013916,7385356.426239014,1292726.8743515015,473925.3520965576,-19698612.213134766,-26150423.049926758,-32629611.96899414,4444128.99017334,-1188565.3734207153,789376.974105835,-2141451.835632324,3300656.0802459717,-6454146.862030029,-12005635.261535645,-36084583.2824707,-26897508.62121582,27070409.774780273,1021654.0098190308,6371094.703674316,6152959.823608398,2712765.4552459717,-5430394.172668457,-23849105.834960938,-15984442.710876465,-21047323.22692871,7204982.280731201,8839056.968688965,3205449.8195648193,2947203.8745880127,-110299.05825853348,-5509820.938110352,-20053043.365478516,-23158191.680908203,-19588493.34716797,-3040227.8900146484,546534.1806411743,7820967.197418213,-261378.9141178131,-2096337.7952575684,-3273164.987564087,-8817823.41003418,-14770272.254943848,-9774831.771850586,-1118017.7927017212,-1724738.597869873,-608788.0730628967,-10513774.871826172,-3773439.407348633,-5531954.765319824,-6040218.353271484,-6994156.837463379,-3704421.043395996,-13446020.126342773,-4218829.154968262,-14377409.934997559
0.39,-9614580.154418945,-12935445.785522461,-2804941.177368164,-4286508.083343506,5617.985036224127,8542800.903320312,-1600947.1416473389,-1286996.841430664,7571548.938751221,-483733.6540222168,-764717.8173065186,-18179176.330566406,-22212331.771850586,-26682008.743286133,11226568.222045898,4010060.3103637695,2173191.785812378,-3679863.929748535,1428052.306175232,-7715707.778930664,-11082445.14465332,-32845703.125,-22568811.416625977,34381233.21533203,6248035.907745361,8650549.88861084,6248493.671417236,2179455.280303955,-5687044.620513916,-22364654.541015625,-13165651.321411133,-16964162.826538086,14638400.077819824,15244572.639465332,7010399.81842041,4525693.416595459,-189406.96120262146,-4544019.69909668,-18976102.828979492,-21114788.055419922,-16554065.704345703,6344792.366027832,8441906.929016113,13361131.66809082,3933300.495147705,1018985.390663147,-1091493.010520935,-6290621.280670166,-11731335.639953613,-6054922.580718994,6918409.34753418,6394885.063171387,6258508.205413818,-5022678.375244141,-249549.7167110443,-1167660.2363586426,-1624137.4015808105,965999.0668296814,3547641.0388946533,-7235928.058624268,1263732.3141098022,-8175857.5439453125
0.395,-2826939.582824707,-7055546.283721924,3442382.8125,-1406004.9057006836,2138501.8825531006,14482960.70098877,3196526.527404785,3644270.896911621,8384993.553161621,-2146138.906478882,-2520453.453063965,-17671821.59423828,-19071952.81982422,-21020013.8092041,17525222.778320312,9131246.566772461,4968394.2794799805,-3768164.873123169,-477428.3468723297,-10043667.793273926,-11505179.405212402,-30519889.83154297,-18658432.006835938,38555244.44580078,11159222.602844238,11848453.521728516,7303542.613983154,1520701.0507583618,-6494886.875152588,-21727674.48425293,-10656738.28125,-13604611.39678955,19697906.494140625,19198465.34729004,9836016.654968262,6073365.211486816,-107405.93820810318,-3852132.3204040527,-17425516.12854004,-19103073.120117188,-13039713.859558105,11579558.372497559,12490303.039550781,16641040.802001953,6563868.045806885,2671034.812927246,406153.4106731415,-3968120.574951172,-9430199.62310791,-2403100.9674072266,10866713.523864746,10437240.600585938,8897994.041442871,-2483457.565307617,2161534.070968628,2146230.697631836,1622712.49294281,4920989.513397217,7144218.444824219,-4447521.686553955,4184011.459350586,-4136363.983154297
0.4,2351146.936416626,-1713663.8164520264,8798048.973083496,2130069.2558288574,4890458.583831787,16199106.216430664,5535545.349121094,6013876.914978027,11336233.139038086,57185.67594885826,-448134.8693370819,-16977193.83239746,-18864074.70703125,-20982852.935791016,18398223.876953125,10214153.289794922,7926013.946533203,-1268958.6877822876,905568.1228637695,-9528638.83972168,-11193783.7600708,-30875802.993774414,-19358903.884887695,37591403.96118164,11269568.44329834,13406022.071838379,8966381.072998047,2408741.7125701904,-5779141.902923584,-21646221.160888672,-10388384.819030762,-14658308.982849121,17489868.1640625,17613136.291503906,9171051.025390625,6232261.657714844,91796.73343896866,-3539369.583129883,-16806499.481201172,-19187383.6517334,-13755552.291870117,8124268.531799316,9919388.771057129,14872768.40209961,5288846.492767334,722873.3897209167,-350923.41899871826,-4422913.074493408,-10919596.672058105,-2942344.6655273438,7132824.897766113,6637117.385864258,5227236.747741699,-5557839.870452881,161634.4153881073,299931.7944049835,-373713.76156806946,601453.959941864,3053509.7122192383,-8794869.422912598,610462.6059532166,-7269289.493560791
0.405,1494021.0580825806,-539095.6997871399,11377483.367919922,2693274.736404419,7792826.6525268555,11970234.870910645,2932834.1484069824,3378618.001937866,13741425.514221191,5169392.108917236,5645571.231842041,-13504096.031188965,-18313295.364379883,-22834926.60522461,13260199.546813965,6200366.020202637,7601701.259613037,1205611.228942871,4961203.575134277,-4945324.897766113,-7632159.233093262,-30183181.762695312,-20388490.676879883,33788043.97583008,6307084.083557129,10954905.50994873,8887841.22467041,4068866.25289917,-2984472.7516174316,-19620100.021362305,-9746821.403503418,-15903619.766235352,11307472.229003906,12742845.53527832,5418003.559112549,4500552.177429199,272136.8372440338,-2805196.0468292236,-16009273.529052734,-18998592.376708984,-15945734.977722168,1365294.6949005127,4640082.359313965,10085504.531860352,1743416.1901474,-2311168.1938171387,-1716582.0598602295,-5976683.616638184,-12904881.477355957,-5467717.170715332,1088377.1181106567,436757.6241493225,-6833.197083324194,-10141864.776611328,-3411374.33052063,-3636892.318725586,-4465480.804443359,-5247062.683105469,-2908553.123474121,-14265214.920043945,-4263105.869293213,-12478789.329528809
0.41,-5012783.527374268,-4048125.2670288086,11349761.009216309,-519009.0537071228,9837198.257446289,5483906.269073486,-2135882.85446167,-1687423.9444732666,13591938.018798828,9025433.540344238,11332389.831542969,-8150758.743286133,-14630259.51385498,-20439886.09313965,7457965.850830078,1125667.8104400635,3814850.5687713623,1202248.215675354,8219323.15826416,210178.74777317047,-2212930.917739868,-26174228.66821289,-16961111.068725586,30523643.493652344,1021681.7855834961,6285763.740539551,6401856.899261475,4845082.2830200195,14244.023710489273,-15785341.262817383,-6874200.344085693,-13071713.4475708,7521472.454071045,8788467.407226562,1617940.4258728027,2098312.8547668457,380693.9423084259,-1406880.0210952759,-14018959.999084473,-16652935.028076172,-14851610.18371582,-1607893.2285308838,1557329.0586471558,6175981.9984436035,-988322.1387863159,-3245811.700820923,-1585348.129272461,-6086498.737335205,-11981821.060180664,-6035237.789154053,-1220119.9531555176,-1928017.8546905518,-2227005.0048828125,-11715035.438537598,-4409265.041351318,-4735694.408416748,-5653912.544250488,-5664656.162261963,-4115970.1347351074,-14759572.982788086,-4469955.4443359375,-13100802.421569824
0.415,-10816163.063049316,-8443791.389465332,9883515.357971191,-3705482.006072998,9662992.477416992,3130086.898803711,-4173065.662384033,-3778898.7159729004,12223456.382751465,8710598.945617676,11916415.214538574,-6050459.861755371,-11155223.846435547,-15740147.590637207,7072820.663452148,185540.67611694336,1000673.0556488037,-360801.45835876465,8299571.990966797,1160902.1425247192,181044.38483715057,-22809026.71813965,-12311239.242553711,30035097.122192383,284414.142370224,4350888.729095459,4375685.691833496,4570533.275604248,691644.6089744568,-14080038.070678711,-4664990.425109863,-8871629.71496582,8693467.140197754,8263837.814331055,1061488.6283874512,1308503.3893585205,448182.04641342163,-433353.87110710144,-12481848.71673584,-14469469.07043457,-11239491.46270752,434078.75299453735,2351654.291152954,5685340.404510498,-1003979.4445037842,-1846573.1143951416,-252008.8255405426,-5236742.01965332,-9856195.449829102,-4578891.754150391,697311.7589950562,76020.14392614365,-972337.007522583,-10150175.094604492,-2556222.915649414,-2587833.4045410156,-3483385.0860595703,-1681821.4654922485,-817006.0515403748,-11395859.718322754,-847397.9234695435,-9377475.73852539
0.42,-11411885.261535645,-10928869.247436523,6973919.868469238,-4020278.4538269043,6663894.6533203125,6718708.038330078,-1460637.092590332,-1274217.7248001099,11543638.229370117,5199223.99520874,7457782.745361328,-9691274.642944336,-12369914.054870605,-15061662.673950195,12146683.692932129,3903825.283050537,2549880.9814453125,-1002471.0893630981,6077033.519744873,-2527457.2372436523,-2451607.2273254395,-24113613.12866211,-12113440.51361084,32502784.729003906,3845103.5022735596,7123865.127563477,5529557.704925537,4373589.515686035,-1153355.4792404175,-16510309.219360352,-6126851.558685303,-7854730.129241943,12395724.296569824,10750617.980957031,4005645.751953125,2903582.3345184326,433608.65116119385,-740394.651889801,-13150234.22241211,-14918056.48803711,-9073392.868041992,3936556.339263916,5404968.26171875,8231095.314025879,1233491.4207458496,66646.2704539299,826169.2523956299,-5136309.623718262,-9461510.65826416,-3244491.1003112793,3795499.086380005,3296875.7152557373,1720340.4903411865,-7805683.612823486,-180970.48997879028,-153245.4937696457,-929884.0761184692,1905924.677848816,2601778.030395508,-8725981.712341309,2067758.0833435059,-5861865.997314453
0.425,-6874454.021453857,-9850772.857666016,5120529.651641846,-2202003.002166748,3968695.1637268066,11512471.199035645,2211592.91267395,2218830.5854797363,11848847.389221191,2543057.918548584,3417889.5950317383,-13764058.113098145,-15586069.107055664,-17263490.676879883,16375192.642211914,7843153.476715088,6364618.301391602,70812.67237663269,4606224.536895752,-5811222.553253174,-5559115.409851074,-26916133.880615234,-14411589.622497559,35039936.06567383,6883956.432342529,10696782.112121582,8505578.994750977,4994988.918304443,-2679616.928100586,-19215732.57446289,-8829927.444458008,-8794270.515441895,14180372.23815918,13238810.539245605,6816305.637359619,4725394.725799561,235360.57770252228,-1399820.8045959473,-14380496.02508545,-16057569.50378418,-8983814.239501953,5024023.532867432,7090734.004974365,10596144.676208496,3107295.036315918,934769.9880599976,1422016.3822174072,-5321070.671081543,-9910694.122314453,-2427391.529083252,5247498.512268066,4848719.596862793,3260593.891143799,-6330735.206604004,1282373.1899261475,786204.2784690857,113912.61219978333,3065858.840942383,3528135.7765197754,-8664639.472961426,2392514.228820801,-4989167.6902771
0.43,1934410.0952148438,-1927893.6386108398,10886284.828186035,922445.7740783691,7280118.465423584,12032543.182373047,3004974.603652954,3165416.717529297,13249131.202697754,4259765.625,5189645.290374756,-10990532.875061035,-13380513.191223145,-14126884.460449219,13958237.648010254,7986377.239227295,8161128.997802734,1895148.1580734253,6165091.037750244,-3862421.2741851807,-3461992.7406311035,-24827888.48876953,-12317051.887512207,33331405.639648438,5656972.885131836,10450053.215026855,9934823.989868164,6202927.112579346,-1172483.3250045776,-17355922.69897461,-8084769.248962402,-7479972.839355469,11005701.065063477,12256196.022033691,5730967.5216674805,4185569.2863464355,-102755.01757860184,-971522.867679596,-13266215.324401855,-14660170.555114746,-8809255.599975586,1728162.5270843506,4163680.5534362793,9333271.026611328,2054708.2424163818,-44024.90332722664,1900078.8927078247,-4541218.280792236,-9126554.489135742,-1774969.5777893066,3257830.3813934326,2970578.670501709,1293139.3384933472,-6730515.003204346,1279262.4235153198,200429.23092842102,-504298.50816726685,1923295.021057129,1871832.6091766357,-10695378.303527832,919867.0983314514,-6583948.135375977
0.435,12454885.482788086,12530404.090881348,25749145.5078125,5569720.74508667,17387639.99938965,7173590.183258057,941075.1461982727,1598324.7756958008,16070602.416992188,9485936.164855957,11764578.819274902,-1979777.216911316,-4048594.9516296387,-3116488.6951446533,5540358.543395996,4483281.61239624,6999328.61328125,3470432.2814941406,9750548.362731934,1862275.8388519287,3040204.5249938965,-17521091.46118164,-4807572.364807129,26473781.58569336,1210823.1782913208,6976903.915405273,9119693.756103516,7268238.544464111,2416981.6970825195,-11905482.292175293,-3757165.9088134766,-3889007.568359375,3865395.3075408936,7288462.162017822,1328537.4641418457,1708988.070487976,-345379.91881370544,268391.37077331543,-10327467.918395996,-11557096.481323242,-8264923.095703125,-4977799.415588379,-2654412.7464294434,4569865.2267456055,-1468624.5918273926,-2724174.4995117188,1714542.8657531738,-3778762.102127075,-8211325.645446777,-2423685.5506896973,-2140035.390853882,-2316574.0966796875,-4215471.267700195,-9582249.641418457,-728512.3467445374,-1800828.218460083,-2652886.6291046143,-1668615.698814392,-1697602.62966156,-14137630.462646484,-1789597.0344543457,-10143018.72253418
0.44,17638465.881347656,23931303.024291992,39292427.06298828,9659799.575805664,26683958.053588867,-560028.1953811646,-2268973.5889434814,-1138155.8179855347,18756282.806396484,13257275.581359863,16475227.355957031,5078926.563262939,5533617.973327637,7800755.500793457,-3337981.939315796,-165808.5733652115,4951027.393341064,3999737.9779815674,11648562.43133545,5192636.966705322,7673621.654510498,-11158184.051513672,1884490.3707504272,18828044.891357422,-3127150.297164917,4049493.3128356934,7902861.11831665,7348629.951477051,4453577.995300293,-8182666.778564453,13462.508097290993,-1437569.6182250977,-2754139.4233703613,1463205.8143615723,-2551309.823989868,-99125.54174661636,-324466.13907814026,831521.6302871704,-8888203.620910645,-10069063.186645508,-8636932.373046875,-11280950.546264648,-8552129.745483398,82714.48314189911,-4153196.8116760254,-5149335.3843688965,724957.9429626465,-4583456.516265869,-8997990.608215332,-4759451.866149902,-7956658.363342285,-8108081.817626953,-9647398.948669434,-13231012.344360352,-3483471.632003784,-4160302.16217041,-5110164.642333984,-6651427.268981934,-5653952.598571777,-17468997.955322266,-4836966.037750244,-14216862.678527832
0.445,11854498.863220215,21750650.40588379,39479167.93823242,8696430.206298828,27147418.975830078,-8257793.426513672,-6320288.65814209,-5108796.5965271,17948738.09814453,11632828.712463379,14661243.438720703,4709701.061248779,8592324.256896973,10686517.715454102,-8544719.696044922,-4588564.872741699,2733421.802520752,2408462.5244140625,9338774.681091309,2893977.642059326,6804958.343505859,-10128492.35534668,3416648.1494903564,14729758.262634277,-6262657.642364502,2415960.5503082275,6736495.018005371,5987516.8800354,3213744.1635131836,-8692339.897155762,805291.1758422852,-1104813.814163208,-5666917.80090332,-2279511.9285583496,-4115050.3158569336,-390393.10812950134,-152853.02698612213,411657.51218795776,-10027175.903320312,-10669476.509094238,-9397511.48223877,-14060323.715209961,-10208112.716674805,-1413591.980934143,-3796391.725540161,-4717591.762542725,649505.7344436646,-5694467.067718506,-9828689.575195312,-6240771.770477295,-10732715.606689453,-10946347.2366333,-11180780.410766602,-14235776.901245117,-3684593.2006835938,-4420386.791229248,-5321705.341339111,-10044076.919555664,-7915287.017822266,-18360761.642456055,-6025189.8765563965,-16073122.024536133
0.45,825152.9932022095,9873164.176940918,29188854.217529297,2078826.1890411377,20655015.94543457,-13542886.734008789,-11105405.807495117,-10204977.035522461,12907152.17590332,6289051.532745361,9090045.928955078,171515.89691638947,5881872.177124023,7071959.018707275,-10584331.512451172,-8699168.20526123,-737666.130065918,-1368411.1833572388,4767982.006072998,-1496082.5443267822,3375841.6175842285,-12729406.356811523,1664683.6996078491,13183404.922485352,-9479467.391967773,-272355.2882671356,4403222.560882568,4025798.797607422,996377.8257369995,-10877227.783203125,-103284.89542007446,-1461046.6957092285,-6941881.17980957,-4485064.98336792,-5286764.144897461,-867045.5813407898,-70116.11759662628,207085.68394184113,-11327585.220336914,-11117471.694946289,-9513997.077941895,-15020682.334899902,-10131287.574768066,-1504280.3287506104,-2022310.9722137451,-1730830.6694030762,2646129.1313171387,-4901996.612548828,-8545374.870300293,-5267546.1769104,-11291205.406188965,-11516195.297241211,-9897846.221923828,-11962353.706359863,-682483.434677124,-2301860.809326172,-3114307.165145874,-11132805.824279785,-8743950.843811035,-17368507.385253906,-5155179.977416992,-15539990.425109863
0.455,-2273429.3937683105,4477073.669433594,23904851.91345215,-3850744.9626922607,16794260.025024414,-14624772.071838379,-14514121.055603027,-13973785.400390625,7923511.981964111,2689469.814300537,6322582.244873047,-2125814.67628479,2680004.596710205,3534169.1970825195,-11881348.609924316,-11674759.864807129,-4618050.575256348,-4947498.798370361,2522397.994995117,-2533430.814743042,2181964.874267578,-15286723.136901855,-583900.1536369324,10754397.39227295,-12863612.174987793,-3815407.0377349854,1720905.3039550781,3402866.840362549,922205.4481506348,-11707326.889038086,-1205667.7341461182,-3018631.2198638916,-10676368.713378906,-7017996.311187744,-7488162.040710449,-2332224.3690490723,-134010.34474372864,807090.8188819885,-11016184.80682373,-10970716.47644043,-10697299.95727539,-18489753.72314453,-12636298.179626465,-3003633.0223083496,-1830679.5358657837,-91202.72845029831,4451434.61227417,-3535067.081451416,-7731764.793395996,-5169072.62802124,-14001130.104064941,-14080609.321594238,-10683043.479919434,-10631307.601928711,674763.7391090393,-2047108.1733703613,-2873332.738876343,-13606282.234191895,-11366041.18347168,-18929298.400878906,-6231551.647186279,-16908391.95251465
0.46,6957905.292510986,13505047.798156738,31595645.904541016,-2501948.118209839,20733537.673950195,-11534363.746643066,-13897473.335266113,-13438525.199890137,8143449.783325195,4116527.557373047,9178790.092468262,-423251.3904571533,1985064.98336792,2835823.0590820312,-12792680.740356445,-11806569.09942627,-5390247.821807861,-5083383.083343506,4793851.852416992,666071.0573196411,4290747.64251709,-16370529.174804688,-3133091.2113189697,8034360.885620117,-14145201.683044434,-4369415.283203125,1852036.3569259644,5174746.513366699,3134561.061859131,-10980123.519897461,-2319415.330886841,-6936028.480529785,-16306688.30871582,-9146883.010864258,-8812924.3850708,-3084733.486175537,-174993.06797981262,1379391.6702270508,-10198399.543762207,-11734162.330627441,-14680912.971496582,-24524030.685424805,-17006967.544555664,-5460938.453674316,-3661705.0170898438,-2630482.4352264404,2945664.405822754,-5021737.098693848,-11437592.506408691,-9641732.215881348,-20036270.141601562,-19891956.329345703,-15419741.6305542,-14032799.72076416,-4096158.504486084,-7219396.114349365,-8110544.204711914,-19947568.893432617,-17244850.158691406,-25359958.64868164,-12241693.496704102,-23112060.546875
0.465,17940408.70666504,25908555.98449707,42600147.24731445,4755436.897277832,27594984.05456543,-6837319.374084473,-9404789.924621582,-8746358.871459961,13765547.752380371,8883338.928222656,14644611.358642578,2572346.9257354736,3183483.123779297,3571180.3436279297,-11652673.721313477,-8678615.57006836,-1318937.6592636108,-1142522.0966339111,9439935.684204102,4700511.455535889,7534958.362579346,-15875218.391418457,-4985481.739044189,8749566.078186035,-11959528.923034668,-445452.3026943207,5558193.683624268,8085487.365722656,5400728.225708008,-9568519.592285156,-2568023.920059204,-10110895.156860352,-18607681.274414062,-8605050.086975098,-7378077.507019043,-1969368.815422058,-49317.99694895744,1297033.7867736816,-9997288.703918457,-12768889.427185059,-18251108.169555664,-27809289.932250977,-18612136.840820312,-6301877.021789551,-5557780.742645264,-7150571.823120117,-895610.0940704346,-8946146.011352539,-17511144.638061523,-15576009.750366211,-24677989.959716797,-24405599.59411621,-20228862.762451172,-19821695.32775879,-11812577.247619629,-14296216.96472168,-15124408.721923828,-26072818.756103516,-22583145.141601562,-32039665.22216797,-19210544.58618164,-29818710.327148438
0.47,19426593.780517578,27213203.43017578,43967674.255371094,10576275.825500488,30328285.217285156,-3512588.7393951416,-4128796.100616455,-3286222.457885742,20323846.8170166,13353147.506713867,18556743.621826172,5058041.095733643,5157468.795776367,5133589.267730713,-8079877.853393555,-4290110.5880737305,4666645.050048828,4128855.7052612305,13189863.204956055,7010313.987731934,10249078.750610352,-13436833.381652832,-3086900.472640991,12887783.05053711,-8300908.088684082,4003808.9752197266,9316120.147705078,9956627.84576416,6407691.955566406,-7548459.529876709,-461120.69487571716,-7597513.675689697,-15257224.082946777,-5877589.702606201,-4994663.238525391,-667418.4799194336,159258.05270671844,1075252.5329589844,-9397972.106933594,-11399588.584899902,-16385694.50378418,-25180057.525634766,-16431266.784667969,-5367061.138153076,-6398457.050323486,-9443638.801574707,-2935010.6716156006,-10828757.286071777,-19229351.043701172,-16037401.19934082,-23790004.73022461,-23556724.548339844,-21139558.792114258,-22508472.442626953,-14951200.485229492,-16183712.005615234,-16793970.108032227,-26109493.255615234,-22789836.883544922,-32769119.262695312,-20386171.340942383,-30147104.263305664
0.475,14446916.580200195,19573837.280273438,37310214.99633789,11070225.715637207,28991073.608398438,-2174130.916595459,-961964.0111923218,-202139.12427425385,23983184.814453125,15739360.809326172,19868827.81982422,7568258.762359619,7464079.856872559,8080095.291137695,-4397638.320922852,-1335802.0782470703,8221444.129943848,7452009.677886963,14888477.325439453,7801132.678985596,12103833.198547363,-9966891.288757324,2403721.570968628,15699795.722961426,-6140867.233276367,5027470.111846924,10101553.916931152,10087842.94128418,6624614.238739014,-5582867.14553833,2928529.5009613037,-818031.6090583801,-10635957.717895508,-4128414.6308898926,-4553519.725799561,-943308.0554008484,220322.22151756287,1082154.0355682373,-7644466.876983643,-7918184.757232666,-10357123.374938965,-20503925.323486328,-14729326.248168945,-5004987.716674805,-6642648.220062256,-8882624.626159668,-1797120.5711364746,-8826869.010925293,-15183388.710021973,-10400868.41583252,-19836824.417114258,-19727060.317993164,-19442535.400390625,-20851940.155029297,-11755272.86529541,-11935121.536254883,-12362933.158874512,-20978078.842163086,-18935762.405395508,-28371557.235717773,-15752001.762390137,-24400630.950927734
0.48,14419357.299804688,17321147.918701172,34824043.27392578,9329651.832580566,28738527.297973633,-1378379.464149475,-475526.72028541565,18152.16988325119,24333976.74560547,16147768.020629883,19788461.685180664,9794027.328491211,9223533.630371094,11168669.700622559,-3029706.7165374756,-840159.1777801514,8122500.419616699,7595043.182373047,14790858.268737793,7433348.178863525,12519640.922546387,-8123994.827270508,6314167.9763793945,14953940.391540527,-5684560.298919678,4046957.492828369,9309166.90826416,9364589.69116211,6417495.7275390625,-5501720.905303955,4266130.447387695,2873936.176300049,-9571533.203125,-4391259.19342041,-5247841.358184814,-1421995.5205917358,24028.925225138664,786721.3487625122,-6197515.487670898,-6089086.532592773,-6869567.87109375,-18767652.51159668,-15812441.8258667,-5534794.807434082,-5940597.057342529,-7954905.5099487305,-212907.0609807968,-6246766.090393066,-11225241.661071777,-5343482.494354248,-17675716.400146484,-17666330.337524414,-18357959.747314453,-18142524.71923828,-7553336.620330811,-7483333.110809326,-7924322.605133057,-16915098.190307617,-15764941.215515137,-24930986.404418945,-11709475.51727295,-19471168.518066406
0.485,20704540.252685547,24403579.711914062,39871498.107910156,8631019.592285156,30631944.65637207,-903044.9986457825,-2129157.781600952,-1784184.3366622925,22100149.154663086,14538208.961486816,18728054.04663086,9416310.31036377,9201238.632202148,12097053.527832031,-3825738.4300231934,-2097639.0838623047,5881783.008575439,5101267.337799072,12679538.72680664,5149173.736572266,10777850.151062012,-9057614.32647705,5470703.601837158,14316108.703613281,-4999367.237091064,4497492.31338501,9453804.016113281,8416662.216186523,5305427.074432373,-7599262.237548828,2857147.455215454,848356.4853668213,-10399827.95715332,-3987979.1736602783,-3830561.637878418,303640.54441452026,-274464.36882019043,84924.98844861984,-6207019.805908203,-7035901.069641113,-7896065.711975098,-18450822.830200195,-15697251.319885254,-4035138.1301879883,-2645797.2526550293,-7056126.594543457,253308.7432384491,-5559644.2222595215,-10667445.182800293,-4330420.017242432,-16638227.462768555,-16689624.786376953,-16730432.510375977,-15587221.145629883,-5424343.109130859,-5795928.478240967,-6376086.711883545,-15671069.145202637,-13956811.904907227,-23912975.311279297,-10680738.44909668,-18086612.701416016
0.49,20607780.45654297,26878681.182861328,40730785.36987305,6221757.888793945,29137325.286865234,-3422535.8963012695,-6189891.338348389,-5742558.95614624,16957445.14465332,10531748.77166748,15826832.77130127,5127344.608306885,7078890.323638916,10671960.830688477,-5390588.760375977,-4557197.093963623,2437838.315963745,1048463.9406204224,8658784.866333008,1303475.1415252686,7602280.139923096,-10642223.358154297,3471846.342086792,16616104.125976562,-3941282.5107574463,5602153.778076172,9529528.617858887,7032164.096832275,3375856.399536133,-9408575.057983398,1992286.8013381958,-680138.9455795288,-8310014.724731445,-1203027.367591858,-224403.82838249207,3431559.0858459473,-406189.0244483948,-11347.807012498379,-6218446.254730225,-6931879.043579102,-7587616.443634033,-14543950.080871582,-10362523.078918457,876361.608505249,3131110.429763794,-3710376.501083374,1816808.1045150757,-4364581.58493042,-9086211.204528809,-2630666.0175323486,-11884189.60571289,-12005481.719970703,-10639265.060424805,-10464495.658874512,-1798364.0432357788,-2545977.1156311035,-3203398.2276916504,-12193353.652954102,-9329454.42199707,-20106956.481933594,-7497314.453125,-14984569.549560547
0.495,5913907.527923584,13357934.951782227,27929088.592529297,-1636285.424232483,20643499.37438965,-10695439.338684082,-12481014.251708984,-11860539.436340332,9788233.757019043,5386990.070343018,11357918.739318848,-875246.4652061462,3587299.108505249,8341959.9533081055,-7595520.973205566,-8155175.20904541,-1845504.879951477,-2816640.853881836,4872454.1664123535,-1618980.5269241333,4856564.521789551,-11054924.011230469,4286828.04107666,18257604.598999023,-4723035.81237793,4014725.685119629,7279016.971588135,5483244.895935059,1818123.3406066895,-9233582.496643066,3344465.0173187256,2925733.3278656006,-3852869.0338134766,1344341.516494751,1801938.533782959,4771902.561187744,-280955.85107803345,908973.3958244324,-4836519.718170166,-3587069.9882507324,-2550951.0040283203,-7702808.380126953,-3082775.354385376,5903881.072998047,8022977.828979492,2264025.2113342285,5783742.427825928,-551947.5936889648,-3072029.1137695312,3416669.8455810547,-3489001.0356903076,-3692268.6100006104,-1143236.756324768,-2437928.6766052246,5573024.749755859,4985704.42199707,4392116.546630859,-4338872.43270874,-1150184.5121383667,-11542031.288146973,614831.3283920288,-7016601.085662842
0.5,-12151499.74822998,-5946862.22076416,10122282.981872559,-11007901.191711426,10618601.79901123,-18756278.99169922,-17847887.03918457,-17210382.46154785,4871515.274047852,2323814.3920898438,7855134.963989258,-4745442.3904418945,-258272.4094390869,5407767.772674561,-10609212.875366211,-11501554.489135742,-4769001.9607543945,-4166519.6418762207,3944202.8999328613,-1959677.9346466064,3375087.022781372,-11957095.1461792,5053364.7537231445,14916237.831115723,-7767781.2576293945,500173.6283302307,4317422.866821289,4876821.517944336,1301423.43044281,-8977029.800415039,3507849.931716919,6222213.268280029,-2769154.0718078613,602598.3691215515,423847.88393974304,3615658.5216522217,-71322.09837436676,1522567.1529769897,-3710327.1484375,-1115612.9837036133,1228613.8534545898,-4502409.4581604,-728368.7591552734,7223560.333251953,9043590.545654297,6762090.682983398,8979246.139526367,2600832.462310791,2011601.9248962402,8461271.286010742,1596304.5358657837,1380879.7597885132,4706370.3536987305,3246056.079864502,11272797.584533691,10836823.463439941,10379108.428955078,1188146.1143493652,4088280.67779541,-5193574.905395508,6855867.862701416,-831047.7137565613
