time,Fp1,Fpz,Fp2,AF3,AF4,F7,F5,F3,F1,Fz,F2,F4,F6,F8,FT7,FC5,FC3,FC1,FCz,FC2,FC4,FC6,FT8,T7,C5,C3,C1,Cz,C2,C4,C6,T8,TP7,CP5,CP3,CP1,CPz,CP2,CP4,CP6,TP8,P7,P5,P3,P1,Pz,P2,P4,P6,P8,PO7,PO5,PO3,POz,PO4,PO6,PO8,CB1,O1,Oz,O2,CB2
0.0,9759917.259216309,11048134.803771973,10333446.502685547,4782575.607299805,5340941.905975342,320181.07175827026,457057.6846599579,469094.6936607361,795599.8778343201,2063231.2297821045,1836442.8281784058,1964836.0013961792,2108972.3110198975,2476953.2680511475,49468.040466308594,176858.93177986145,308562.9343986511,724400.6395339966,1540115.8332824707,1608303.9045333862,1773952.9609680176,2143367.290496826,2374716.9971466064,-121731.98908567429,-1004618.8831329346,-1110018.9685821533,-772598.147392273,-77353.17945480347,11360.492557287216,233961.8057012558,944645.0471878052,2381474.733352661,-527633.4881782532,-606808.9604377747,-1668267.7268981934,-1787588.2387161255,-32626.591622829437,-1188859.462738037,287692.4276351929,-1450451.9701004028,2366263.6280059814,-601569.8313713074,-642075.24061203,-613239.1095161438,-1661259.2935562134,-1578959.1073989868,-1262731.432914734,-1525219.440460205,-1606652.3790359497,-1463975.5487442017,-847587.1086120605,-729154.109954834,-689220.3688621521,-1543015.480041504,-1691491.8422698975,-1620546.6985702515,-1711288.8097763062,-742276.7877578735,-727808.8927268982,-1568863.868713379,-1648512.601852417,-1718419.075012207
0.005,66893096.923828125,69499114.99023438,63392375.94604492,30810253.143310547,32241004.943847656,5423147.201538086,6208771.705627441,6353694.438934326,12757842.063903809,11589378.356933594,10754534.721374512,11678844.451904297,11911071.77734375,-4912718.772888184,3725654.6020507812,3000557.4226379395,6971719.741821289,8394574.165344238,9441362.380981445,9625597.953796387,11657355.308532715,12229187.01171875,-5798707.008361816,2762961.8644714355,-2226084.2323303223,2100144.863128662,2813023.328781128,-777677.2379875183,211339.2949104309,-5113533.020019531,-7913404.941558838,-5942287.921905518,-268217.7722454071,58268.554508686066,-983833.1937789917,-219374.1649389267,28625.92414021492,-11193990.707397461,-3722742.795944214,-18790370.94116211,-5698987.4839782715,-420599.5798110962,-429238.31939697266,-71803.80821228027,-17351669.311523438,-16822698.59313965,-12787574.768066406,-19431074.142456055,-20488107.681274414,-19179206.84814453,-3300291.061401367,-1689203.2623291016,-937401.1754989624,-16708446.502685547,-20039915.084838867,-18477333.068847656,-19748403.549194336,-2163430.4523468018,-2002197.7424621582,-17255590.438842773,-18365983.963012695,-18170728.68347168
0.01,93639350.89111328,99357872.00927734,92566230.77392578,44608383.17871094,50008186.34033203,6746999.263763428,7756026.268005371,8012295.722961426,20487297.05810547,19522823.333740234,18738618.850708008,19852622.985839844,20250654.220581055,-3348340.7497406006,4477719.783782959,3428106.3079833984,9537022.590637207,11780446.05255127,16743652.34375,16967252.731323242,19592639.923095703,20692920.684814453,-4518782.615661621,3060986.042022705,-4595915.794372559,1963124.15599823,3319889.545440674,-1167870.8791732788,252534.83653068542,-4457615.375518799,-8041386.604309082,-4662105.560302734,-799483.4780693054,-479781.3594341278,-2775899.4102478027,-1169249.415397644,-88223.77026081085,-16328878.402709961,-2528295.7553863525,-24514928.817749023,-4360794.0673828125,-967041.8500900269,-1000073.1945037842,-619022.6078033447,-23649967.193603516,-22837108.612060547,-18511238.09814453,-25405197.143554688,-26781488.4185791,-24951581.954956055,-4848061.084747314,-2689607.3818206787,-1600557.9233169556,-22611072.540283203,-26351572.036743164,-24224847.7935791,-25900232.315063477,-3206161.0221862793,-3039418.935775757,-23402338.0279541,-24213323.59313965,-24050085.067749023
0.015,84428695.67871094,93654602.05078125,90596977.23388672,42463226.318359375,53237350.46386719,5685491.561889648,6492118.835449219,6839728.355407715,21641239.166259766,22360031.127929688,22801418.30444336,23624645.233154297,24208642.959594727,4474750.04196167,3868977.3082733154,2440203.905105591,8439775.466918945,10631639.48059082,20615777.96936035,20758964.53857422,22973091.12548828,24586626.052856445,3445984.363555908,2578470.7069396973,-6009189.605712891,85764.83279466629,1674725.4133224487,-1199476.0036468506,136748.2990026474,916772.8424072266,-1150786.6382598877,3362769.603729248,-488254.3087005615,-413833.23073387146,-5021985.5308532715,-3228783.369064331,-322490.06628990173,-15957672.119140625,2640120.029449463,-18882892.608642578,3550024.2710113525,-514668.22624206543,-694521.6059684753,-473259.18078422546,-20055246.353149414,-19060640.335083008,-17883007.049560547,-19685914.993286133,-20917123.794555664,-19105426.788330078,-3854440.689086914,-1989493.0124282837,-957244.2770004272,-18728410.720825195,-20732889.17541504,-18853422.164916992,-20330102.920532227,-2175696.1345672607,-2201675.8918762207,-19505123.138427734,-19094213.485717773,-19133354.18701172
0.02,57796955.10864258,68087776.18408203,69206237.79296875,30423944.4732666,43804244.99511719,4857350.826263428,5416639.32800293,5823696.613311768,17139471.05407715,18050834.65576172,20879167.556762695,21463186.264038086,22121809.005737305,8013345.718383789,3859570.264816284,1223796.3676452637,6491281.032562256,7864595.413208008,18887247.08557129,18902708.053588867,20884689.331054688,22397977.828979492,7138541.221618652,3136738.5387420654,-5509523.868560791,-729908.1683158875,484374.19533729553,-1100757.122039795,-17222.11204469204,4417408.466339111,3522408.7238311768,7000494.003295898,924367.4278259277,980408.8473320007,-5423684.597015381,-3947472.095489502,-498726.39775276184,-14081901.550292969,5848974.227905273,-12618254.661560059,7061302.661895752,1163459.062576294,764279.0079116821,972496.2711334229,-14897792.81616211,-13711346.626281738,-15781069.7555542,-13267649.65057373,-14512471.199035645,-12733503.341674805,-1441851.1390686035,111017.34638214111,996850.0733375549,-13349646.56829834,-14191779.136657715,-12604332.92388916,-13946539.878845215,227149.39713478088,-75168.25199127197,-14054081.916809082,-12987018.585205078,-13092316.627502441
0.025,33796031.9519043,42268367.767333984,45396667.48046875,17495616.912841797,29672803.87878418,2663376.3313293457,3246794.4622039795,3631645.2026367188,10680787.086486816,10048504.829406738,15392313.003540039,15936479.568481445,16487335.205078125,1847306.1323165894,2045649.766921997,-2162941.9326782227,4328773.498535156,5735268.592834473,13763501.167297363,13738856.315612793,16079418.182373047,16817220.68786621,973601.3412475586,1810609.9367141724,-6884890.556335449,-1758106.7085266113,-144259.85515117645,-1121953.6066055298,-148606.7771911621,2199966.4306640625,573074.221611023,698863.685131073,-333322.58462905884,10742.593556642532,-6217497.3487854,-4025908.4701538086,-594449.1624832153,-14966628.074645996,3644667.387008667,-14283497.81036377,690286.3383293152,75516.43252372742,-410581.91657066345,-19964.132457971573,-15968278.884887695,-14658076.286315918,-17018091.201782227,-14960351.943969727,-16483867.645263672,-14599671.363830566,-2419997.453689575,-780620.5153465271,132943.71962547302,-14355808.25805664,-15719277.381896973,-14131217.956542969,-15556488.037109375,-640197.8731155396,-1066444.2777633667,-15028046.607971191,-14450304.985046387,-14468873.977661133
0.03,17326274.871826172,23313884.735107422,26963592.529296875,8114358.901977539,18173109.05456543,-3296630.859375,-2497475.1472473145,-2225214.4813537598,5946642.3988342285,4580861.0916137695,10916188.24005127,11347041.130065918,11644834.518432617,-9305515.28930664,-4053953.170776367,-8982110.023498535,941851.0794639587,4264521.598815918,9737841.606140137,9766852.378845215,12419075.965881348,12181137.084960938,-10197030.067443848,-4222595.691680908,-12761797.904968262,-5262208.461761475,-1632296.9198226929,-1285097.8374481201,-314268.02277565,-3075118.064880371,-6541771.88873291,-10494496.34552002,-6530213.832855225,-5925475.120544434,-9841036.796569824,-5293446.5408325195,-726926.6247749329,-18285238.26599121,-1471889.853477478,-21478679.656982422,-10540256.50024414,-6191568.374633789,-6494469.64263916,-5969944.953918457,-22086893.08166504,-20849922.18017578,-20909700.393676758,-22314186.096191406,-23966852.18811035,-22079389.572143555,-8846371.6506958,-7028395.175933838,-5956525.802612305,-20649839.401245117,-22964834.213256836,-21334205.627441406,-22737493.51501465,-7014211.177825928,-7284700.393676758,-21295341.49169922,-21492969.512939453,-21492095.947265625
0.035,3528993.1297302246,8103135.108947754,12346276.28326416,1370313.048362732,11024997.71118164,-9943549.156188965,-9074628.829956055,-8904071.807861328,3757700.9201049805,3560544.013977051,8890278.816223145,9050315.856933594,9087615.966796875,-17304853.439331055,-10752714.157104492,-15226795.196533203,-2704442.262649536,2776015.281677246,8241306.304931641,8302739.143371582,10726248.741149902,9758447.647094727,-18186038.970947266,-11019416.809082031,-18386814.11743164,-8707278.25164795,-3333257.6751708984,-1419470.4294204712,-542325.7350921631,-6229445.457458496,-10957317.352294922,-18336662.29248047,-13059791.564941406,-12409198.760986328,-12933975.219726562,-6482353.210449219,-904519.4983482361,-19684152.603149414,-4553416.728973389,-25463695.526123047,-18382152.557373047,-12849401.473999023,-12837559.700012207,-12360822.677612305,-25583202.362060547,-24534702.30102539,-22438844.680786133,-26356737.13684082,-27825460.43395996,-26092576.98059082,-15409171.104431152,-13651671.409606934,-12499405.860900879,-24448324.20349121,-26926708.221435547,-25356889.724731445,-26617845.53527832,-13675598.14453125,-13661937.713623047,-25065633.77380371,-25373331.06994629,-25486310.958862305
0.04,-8128754.615783691,-4223704.814910889,1009383.0823898315,-3938007.354736328,6784006.118774414,-11443140.029907227,-10809708.595275879,-10624886.512756348,2386394.500732422,3167081.594467163,7392231.9412231445,7398920.53604126,7366438.865661621,-18154893.87512207,-11866044.998168945,-15553852.081298828,-3998044.967651367,1320323.4672546387,7126341.819763184,7225990.772247314,9185035.705566406,7935660.362243652,-19112813.94958496,-11968891.143798828,-17231397.62878418,-7539454.460144043,-3258551.3591766357,-1430495.9774017334,-705610.990524292,-5089941.97845459,-9505414.962768555,-19113082.885742188,-13578766.822814941,-12942645.072937012,-10597830.772399902,-5037642.002105713,-977112.5316619873,-16608737.94555664,-3386258.840560913,-22233482.360839844,-19103759.765625,-13270657.539367676,-13083355.903625488,-12721451.759338379,-22497840.881347656,-21548011.779785156,-18970390.31982422,-23019290.924072266,-24298477.172851562,-22645223.61755371,-15635894.775390625,-14038393.9743042,-12926711.082458496,-21591205.596923828,-23642229.080200195,-22044124.603271484,-23391769.409179688,-13979760.16998291,-13842331.886291504,-22196243.286132812,-21999795.91369629,-22227008.819580078
0.045,-12602191.925048828,-9399014.472961426,-3122780.0846099854,-6412694.931030273,5340853.214263916,-7285769.462585449,-6974627.0179748535,-6720149.993896484,673784.9116325378,300157.3085784912,5676174.163818359,5807758.331298828,5976564.407348633,-13101209.64050293,-7287658.69140625,-10737739.562988281,-2577891.3497924805,320889.413356781,5273415.565490723,5612478.733062744,7355596.542358398,6330302.2384643555,-14212918.281555176,-7030579.566955566,-10766064.643859863,-2768817.901611328,-1824744.1053390503,-1427829.8616409302,-640354.6929359436,-1476061.3441467285,-4115263.9389038086,-14207067.489624023,-8608649.253845215,-7930341.2437438965,-4785636.425018311,-2083959.3410491943,-875326.39503479,-11858088.493347168,302406.1918258667,-16049358.367919922,-14144821.166992188,-8022616.386413574,-7877957.820892334,-7592382.907867432,-17009328.842163086,-16014322.280883789,-13849367.141723633,-16753211.975097656,-18042737.96081543,-16321180.34362793,-10466832.160949707,-8862957.000732422,-7752443.790435791,-16187658.309936523,-17740530.014038086,-15975872.039794922,-17642873.764038086,-8741838.455200195,-8753217.697143555,-16719984.05456543,-16019802.09350586,-16302074.432373047
0.05,-9108895.301818848,-6379425.048828125,798609.19713974,-4597218.5134887695,7347867.965698242,-2477340.2214050293,-2251376.3904571533,-2031538.2480621338,-47273.80350232124,-2616230.7262420654,5615643.02444458,5947031.021118164,6382929.32510376,-6213133.811950684,-2512634.754180908,-6505004.8828125,-831278.383731842,52252.55340337753,4562531.471252441,5320723.533630371,7147490.978240967,6651450.157165527,-7383472.442626953,-2119949.3408203125,-6362686.634063721,-216968.6108827591,-1584436.8934631348,-1541149.616241455,-372676.0447025299,1516443.0141448975,1055654.0489196777,-7460028.171539307,-3931528.091430664,-3293529.987335205,-2194663.0477905273,-1426927.4473190308,-732014.9540901184,-10011666.297912598,3332920.3128814697,-12673968.315124512,-7408490.180969238,-3241307.020187378,-3200208.4255218506,-2988661.289215088,-14792848.587036133,-13704670.906066895,-12081453.323364258,-13457358.360290527,-14764412.879943848,-13027544.021606445,-5915230.274200439,-4184261.7988586426,-2965571.641921997,-13946450.233459473,-14883461.952209473,-13075053.215026855,-14838031.768798828,-4098906.5170288086,-4362409.1148376465,-14259820.938110352,-13347634.315490723,-13680446.62475586
0.055,-3817912.1017456055,-767277.7771949768,6678864.002227783,-22362.35700547695,11160920.143127441,47171.179205179214,450472.891330719,537222.9218482971,1968260.2882385254,-1678551.9123077393,7852544.784545898,8246688.8427734375,8713575.36315918,-1858565.8073425293,-294503.8378238678,-5470353.126525879,-199052.1103143692,692684.2927932739,6212935.924530029,7169160.842895508,9209364.891052246,9061185.836791992,-2967697.6203918457,-62536.69410943985,-6515431.880950928,-1978944.4208145142,-3114556.5509796143,-1712025.8808135986,-132518.9769268036,2174677.1335601807,2939009.666442871,-3068845.272064209,-1817394.9718475342,-1387058.6156845093,-4339380.264282227,-3691681.8618774414,-684213.2806777954,-11610964.77508545,3908071.0411071777,-12559482.57446289,-3036727.6668548584,-1357874.2742538452,-1354069.471359253,-1200178.1463623047,-15497492.790222168,-14307966.232299805,-14012060.165405273,-13451115.608215332,-14607381.820678711,-12981821.060180664,-4025942.802429199,-2241932.8689575195,-969248.7120628357,-14504714.965820312,-14780910.49194336,-13148771.286010742,-14624700.546264648,-2235012.0544433594,-2603325.366973877,-14558894.157409668,-13627230.644226074,-13972375.869750977
0.06,-1780529.0222167969,2047703.9813995361,8481547.355651855,3757174.015045166,13518378.257751465,2195733.5472106934,2737971.067428589,2806009.292602539,5518115.043640137,1823228.7168502808,9536308.288574219,9931565.284729004,10209940.910339355,-1771062.731742859,1812435.0309371948,-4899085.04486084,288178.05647850037,1952251.5535354614,7910266.876220703,8562021.255493164,10861207.962036133,10605601.31072998,-2880463.3617401123,1994418.1442260742,-6590992.450714111,-3752429.485321045,-4099946.975708008,-1776649.4750976562,-104917.9881811142,1054135.799407959,1738850.5935668945,-2914737.7014160156,643222.8088378906,922533.8101387024,-5758769.0353393555,-5220957.279205322,-685457.4084281921,-12882867.813110352,2693167.4480438232,-12049163.818359375,-2822701.6925811768,838356.3160896301,807606.8162918091,1058759.6893310547,-14589235.305786133,-13280911.445617676,-15387324.333190918,-12900983.810424805,-13888808.250427246,-12316861.152648926,-1595253.4675598145,176989.48085308075,1312272.071838379,-13347620.010375977,-13466260.91003418,-11949223.518371582,-13201750.755310059,133538.9018058777,-107932.40368366241,-13325121.879577637,-12466623.306274414,-12680956.840515137
0.065,-2138827.085494995,1989722.1326828003,6687814.235687256,4384037.494659424,13125915.52734375,5394689.559936523,5794126.033782959,6059065.818786621,7008083.820343018,2618733.1676483154,8030658.721923828,8496760.368347168,8716923.713684082,-3367990.255355835,5309102.535247803,-2696638.822555542,1236905.4555892944,2678073.6446380615,6871822.834014893,7038786.888122559,9491291.999816895,9006165.504455566,-4593696.117401123,5792962.074279785,-3643993.616104126,-2029633.9988708496,-3146927.833557129,-1700957.0598602295,-244102.3588180542,83572.26848602295,572932.6605796814,-4558588.981628418,4703125.0,5120688.915252686,-2983305.6926727295,-3595377.9220581055,-630948.543548584,-10981664.657592773,1746207.1180343628,-9010066.986083984,-4384814.262390137,4983048.915863037,4811093.330383301,5325973.033905029,-10485861.778259277,-9130140.30456543,-13229436.874389648,-9745275.497436523,-10728802.680969238,-9087512.016296387,2672746.181488037,4492518.901824951,5443622.11227417,-9075698.852539062,-9613041.877746582,-7949814.319610596,-9378273.010253906,4442591.190338135,4431600.093841553,-9187668.800354004,-8419532.775878906,-8420178.413391113
0.07,-2729316.234588623,882596.6119766235,4909708.023071289,2285231.113433838,11554110.527038574,7421660.423278809,7513634.204864502,7963450.908660889,4867693.901062012,-974288.5231971741,4919534.206390381,5436322.212219238,5897184.371948242,-2753455.638885498,7541501.998901367,-944065.6304359436,1307955.8610916138,1870133.9960098267,4085809.7076416016,4176654.815673828,6418674.468994141,6049238.204956055,-3997953.6533355713,8376943.588256836,-1150002.5987625122,649537.9209518433,-1924922.4662780762,-1611096.0245132446,-382598.4299182892,467679.82840538025,1907573.2231140137,-3970296.621322632,7145507.8125,7827939.510345459,382893.9199447632,-978988.528251648,-570531.3682556152,-7477405.071258545,2190774.2023468018,-5037868.022918701,-3839353.084564209,7805701.25579834,7415859.222412109,8113110.542297363,-6300548.076629639,-5062454.700469971,-9422528.266906738,-5774064.064025879,-6834716.320037842,-5204560.279846191,5430287.3611450195,7307319.641113281,8263964.653015137,-4967229.36630249,-5719825.744628906,-3849677.562713623,-5532586.097717285,7291192.531585693,7420686.2449646,-5199145.793914795,-4353335.380554199,-4272133.350372314
0.075,-3198315.382003784,-162079.73659038544,4949518.68057251,244029.86466884613,11222093.58215332,6444722.1755981445,6385348.320007324,6739213.943481445,1973966.121673584,-4306614.398956299,4024226.188659668,4437905.311584473,5147592.067718506,272497.9519844055,6401278.972625732,-1772117.018699646,-273131.3705444336,298561.2750053406,3067019.462585449,3620067.596435547,5321253.776550293,5321730.136871338,-738697.0520019531,7227350.234985352,-2832529.067993164,128359.1091632843,-2415310.6212615967,-1598153.3527374268,-438257.3664188385,1315075.0398635864,4496339.797973633,-786138.8921737671,5693076.133728027,6367141.246795654,-293197.3338127136,-646155.059337616,-628517.1508789062,-6050911.426544189,2987680.673599243,-3043331.3846588135,-831353.8432121277,6587636.947631836,6043801.307678223,6638649.463653564,-5224780.082702637,-4150979.518890381,-7943657.875061035,-3892692.3274993896,-4983649.253845215,-3516960.620880127,4226655.960083008,6026536.94152832,7149778.842926025,-4084524.154663086,-4436751.365661621,-2528262.8536224365,-4110551.8341064453,6060566.425323486,6160890.579223633,-4263821.601867676,-3120233.7741851807,-3154179.334640503
0.08,-2555770.1587677,897090.3754234314,7254429.340362549,1046590.2090072632,13202569.007873535,4119041.4428710938,4204035.758972168,4273100.852966309,2079592.227935791,-2881982.5649261475,6176300.525665283,6440240.383148193,7088356.971740723,1914608.5977554321,3733759.641647339,-3785511.9705200195,-1943313.5986328125,-108087.1894955635,4891265.392303467,6024134.159088135,7294323.921203613,7441820.6214904785,1215863.7046813965,4202281.951904297,-7006224.155426025,-3184125.6618499756,-4058497.428894043,-1610071.5398788452,-433386.9516849518,848150.1936912537,5015604.9728393555,1090680.8376312256,2454026.222229004,2741225.481033325,-4104551.315307617,-2678260.564804077,-761265.6950950623,-8173310.279846191,2411567.449569702,-4589932.918548584,888588.2496833801,3147219.41947937,2615979.4330596924,2972417.3545837402,-7398213.863372803,-6322596.549987793,-10218681.335449219,-5480771.541595459,-6622841.835021973,-5208954.334259033,991441.4286613464,2621604.9194335938,3834805.965423584,-6301864.147186279,-6352612.9722595215,-4478330.135345459,-5761671.543121338,2646704.1969299316,2645998.954772949,-6384777.545928955,-5032009.124755859,-5194603.443145752
0.085,839318.573474884,5837723.731994629,11938535.690307617,4442964.07699585,16517257.690429688,2425204.5154571533,2797592.1630859375,2728158.712387085,4872722.148895264,1432364.2253875732,8447434.425354004,8736429.214477539,9153895.378112793,-337875.6046295166,1816739.797592163,-4869335.651397705,-2179336.3094329834,1178468.942642212,6989866.256713867,8439169.883728027,9694510.459899902,9650012.969970703,-925056.4575195312,1896324.0385055542,-10044731.140136719,-5673608.779907227,-5056487.083435059,-1559839.0102386475,-365149.70660209656,-1098673.2244491577,2523585.557937622,-1078622.3411560059,-35600.54674744606,-168111.35411262512,-7080724.716186523,-4815262.317657471,-773453.8912773132,-12039676.666259766,474046.11110687256,-9258213.04321289,-1321317.195892334,218280.8816432953,-152289.36076164246,139891.3711309433,-11437256.813049316,-10215188.980102539,-14241841.316223145,-10078228.950500488,-11346639.633178711,-9714311.599731445,-1802272.915840149,-238189.05651569366,917201.6978263855,-10243360.51940918,-10779413.223266602,-8880353.927612305,-10121585.845947266,-338451.5047073364,-353145.9867954254,-10396154.403686523,-9243243.217468262,-9381706.237792969
0.09,4785327.434539795,11299689.292907715,16306360.244750977,6842691.421508789,18783285.14099121,721773.6840248108,1311107.5162887573,1346553.087234497,6704701.4236450195,3357731.342315674,8537781.715393066,9025668.144226074,9406914.710998535,-4438123.2261657715,49521.23016119003,-5445342.063903809,-1804252.1476745605,2590310.3351593018,7131947.994232178,8641489.98260498,10069359.77935791,9843399.047851562,-5159229.755401611,-107170.32104730606,-11534915.924072266,-5772151.470184326,-4958156.585693359,-1440705.7762145996,-191422.9840040207,-2876709.222793579,-573712.6469612122,-5292338.3712768555,-2277868.2708740234,-2500038.6238098145,-7909576.892852783,-5701158.52355957,-589820.8022117615,-15040999.412536621,-1181130.5284500122,-15000186.920166016,-5506908.893585205,-2276967.0486450195,-2465974.5693206787,-2017933.8455200195,-16165491.104125977,-14885191.917419434,-17329931.259155273,-15802306.175231934,-17097406.3873291,-15263392.448425293,-4462832.450866699,-2807608.127593994,-1688392.996788025,-14986320.495605469,-16271249.771118164,-14459218.02520752,-15918012.619018555,-3063056.230545044,-2986809.9689483643,-15372770.309448242,-14666975.021362305,-14680553.436279297
0.095,4910456.18057251,11712531.089782715,16468778.610229492,6000476.837158203,18845603.942871094,-1647506.3562393188,-973366.0221099854,-832919.2996025085,6005745.410919189,1691976.9048690796,7743395.805358887,8376845.359802246,8933758.735656738,-6849597.454071045,-2393187.5228881836,-6438207.149505615,-2111281.633377075,2932152.509689331,6447474.002838135,7895109.176635742,9315859.7946167,9148970.603942871,-7781820.297241211,-2679699.420928955,-12813774.108886719,-4828019.142150879,-4563834.190368652,-1310340.166091919,31661.13793849945,-3553267.478942871,-2089220.0469970703,-7896057.12890625,-5049790.382385254,-5087744.235992432,-8051465.98815918,-5664948.463439941,-370450.2582550049,-16330162.048339844,-1822166.085243225,-19177894.592285156,-8052762.985229492,-4966886.9972229,-5102622.032165527,-4532516.002655029,-20160919.189453125,-18986436.84387207,-18648769.37866211,-20085071.563720703,-21177991.86706543,-19487180.709838867,-7488812.446594238,-5731090.545654297,-4535985.469818115,-19145622.25341797,-20545265.197753906,-19075973.510742188,-20613016.12854004,-5985024.452209473,-5884430.885314941,-19753627.77709961,-19287626.266479492,-19223716.735839844
0.1,2497917.890548706,8673358.917236328,13815905.570983887,4841295.24230957,18649768.829345703,-2769838.333129883,-2081628.5610198975,-2008520.1263427734,5319933.891296387,354846.92454338074,8510653.495788574,9099401.473999023,9715025.901794434,-7130486.488342285,-3729480.981826782,-6585553.169250488,-2299750.0896453857,3152500.867843628,7257388.591766357,8524243.354797363,9788342.475891113,9756210.327148438,-8207690.238952637,-4102481.3652038574,-13396573.066711426,-4019279.0031433105,-4331738.471984863,-1246379.9715042114,109358.32560062408,-4256510.7345581055,-2590660.333633423,-8362403.869628906,-6577849.388122559,-6514319.896697998,-8279874.801635742,-5440486.907958984,-320635.7955932617,-16924587.24975586,-2674051.284790039,-20477933.883666992,-8384601.593017578,-6327054.023742676,-6574519.634246826,-6092597.484588623,-21862056.732177734,-20789779.663085938,-19163309.09729004,-21448347.091674805,-22350912.09411621,-20969009.399414062,-9070394.515991211,-7316853.046417236,-6063935.279846191,-20879249.572753906,-21942119.598388672,-20757368.087768555,-22133277.893066406,-7354965.2099609375,-7425022.125244141,-21586824.417114258,-21031816.482543945,-20995492.935180664
0.105,3938196.6590881348,10063627.243041992,14458044.052124023,7511649.608612061,20557373.046875,-1143457.1743011475,-450366.7652606964,-471048.7425327301,7118794.4412231445,2256801.6052246094,10709722.518920898,11163395.881652832,11566676.139831543,-7690353.870391846,-2395940.5422210693,-4653637.409210205,-894837.6178741455,4647098.541259766,9479482.650756836,10462616.920471191,11691532.135009766,11636507.987976074,-8797601.699829102,-2813082.695007324,-12295565.605163574,-3188058.376312256,-4144279.4799804688,-1330119.1329956055,-92964.5374417305,-6220506.191253662,-3639896.6312408447,-9064439.77355957,-5420157.909393311,-5509516.23916626,-8201312.065124512,-5567206.382751465,-491646.55804634094,-18089750.289916992,-4833289.14642334,-20166213.989257812,-8878526.68762207,-5198291.301727295,-5582240.581512451,-5275681.495666504,-21501354.217529297,-20440469.74182129,-20121484.756469727,-21026233.673095703,-22096580.505371094,-20731716.15600586,-7963791.847229004,-6287896.633148193,-5092136.859893799,-20296464.920043945,-21458871.841430664,-20088548.66027832,-21404830.932617188,-6098316.192626953,-6372979.640960693,-21008211.135864258,-20344421.38671875,-20407861.709594727
0.11,8843363.761901855,16057928.085327148,18422479.6295166,11903053.283691406,22507413.864135742,914088.6664390564,1629458.6658477783,1660614.4905090332,9930147.171020508,5377249.717712402,11849872.589111328,12225787.162780762,12348443.031311035,-10256251.335144043,-466415.76290130615,-2542735.0997924805,1336012.840270996,6840770.721435547,10782975.196838379,11549385.070800781,12874833.106994629,12555842.399597168,-11269504.54711914,-892958.7006568909,-10882427.215576172,-2232318.162918091,-3925935.0299835205,-1564364.3140792847,-447445.1541900635,-8675310.134887695,-5416382.789611816,-11661107.063293457,-3682778.5968780518,-3954742.193222046,-7998741.149902344,-6235702.991485596,-798430.323600769,-20021230.697631836,-7391470.432281494,-20659151.077270508,-11316792.488098145,-3644644.4988250732,-4011120.7962036133,-3755193.7103271484,-21416244.506835938,-20411643.981933594,-21893522.262573242,-21363594.05517578,-22879844.665527344,-21188100.814819336,-6343941.688537598,-4758911.1328125,-3636295.795440674,-20033140.182495117,-21786216.735839844,-19941381.454467773,-21473463.05847168,-4611032.485961914,-4803474.426269531,-20708585.739135742,-20109445.571899414,-20291173.934936523
0.115,7384863.85345459,15691669.464111328,17035482.40661621,11106656.074523926,19819694.51904297,841.8809156864882,769782.9604148865,887073.6360549927,10593165.397644043,6221151.351928711,10547887.802124023,10912873.268127441,10899566.650390625,-14223408.699035645,-1163905.2629470825,-3205636.2628936768,2105282.5450897217,7839337.348937988,9845842.361450195,10584508.895874023,11920792.579650879,11095976.829528809,-15089431.762695312,-1579499.1254806519,-11340579.03289795,-1665421.485900879,-3654073.715209961,-1791365.385055542,-659644.1268920898,-9914233.207702637,-7200249.671936035,-15515359.878540039,-4383457.660675049,-4575741.291046143,-8350560.188293457,-6945776.462554932,-1108215.8088684082,-22028135.299682617,-8694094.65789795,-22872837.06665039,-15149501.80053711,-4430576.801300049,-4627158.164978027,-4274866.104125977,-23358551.025390625,-22506416.32080078,-23977979.66003418,-23574773.78845215,-25343910.217285156,-23412260.055541992,-7056111.3357543945,-5578268.051147461,-4459472.65625,-22120542.526245117,-24074821.47216797,-22083663.940429688,-23813882.82775879,-5781272.411346436,-5550541.877746582,-22748399.73449707,-22198051.45263672,-22441780.09033203
0.12,-5315997.123718262,3029963.254928589,5998295.307159424,3386636.0187530518,12720416.069030762,-3474507.3318481445,-2639214.515686035,-2603236.436843872,8731753.3493042,4555500.9841918945,8148708.343505859,8491140.365600586,8460728.645324707,-18011472.702026367,-4250386.2380981445,-6391870.498657227,795763.0157470703,6905857.086181641,7814280.033111572,8587152.481079102,9840538.024902344,8423485.75592041,-18839408.87451172,-4593280.31539917,-13393296.241760254,-1820091.3667678833,-3308187.72315979,-1802767.3959732056,-579760.9090805054,-9607230.186462402,-8736207.962036133,-19137872.69592285,-7092770.099639893,-6997094.15435791,-9141493.797302246,-6936709.880828857,-1255916.2378311157,-23331455.23071289,-8506780.624389648,-25352769.85168457,-18827430.725097656,-7047105.78918457,-7106146.812438965,-6650990.962982178,-26180784.225463867,-25370328.903198242,-25490118.0267334,-26180953.979492188,-27740196.228027344,-25943470.001220703,-9547107.696533203,-8192111.015319824,-7093708.515167236,-25233274.459838867,-26602281.57043457,-24960559.844970703,-26591272.354125977,-8765001.29699707,-8142971.038818359,-25821729.66003418,-25113241.19567871,-25287883.758544922
0.125,-18897981.643676758,-10936913.49029541,-5162552.356719971,-3797742.3667907715,8220845.2224731445,-5930141.448974609,-5068292.617797852,-5210396.766662598,6877386.569976807,2998635.768890381,6850166.797637939,7130798.816680908,7117887.020111084,-20350458.1451416,-6551186.561584473,-9017105.102539062,-939148.485660553,5157042.980194092,6566659.927368164,7244050.979614258,8560485.83984375,6896720.886230469,-21316215.51513672,-6720566.749572754,-15000131.607055664,-2649408.1020355225,-3319393.8732147217,-1588180.5419921875,-343714.05839920044,-8772566.795349121,-9741772.651672363,-21375501.63269043,-8823064.804077148,-8574277.877807617,-9854443.550109863,-6464227.676391602,-1110851.764678955,-23451850.89111328,-7782772.541046143,-26012321.47216797,-21120506.286621094,-8693457.60345459,-8782006.26373291,-8306278.228759766,-27207559.58557129,-26183761.596679688,-25648233.41369629,-26906454.08630371,-28058425.903320312,-26534820.556640625,-10963877.67791748,-9695094.108581543,-8688525.199890137,-26336853.02734375,-27002145.767211914,-25660194.396972656,-27062273.025512695,-10308950.424194336,-9733454.704284668,-26881046.295166016,-25951536.178588867,-25950338.36364746
0.13,-20254434.58557129,-11854467.391967773,-4897331.714630127,-3162395.0004577637,11250205.993652344,-5553938.865661621,-4730814.9337768555,-4875347.137451172,6690754.413604736,3148387.4320983887,7178335.666656494,7402925.01449585,7453979.969024658,-20634544.372558594,-6376138.687133789,-9346755.981445312,-1705429.4347763062,3977892.8756713867,6596962.451934814,7072688.102722168,8665150.64239502,7393912.315368652,-21743892.669677734,-6333464.1456604,-15366706.848144531,-3947106.5998077393,-4244195.938110352,-1362052.2022247314,-179501.84643268585,-8134738.922119141,-9447439.193725586,-21626529.693603516,-8322466.850280762,-8207448.0056762695,-10532823.56262207,-6644288.063049316,-732120.0370788574,-22374546.05102539,-7110348.224639893,-24431715.01159668,-21456026.077270508,-8240439.414978027,-8461715.698242188,-8009501.4572143555,-25534547.805786133,-24252647.399902344,-24374668.12133789,-25256988.525390625,-26265996.9329834,-24760231.018066406,-10246033.668518066,-8986503.601074219,-8012984.275817871,-24521804.809570312,-25058877.94494629,-23514881.134033203,-24883956.909179688,-9268438.339233398,-9131599.426269531,-24975225.4486084,-24003675.46081543,-23853582.38220215
0.135,-11503946.304321289,-1891912.6987457275,3817062.3779296875,2657360.076904297,17320859.909057617,-4011042.1180725098,-3253800.868988037,-3144190.3114318848,7188030.242919922,3967002.3918151855,7816122.055053711,8038866.996765137,8170142.17376709,-19391235.3515625,-5029576.301574707,-8519558.906555176,-1765764.594078064,3763808.9656829834,6980879.306793213,7332391.262054443,9150596.618652344,8505818.367004395,-20440460.205078125,-4847913.74206543,-15134056.091308594,-4903180.5992126465,-5490138.530731201,-1277232.050895691,-145924.44896697998,-7887699.604034424,-8078465.461730957,-20358072.28088379,-7077308.177947998,-7113670.349121094,-11111878.395080566,-7541491.508483887,-371022.3138332367,-20966377.25830078,-6700913.429260254,-22428077.697753906,-20328712.463378906,-7015245.43762207,-7324978.351593018,-6897889.614105225,-23142635.345458984,-21855485.916137695,-22801408.767700195,-23149293.899536133,-24415794.372558594,-22645135.8795166,-8895696.640014648,-7587647.914886475,-6497010.231018066,-22065933.227539062,-22905550.003051758,-20955989.837646484,-22466945.64819336,-7480422.496795654,-7733333.587646484,-22402217.864990234,-21554792.404174805,-21379528.045654297
0.14,-6157763.957977295,4416766.64352417,8106874.465942383,5264122.486114502,18386642.456054688,-3461638.4506225586,-2748852.014541626,-2362270.5936431885,6817317.008972168,3639110.0883483887,7423318.862915039,7702079.296112061,7801049.23248291,-18309333.80126953,-4350669.384002686,-8133272.171020508,-1870353.5795211792,4116041.1834716797,6748371.124267578,7121473.789215088,8887656.211853027,8345331.192016602,-19146215.438842773,-4153205.394744873,-14658662.796020508,-4476953.983306885,-5584830.760955811,-1252464.1752243042,-142798.17044734955,-8550785.064697266,-7609511.375427246,-19264007.568359375,-6694191.932678223,-6592565.536499023,-11014413.833618164,-7861299.991607666,-243190.36304950714,-20753082.275390625,-7232563.9724731445,-22347909.927368164,-19330562.591552734,-6453454.01763916,-6757039.546966553,-6397180.557250977,-22699319.83947754,-21619108.200073242,-22639410.0189209,-23025449.752807617,-24666624.069213867,-22663957.595825195,-8451534.271240234,-7083311.557769775,-5872277.736663818,-21739177.703857422,-22820192.337036133,-20844814.30053711,-22366769.790649414,-6868148.8037109375,-7158999.443054199,-22040763.85498047,-21298000.33569336,-21188852.310180664
0.145,-9126355.171203613,1934260.368347168,4585293.292999268,2556981.8019866943,14231792.449951172,-4277293.682098389,-3567680.597305298,-3129461.2884521484,5724948.883056641,1913702.9647827148,6234844.207763672,6592545.986175537,6543731.212615967,-18456483.840942383,-4954636.096954346,-8464927.673339844,-2222209.2151641846,4475353.240966797,5962723.731994629,6387956.619262695,7952759.742736816,6915112.495422363,-19193470.001220703,-4890260.696411133,-14362135.887145996,-3335227.2510528564,-4514029.026031494,-1191099.2860794067,-127663.29944133759,-10429317.474365234,-9230414.390563965,-19472318.649291992,-7578761.577606201,-7195542.335510254,-10829916.000366211,-7419414.99710083,-367900.6099700928,-22455467.224121094,-9101876.258850098,-24692268.37158203,-19479089.736938477,-7131868.362426758,-7402328.968048096,-7176273.345947266,-24879993.438720703,-23914361.95373535,-24477556.228637695,-25389530.181884766,-27169244.76623535,-25191492.080688477,-9378508.567810059,-7965725.421905518,-6795432.090759277,-23987852.096557617,-25138116.83654785,-23549806.594848633,-24819261.55090332,-7937044.620513916,-8055923.4619140625,-24392219.54345703,-23665346.145629883,-23655401.2298584
0.15,-10812003.135681152,1005511.7607116699,3743160.0093841553,1172378.0632019043,12772826.194763184,-5921423.435211182,-5153348.922729492,-4872739.315032959,5375134.468078613,545086.5030288696,5850389.9574279785,6268492.698669434,6164121.150970459,-18669158.935546875,-6795937.061309814,-9266447.067260742,-2850509.4051361084,4531884.19342041,5673421.859741211,6078983.783721924,7589174.270629883,6244885.9214782715,-19545755.38635254,-7075053.691864014,-15740633.010864258,-4028890.1329040527,-4409261.703491211,-1215196.3710784912,-196733.43002796173,-12402698.516845703,-11068195.343017578,-19824615.478515625,-9836323.738098145,-9484706.87866211,-12802035.331726074,-8209084.510803223,-664648.4732627869,-24938034.057617188,-11139014.24407959,-27623653.411865234,-19679340.362548828,-9502074.241638184,-9798027.992248535,-9658992.767333984,-28110511.779785156,-27029834.747314453,-27017105.102539062,-28391639.709472656,-30004917.14477539,-28194753.646850586,-11917787.551879883,-10459666.25213623,-9414254.188537598,-27052429.19921875,-28218914.031982422,-26933429.718017578,-27892374.03869629,-10653458.595275879,-10695893.287658691,-27592020.03479004,-26854074.478149414,-26996479.034423828
0.155,-3394442.319869995,9539586.067199707,12616548.538208008,6149671.0777282715,18479734.420776367,-7836852.073669434,-6942903.995513916,-6812232.01751709,6660276.412963867,1461936.593055725,7245028.972625732,7684080.123901367,7730612.754821777,-17314655.303955078,-9305822.372436523,-10315157.890319824,-3660191.774368286,4456675.5294799805,6640178.203582764,7001141.548156738,8666249.27520752,7734795.093536377,-18401592.254638672,-10096012.115478516,-19278757.095336914,-7376976.013183594,-6536434.173583984,-1478772.8786468506,-427154.21319007874,-12862732.887268066,-10519374.84741211,-18612419.12841797,-13052459.716796875,-13164993.286132812,-17329263.68713379,-11241427.421569824,-1065164.4468307495,-26328502.655029297,-11668737.411499023,-28975685.119628906,-18379999.1607666,-13160445.213317871,-13565401.077270508,-13310351.371765137,-30368978.50036621,-29113058.09020996,-28449800.491333008,-29864395.141601562,-31221691.131591797,-29466699.600219727,-15615849.494934082,-14058594.703674316,-13076668.739318848,-29027227.4017334,-30111509.323120117,-28755935.668945312,-29606384.27734375,-14336292.266845703,-14446184.158325195,-29608362.197875977,-28855514.526367188,-29198429.107666016
0.16,6132904.052734375,19246532.440185547,22363382.33947754,13060223.579406738,25354381.561279297,-8892973.899841309,-7890471.935272217,-7732961.177825928,8650409.698486328,3980557.2032928467,8928344.7265625,9356505.393981934,9568664.55078125,-15657074.928283691,-10777723.31237793,-10646781.921386719,-3837936.1629486084,4564200.401306152,7815585.613250732,8201167.106628418,9998208.999633789,9697304.725646973,-16789712.90588379,-11966705.322265625,-21993757.247924805,-9978631.019592285,-8831071.853637695,-1837870.0017929077,-731443.6435699463,-12032223.70147705,-8308203.69720459,-17007749.557495117,-15166372.299194336,-15711970.329284668,-20399200.439453125,-13721306.800842285,-1430804.2526245117,-26041233.06274414,-10894676.208496094,-28463106.155395508,-16783281.326293945,-15636079.788208008,-16158594.131469727,-15634542.465209961,-30752977.37121582,-29452877.044677734,-28249313.354492188,-29456455.23071289,-30672590.255737305,-28804222.106933594,-18124418.258666992,-16404960.632324219,-15478384.017944336,-29247220.993041992,-30147699.3560791,-28585769.653320312,-29565029.14428711,-16698560.71472168,-16832115.173339844,-29805297.8515625,-29036464.69116211,-29470664.978027344
0.165,5528801.918029785,16626161.575317383,19597412.109375,13749005.317687988,24390106.201171875,-7704943.656921387,-6755444.526672363,-6417336.940765381,9115740.776062012,4425995.349884033,7992178.440093994,8390392.303466797,8577206.6116333,-17007173.538208008,-9428815.841674805,-8969621.658325195,-2489987.373352051,4547326.08795166,6866734.027862549,7324230.194091797,9027056.694030762,8793351.173400879,-18002021.78955078,-10604364.395141602,-20099897.384643555,-7940357.685089111,-8351637.840270996,-1954849.362373352,-927274.1079330444,-11724216.46118164,-7640868.186950684,-18274087.90588379,-13784674.644470215,-14241989.135742188,-17695825.576782227,-11981962.203979492,-1519983.7684631348,-24867904.663085938,-10605199.813842773,-27257745.74279785,-18060735.70251465,-14211066.246032715,-14712207.794189453,-14053003.311157227,-29377035.14099121,-28133718.490600586,-27030927.658081055,-28228113.174438477,-29399917.602539062,-27456933.975219727,-16744461.059570312,-14914431.57196045,-14137673.377990723,-27904663.0859375,-28817384.719848633,-27229518.89038086,-28408620.834350586,-15256874.084472656,-15297995.567321777,-28490209.579467773,-27787897.10998535,-28036642.07458496
0.17,-4935947.418212891,2306049.346923828,5230827.331542969,7487886.905670166,15382760.047912598,-4506687.641143799,-3791439.5332336426,-3286959.8865509033,6786930.084228516,153809.5474243164,3760043.3826446533,4101468.563079834,4201598.644256592,-21654956.817626953,-5777551.174163818,-5677243.232727051,-228308.88628959656,3672593.832015991,3107996.2253570557,3565595.3884124756,5050592.89932251,4372092.723846436,-22515499.114990234,-6590686.321258545,-14414697.647094727,-2549303.0548095703,-5528869.152069092,-1744131.088256836,-918366.3725852966,-12480746.269226074,-9341244.6975708,-22740159.98840332,-9399200.439453125,-9368646.621704102,-10978997.230529785,-6904733.657836914,-1249327.0635604858,-23378551.483154297,-11323608.3984375,-25984672.54638672,-22522882.46154785,-9539058.685302734,-9812486.64855957,-9336292.266845703,-26739120.483398438,-25500776.290893555,-25246610.641479492,-26788064.95666504,-27913970.947265625,-26108234.405517578,-11959321.022033691,-10218590.73638916,-9560050.010681152,-25381843.56689453,-26717594.146728516,-25264125.82397461,-26536861.419677734,-10563247.680664062,-10558901.7868042,-26060565.948486328,-25564161.30065918,-25454143.524169922
0.175,-11847693.44329834,-8206624.0310668945,-5208662.986755371,2222431.421279907,7814862.7281188965,-1548049.0922927856,-1058115.4823303223,-541680.9320449829,3317571.4015960693,-6108128.070831299,-371710.6282711029,-106346.36133909225,112634.20432806015,-25038980.48400879,-2640983.1047058105,-3232960.4625701904,947480.9169769287,2079292.7742004395,-664373.3382225037,-315076.88760757446,1136346.936225891,214584.24627780914,-25915328.979492188,-3151766.538619995,-10364463.806152344,535837.1734619141,-3924980.640411377,-1478295.2070236206,-753426.8498420715,-12571487.426757812,-10451602.935791016,-25981235.50415039,-5603672.981262207,-5267168.998718262,-7116313.457489014,-3772614.7174835205,-887234.5089912415,-21355255.126953125,-11382130.62286377,-24274412.155151367,-25819694.51904297,-5601356.029510498,-5608878.135681152,-5427324.7718811035,-23751491.54663086,-22407325.744628906,-22958915.71044922,-24895502.0904541,-26033512.115478516,-24434949.87487793,-7718777.656555176,-6225963.115692139,-5457634.925842285,-22417566.299438477,-24278388.97705078,-22919178.009033203,-24136198.043823242,-6402181.148529053,-6529381.275177002,-23173295.974731445,-22885816.57409668,-22600563.049316406
0.18,-6532148.838043213,-3790582.6568603516,-735405.8623313904,4020107.2692871094,9632293.701171875,-815581.202507019,-348451.1375427246,59667.155146598816,1941387.5341415405,-8382576.942443848,-368284.1658592224,-141626.4921426773,339289.51621055603,-23386610.03112793,-2131839.0369415283,-3600271.701812744,-97013.46606016159,1030001.7595291138,-886416.0180091858,-620598.9122390747,1115776.6580581665,448279.11257743835,-24369356.155395508,-2665372.371673584,-11527335.166931152,-1712118.38722229,-5560099.124908447,-1378531.4559936523,-532736.1226081848,-10693439.483642578,-8760140.419006348,-24352216.720581055,-5152834.415435791,-4994550.2281188965,-9733003.616333008,-5782973.766326904,-753210.5445861816,-18894639.96887207,-9563912.391662598,-22199661.254882812,-24287185.668945312,-5249655.246734619,-5233224.868774414,-5091881.75201416,-21723680.49621582,-20265850.067138672,-20610158.920288086,-22756565.09399414,-24082124.710083008,-22470329.28466797,-7168462.753295898,-5838607.7880859375,-4832773.685455322,-20253080.368041992,-22227628.707885742,-20879215.240478516,-21989810.943603516,-5762735.366821289,-6083596.229553223,-21028694.15283203,-20745319.366455078,-20667657.85217285
0.185,2220222.234725952,7470693.588256836,10719068.52722168,8660106.658935547,17577661.514282227,-2288240.671157837,-1687946.6772079468,-1352821.4693069458,3473589.6587371826,-4850338.459014893,3300282.9551696777,3559291.6011810303,4073338.031768799,-19617282.86743164,-3806083.6791992188,-6165698.051452637,-2393463.134765625,1153259.7541809082,2210189.5809173584,2551014.184951782,4629602.909088135,4242167.949676514,-20622795.10498047,-4475705.623626709,-15529137.61138916,-6069653.511047363,-8372602.462768555,-1320306.658744812,-312465.6081199646,-8250694.274902344,-6394893.169403076,-20723043.44177246,-7197127.342224121,-7382870.197296143,-14686686.515808105,-9866725.92163086,-783151.388168335,-16981153.48815918,-7244059.5626831055,-20913806.915283203,-20649517.059326172,-7396836.280822754,-7628026.962280273,-7237778.663635254,-21466621.39892578,-20053585.052490234,-19006050.10986328,-21521358.489990234,-23078233.71887207,-21243711.471557617,-9437479.019165039,-8048507.6904296875,-6994725.227355957,-19851917.266845703,-21456308.364868164,-20142631.53076172,-21218755.7220459,-7884093.761444092,-8267867.088317871,-20599695.205688477,-20125877.380371094,-20380872.72644043
0.19,-711032.2117805481,8300787.925720215,12152936.935424805,7441550.731658936,21392108.917236328,-4725100.994110107,-4035155.773162842,-3678418.1594848633,5075655.937194824,-450249.3143081665,6028286.933898926,6316097.736358643,6490059.375762939,-19826438.903808594,-6046203.61328125,-8845337.867736816,-4322413.444519043,1382136.583328247,4668672.561645508,5156327.247619629,7259256.839752197,6709742.546081543,-20720029.830932617,-6581504.821777344,-17786493.3013916,-7697641.372680664,-9200156.211853027,-1101019.024848938,-102335.33382415771,-7605003.356933594,-6682155.609130859,-20993690.490722656,-9222069.74029541,-9449121.475219727,-15830907.821655273,-10816079.139709473,-655252.1586418152,-16520811.080932617,-6663654.327392578,-21348976.135253906,-20760677.337646484,-9363791.465759277,-9800117.492675781,-9208519.93560791,-22581277.84729004,-21414520.263671875,-18527767.181396484,-22017509.46044922,-23533550.262451172,-21636047.36328125,-11599281.311035156,-10088211.059570312,-9264647.483825684,-21067449.56970215,-22207304.000854492,-20981153.48815918,-22110225.677490234,-10096588.134765625,-10412469.863891602,-21728599.548339844,-21089252.471923828,-21386089.324951172
0.195,-14870958.32824707,-4303657.531738281,106176.52535438538,-1076.6183258965611,16880350.11291504,-7000957.96585083,-6324289.321899414,-5972070.217132568,4149641.0369873047,-370797.2466945648,4976750.85067749,5184319.496154785,4977924.823760986,-24364728.927612305,-7902044.773101807,-10310053.825378418,-5360890.3884887695,633240.6997680664,3896924.4956970215,4376140.117645264,6185415.744781494,5199965.000152588,-25168142.318725586,-8028918.266296387,-17210952.758789062,-6141586.3037109375,-7826031.20803833,-828325.6888389587,64475.29047727585,-8963479.042053223,-9042644.500732422,-25432962.41760254,-10277843.475341797,-10230587.005615234,-12918605.80444336,-8105908.393859863,-348978.99627685547,-17505182.26623535,-7993182.65914917,-23146795.27282715,-25054334.64050293,-10332339.2868042,-10668514.251708984,-10149834.632873535,-24216199.87487793,-23312671.661376953,-19088081.35986328,-23823789.596557617,-24994440.07873535,-23391071.319580078,-12485995.292663574,-10986039.161682129,-10421128.273010254,-23049274.444580078,-23976453.78112793,-22802001.953125,-23979328.155517578,-11257839.20288086,-11526831.62689209,-23590696.334838867,-22939062.118530273,-22976697.92175293
0.2,-22068044.662475586,-13454881.66809082,-9831689.834594727,-4077964.3058776855,10883179.664611816,-7939473.628997803,-7244934.08203125,-7027937.412261963,1904675.2452850342,-3590689.182281494,2331828.1173706055,2391781.5685272217,2159049.9877929688,-26763229.370117188,-8690437.316894531,-10201178.550720215,-5717417.7169799805,-343076.7059326172,1650974.5121002197,1925746.6793060303,3530558.5861206055,2312655.6873321533,-27647296.905517578,-8565102.577209473,-15878622.055053711,-4572201.251983643,-6682561.39755249,-797584.8317146301,95447.15285301208,-10455450.057983398,-9749814.0335083,-27725307.46459961,-10731354.713439941,-10493120.193481445,-10734796.524047852,-6037107.467651367,-257738.44122886658,-19236574.172973633,-9437082.290649414,-25153223.037719727,-27374288.55895996,-10858756.065368652,-10939655.303955078,-10611095.428466797,-25945388.793945312,-25073646.545410156,-20521795.27282715,-25827970.504760742,-26730573.654174805,-25444614.41040039,-12803288.459777832,-11368885.040283203,-10867028.23638916,-25007965.087890625,-26032896.041870117,-24836385.72692871,-25984861.373901367,-11782267.570495605,-12068263.053894043,-25529546.7376709,-24944763.18359375,-24846452.713012695
0.205,-10556212.425231934,-5232914.447784424,-4148373.603820801,1424303.8892745972,11119263.648986816,-6312569.141387939,-5499522.686004639,-5445495.128631592,1123967.6475524902,-5716988.086700439,1351406.5742492676,1381235.8379364014,1435035.4671478271,-23077257.15637207,-7333945.274353027,-8208012.580871582,-5152544.4984436035,-121009.34237241745,720305.9196472168,831109.5833778381,2590646.266937256,1489644.7658538818,-24117593.76525879,-7455463.886260986,-14603350.639343262,-4529405.59387207,-7234997.272491455,-1056437.373161316,-89216.9326543808,-10913011.55090332,-7465738.296508789,-24090847.01538086,-10124915.12298584,-10029414.176940918,-11653314.590454102,-7375866.889953613,-620579.1234970093,-20755447.387695312,-9853051.18560791,-26319866.180419922,-23884218.215942383,-10444540.023803711,-10456515.312194824,-10209524.154663086,-27254283.905029297,-26187227.249145508,-22217603.68347168,-27048597.33581543,-28050500.869750977,-26661182.403564453,-12501606.941223145,-10985603.332519531,-10395985.60333252,-26139316.55883789,-27489816.665649414,-26274135.58959961,-27337310.791015625,-11397443.771362305,-11646978.378295898,-26815444.946289062,-26313623.428344727,-26459003.448486328
0.21,6795414.924621582,10262639.045715332,8961627.960205078,9639945.983886719,15132654.190063477,-2482729.911804199,-1590770.8406448364,-1548534.3933105469,1711826.6820907593,-6010390.758514404,1515628.2186508179,1712113.380432129,1996838.927268982,-17904174.8046875,-3820548.5343933105,-4572735.30960083,-3380625.4863739014,992829.7400474548,709100.0080108643,885403.573513031,2913644.313812256,2041734.6954345703,-18945053.100585938,-4506315.231323242,-12159934.997558594,-4382626.056671143,-8325692.176818848,-1337490.0817871094,-422008.30578804016,-11019519.805908203,-5110179.424285889,-19057336.807250977,-7664742.469787598,-7854125.499725342,-12941617.012023926,-9773838.04321289,-1131288.6476516724,-21107385.635375977,-9866996.765136719,-26046541.213989258,-18953731.536865234,-8087491.989135742,-8262384.414672852,-8039430.618286133,-27072902.67944336,-25868692.39807129,-22859325.408935547,-26862262.725830078,-28127744.674682617,-26299306.869506836,-10574521.0647583,-8875337.600708008,-8192770.004272461,-25585979.461669922,-27333358.764648438,-26168539.04724121,-27135314.94140625,-9251338.958740234,-9363164.901733398,-26407510.75744629,-26079551.696777344,-26553880.69152832
0.215,8403492.92755127,11583387.37487793,10482086.181640625,9633616.44744873,14588470.458984375,791712.9993438721,1570587.8734588623,1745692.7299499512,1329715.7287597656,-7341175.556182861,232230.20136356354,603967.0705795288,870417.2968864441,-17686687.469482422,-557999.6109008789,-1190376.4009475708,-1218926.191329956,1411670.9232330322,-536473.3338356018,-197653.21910381317,1797256.588935852,1057315.5879974365,-18531246.185302734,-1603369.4744110107,-8798423.767089844,-2863407.850265503,-8195140.838623047,-1436889.0523910522,-687072.5750923157,-11638728.141784668,-5495498.180389404,-18864849.090576172,-4623187.54196167,-4909020.900726318,-11860618.591308594,-9624475.479125977,-1336866.9748306274,-20186433.792114258,-10371146.202087402,-24598245.62072754,-18787376.403808594,-4954582.214355469,-5248394.48928833,-5134872.4365234375,-25157611.846923828,-24065452.575683594,-21854766.845703125,-25402460.0982666,-26743623.733520508,-24650766.372680664,-7654419.422149658,-5936288.356781006,-5198472.023010254,-23556596.755981445,-25504699.70703125,-24405776.977539062,-25278724.670410156,-6272031.307220459,-6303490.161895752,-24250633.239746094,-24203134.536743164,-24658737.182617188
0.22,-5714525.22277832,-2898360.7292175293,-1728850.7223129272,2240288.257598877,8873912.811279297,1082112.193107605,1633161.5447998047,1921758.6517333984,75357.8171133995,-9788141.250610352,-2006769.6571350098,-1706426.3820648193,-1537079.5726776123,-21292253.494262695,-134062.23058700562,-155669.01862621307,35567.45871901512,1039996.6239929199,-2503149.7478485107,-2156108.3793640137,-497663.82575035095,-1181070.4469680786,-21948474.884033203,-1051568.0313110352,-7069394.588470459,-1213599.443435669,-6773509.502410889,-1430916.3093566895,-725870.668888092,-12391129.493713379,-7512156.4865112305,-22327314.376831055,-3653665.30418396,-3799908.399581909,-9731463.432312012,-7129703.044891357,-1211645.6031799316,-19356086.73095703,-11130240.440368652,-23340921.40197754,-22271432.876586914,-3809567.928314209,-4023221.015930176,-4000586.986541748,-23302331.924438477,-22399444.580078125,-20716575.622558594,-23931995.391845703,-25183609.008789062,-23253778.4576416,-6240804.195404053,-4748587.608337402,-3977808.952331543,-21912128.448486328,-23684665.67993164,-22560655.59387207,-23364255.905151367,-4967724.800109863,-5144745.349884033,-22252040.86303711,-22390108.108520508,-22525054.931640625
0.225,-13865638.732910156,-11707682.609558105,-9509800.910949707,-996820.2710151672,6874199.390411377,-458216.99500083923,-35795.360803604126,283885.4789733887,1007130.2652359009,-9226173.400878906,-1723533.7495803833,-1730551.7196655273,-1501791.4772033691,-22145912.170410156,-1751316.1897659302,-912859.4398498535,362488.44861984253,1685123.2051849365,-2129574.5372772217,-1939595.8185195923,-534793.3173179626,-1147809.0286254883,-22775386.810302734,-2298951.6258239746,-7833803.653717041,-776182.234287262,-5291644.096374512,-1444974.3032455444,-615879.8336982727,-12502473.831176758,-8229124.069213867,-23019927.978515625,-4977412.223815918,-4971340.179443359,-9023313.522338867,-5381206.035614014,-1071700.4537582397,-20119268.4173584,-11395181.655883789,-23523750.30517578,-22996824.264526367,-5050521.373748779,-5158166.408538818,-4996120.929718018,-23437404.63256836,-22523527.145385742,-21464466.094970703,-23793491.36352539,-25054327.0111084,-23459686.279296875,-7150399.208068848,-5883479.595184326,-5116022.58682251,-22211694.717407227,-23640220.642089844,-22386833.19091797,-23199501.037597656,-5914336.204528809,-6388541.698455811,-22333044.052124023,-22362045.288085938,-22310699.462890625
0.23,-4528341.770172119,-1795950.0551223755,-1389144.0629959106,5108023.166656494,13532658.576965332,-482836.36569976807,-20141.078159213066,340831.4883708954,5038385.391235352,-3788934.4692230225,2125223.159790039,1877033.8296890259,2319342.1363830566,-18087825.775146484,-2019110.918045044,-704069.0183639526,918447.9713439941,4117487.4305725098,1465026.9746780396,1528555.3932189941,2986880.302429199,2471010.684967041,-18790410.9954834,-2405539.5126342773,-8331602.096557617,-744691.8487548828,-4575071.811676025,-1425760.3883743286,-557580.9478759766,-12122732.162475586,-7038230.895996094,-18941694.259643555,-5622465.133666992,-5625766.754150391,-9352190.971374512,-5816733.837127686,-1068471.908569336,-22063302.993774414,-11120537.757873535,-24658256.53076172,-18923574.447631836,-5766890.525817871,-5923802.852630615,-5476424.694061279,-24907367.706298828,-23799219.131469727,-23737016.677856445,-24771179.19921875,-26132625.579833984,-24743938.446044922,-7937480.449676514,-6651724.815368652,-5925117.492675781,-23564432.14416504,-24922389.98413086,-23531904.220581055,-24438110.3515625,-6589165.210723877,-7243462.085723877,-23815011.978149414,-23544830.322265625,-23645929.33654785
0.235,7267504.692077637,12093319.8928833,10528900.146484375,11772615.432739258,21556766.510009766,1768376.4696121216,2303557.872772217,2751832.0083618164,8299188.613891602,1964649.7964859009,5822537.899017334,5663913.726806641,6278252.601623535,-13800058.364868164,182478.97922992706,1374272.346496582,1849186.5396499634,6243300.437927246,4920493.125915527,4966566.08581543,6622943.40133667,6221925.258636475,-14594249.725341797,-382549.911737442,-6392529.487609863,-33337.71601319313,-4674165.24887085,-1301651.3586044312,-610009.9682807922,-11985646.24786377,-5728803.634643555,-14790890.69366455,-3834462.4042510986,-3979544.162750244,-9117045.402526855,-7062878.131866455,-1077087.9983901978,-23150186.53869629,-10882979.393005371,-25092464.447021484,-14777476.31072998,-4118479.7286987305,-4382158.7562561035,-3842950.8209228516,-25401254.653930664,-24172378.540039062,-25024282.455444336,-25396673.20251465,-26676881.790161133,-25389802.932739258,-6604199.409484863,-5117468.357086182,-4426488.876342773,-23855398.178100586,-25554225.92163086,-24102344.512939453,-25097400.665283203,-5199065.685272217,-5742523.670196533,-24377418.518066406,-23924524.307250977,-24274515.15197754
0.24,5878664.016723633,12230119.705200195,11284873.008728027,10610032.081604004,22398134.231567383,3485843.4200286865,4015215.8737182617,4498178.958892822,7179243.087768555,2633442.6403045654,5782152.17590332,5993833.065032959,6603042.6025390625,-12761753.08227539,2076905.2505493164,2913450.7179260254,1718746.9005584717,5619728.088378906,4904797.554016113,4943276.405334473,6752920.150756836,6554892.063140869,-13710419.654846191,1227874.755859375,-4196049.690246582,350301.02729797363,-5603857.040405273,-1214354.395866394,-649241.4474487305,-12152791.976928711,-5175631.999969482,-13947444.915771484,-1941607.5944900513,-2278315.0672912598,-9094882.96508789,-7865815.63949585,-1036150.5746841431,-22406734.466552734,-10854538.917541504,-24431531.90612793,-13990664.4821167,-2325262.7849578857,-2573949.5754241943,-2256459.2361450195,-24537780.76171875,-23375953.674316406,-24119062.423706055,-25124893.188476562,-26110872.268676758,-24946994.78149414,-4929265.022277832,-3309881.6871643066,-2624022.4838256836,-22965751.64794922,-25048538.208007812,-23597196.578979492,-24585618.97277832,-3663886.070251465,-3898173.5706329346,-23583810.806274414,-23178285.598754883,-23622411.727905273
0.245,4484653.949737549,10145056.72454834,10277875.900268555,8811761.856079102,20715538.024902344,3235327.0053863525,3768841.26663208,4203058.71963501,4380846.02355957,-263254.8213005066,3759706.497192383,4340003.967285156,4835165.500640869,-11953448.295593262,1789642.572402954,2598953.2470703125,381174.32594299316,3189093.1129455566,2843678.2360076904,2855933.904647827,4838316.440582275,5038852.214813232,-13114782.333374023,694454.9083709717,-4618034.362792969,-672735.3930473328,-7066746.234893799,-1359418.7498092651,-589451.014995575,-11977370.262145996,-4278795.7191467285,-13261096.000671387,-2416638.8511657715,-2990883.5887908936,-10773638.725280762,-8441745.75805664,-1069855.5707931519,-21227659.225463867,-10604408.264160156,-24193365.0970459,-13352077.48413086,-2877353.1913757324,-3029417.9916381836,-2969189.405441284,-24434747.69592285,-23403842.92602539,-22753187.17956543,-25098737.716674805,-25920919.41833496,-24829528.80859375,-5402172.565460205,-3855728.8646698,-3157471.6567993164,-22995777.130126953,-25094114.303588867,-23655775.07019043,-24562053.680419922,-4337759.971618652,-4306002.140045166,-23506971.35925293,-23192506.790161133,-23637985.229492188
0.25,30294208.526611328,34214424.13330078,31098047.256469727,21005580.90209961,29566612.243652344,4036557.197570801,4740960.121154785,5182359.218597412,6589481.353759766,228205.29341697693,4830048.084259033,5556838.512420654,6034547.328948975,-7268957.614898682,2042963.7432098389,3610237.3600006104,768429.696559906,2801916.8376922607,3381645.441055298,3452864.408493042,5719654.560089111,6525556.0874938965,-8522825.241088867,521859.5266342163,-5902331.352233887,-1281872.034072876,-7743540.287017822,-1649152.8749465942,-506920.4568862915,-11300817.489624023,-2460119.2474365234,-8533116.340637207,-3319206.714630127,-4169846.0578918457,-12479412.078857422,-8740203.857421875,-1209907.6509475708,-21453754.425048828,-10020297.050476074,-25692464.82849121,-8562414.169311523,-3965104.341506958,-4107675.075531006,-4042851.448059082,-26413663.864135742,-25458576.202392578,-23102926.25427246,-26424570.083618164,-27454782.485961914,-26261007.30895996,-6599414.825439453,-5248825.550079346,-4526562.213897705,-25124071.12121582,-26945238.11340332,-25540513.99230957,-26385765.075683594,-5625481.605529785,-5526942.253112793,-25536512.37487793,-25198579.788208008,-25673482.89489746
0.255,82441177.36816406,85848114.01367188,75091300.96435547,47157527.923583984,51213466.64428711,8513877.868652344,9539579.391479492,10132019.04296875,15662652.969360352,7216517.448425293,10710742.950439453,11369611.740112305,12059705.73425293,-621398.5085487366,5742866.516113281,8993342.399597168,5256631.374359131,6471268.177032471,8434277.534484863,8646392.822265625,11153059.959411621,12601665.496826172,-1741031.7659378052,3432703.0181884766,-4407031.059265137,929181.0393333435,-6472737.3123168945,-1741255.8794021606,-475863.7547492981,-10840192.794799805,-1232177.972793579,-1693478.5842895508,-1436743.7362670898,-2501800.298690796,-11348526.954650879,-7963762.283325195,-1265490.7703399658,-23036966.32385254,-9720532.417297363,-28341342.92602539,-1625177.7410507202,-2412475.109100342,-2645298.480987549,-2369312.286376953,-29181367.874145508,-28255247.116088867,-24952108.38317871,-28702323.91357422,-30102760.314941406,-28727384.567260742,-5437610.149383545,-4231630.325317383,-3484487.771987915,-28033124.923706055,-29698036.193847656,-28386152.267456055,-29248123.168945312,-4491926.670074463,-4484942.436218262,-28474117.279052734,-28094266.891479492,-28523746.490478516
0.26,123183807.37304688,127725563.0493164,111408164.97802734,67654052.734375,70599502.56347656,12809104.919433594,14099629.402160645,14838997.840881348,24875038.146972656,15404424.667358398,17339973.44970703,17881536.48376465,18882440.5670166,2126685.14251709,9525823.593139648,14789331.436157227,10782088.279724121,11333140.37322998,14610681.533813477,14863511.085510254,17338075.637817383,19178184.509277344,1193049.1924285889,6434741.020202637,-1949496.7460632324,3999179.8400878906,-4447187.900543213,-1440514.9221420288,-405099.5707511902,-11101436.614990234,-2161256.3133239746,1260466.5756225586,1103305.697441101,-23856.880143284798,-9024518.966674805,-6769888.401031494,-1088376.4028549194,-24477476.119995117,-10149130.821228027,-30678754.806518555,1269187.2119903564,-137492.06066131592,-425492.67411231995,-16754.649579524994,-31140375.1373291,-30207853.317260742,-26447227.478027344,-30838886.260986328,-32380756.378173828,-30964342.11730957,-3466984.748840332,-2243952.512741089,-1520742.7740097046,-30124675.750732422,-31881349.563598633,-30690315.24658203,-31633140.563964844,-2600503.2062530518,-2687509.536743164,-30650703.43017578,-30333185.19592285,-30531629.56237793
0.265,118298713.68408203,124306701.66015625,110205307.00683594,64072082.51953125,71528778.07617188,9678469.65789795,11010333.061218262,11698625.564575195,25681735.99243164,17189081.1920166,19461320.877075195,19970249.17602539,21045866.012573242,-1507440.686225891,6332664.966583252,12593236.923217773,10730189.323425293,12466895.10345459,16991140.365600586,17111467.361450195,19313707.35168457,21056072.235107422,-2413842.4396514893,3166906.1183929443,-5074829.1015625,2676298.141479492,-4605988.9793396,-953246.8318939209,-186411.7980003357,-11650105.476379395,-4641675.94909668,-2277671.0987091064,-1885387.0630264282,-2964404.582977295,-10850127.220153809,-7585023.403167725,-812070.4889297485,-25018047.332763672,-10847613.334655762,-32201160.430908203,-2495043.992996216,-3045853.1379699707,-3314854.860305786,-2997463.9415740967,-32670963.287353516,-31682456.970214844,-26824207.305908203,-32477554.321289062,-33810016.63208008,-32544593.811035156,-6321778.774261475,-4948248.863220215,-4307868.003845215,-31681461.334228516,-33413524.627685547,-32283561.70654297,-33336196.899414062,-5512941.360473633,-5593067.646026611,-32262931.82373047,-31983598.709106445,-31949007.034301758
0.27,74666793.82324219,81782157.89794922,75670051.57470703,39555160.52246094,54571720.123291016,-1741291.1653518677,-555739.0451431274,-66569.82749700546,16959106.4453125,11263425.827026367,16025541.305541992,16572320.938110352,17306320.190429688,-8556580.543518066,-4788447.380065918,370659.08312797546,2918594.8371887207,8412161.827087402,14209357.261657715,14241593.360900879,16159843.444824219,17295289.993286133,-9512034.41619873,-7126645.088195801,-15361473.083496094,-4292705.535888672,-7863019.943237305,-694881.9160461426,54623.3169734478,-12006162.643432617,-6943046.569824219,-9315086.364746094,-11587590.217590332,-12582606.315612793,-17874523.162841797,-11045714.378356934,-703177.0348548889,-25312469.482421875,-11253921.508789062,-33237442.016601562,-9702910.423278809,-12312064.170837402,-12582440.376281738,-12466555.59539795,-34606590.270996094,-33591648.10180664,-26994619.369506836,-33759838.10424805,-34746517.181396484,-33663581.84814453,-15338000.297546387,-13821330.070495605,-13208745.956420898,-33517734.52758789,-34807098.388671875,-33662269.592285156,-34809181.213378906,-14426186.561584473,-14434937.477111816,-34123481.75048828,-33662387.84790039,-33662227.630615234
0.275,28944843.292236328,37294586.181640625,37914253.23486328,14001367.568969727,34525104.52270508,-13273163.795471191,-12281883.239746094,-11915063.858032227,5565617.084503174,2984564.0659332275,10145826.33972168,10692958.83178711,10930141.44897461,-14968279.838562012,-15754762.649536133,-13426350.593566895,-6960190.296173096,2547899.2462158203,8883665.084838867,9109107.971191406,10824618.339538574,11106265.0680542,-15845518.112182617,-16996665.954589844,-25358213.424682617,-11397617.34008789,-11493275.64239502,-910009.9802017212,31487.81880736351,-12587141.990661621,-8520070.07598877,-15687636.375427246,-20832025.5279541,-21658035.278320312,-23971845.626831055,-14111263.275146484,-868907.7496528625,-25900688.17138672,-11734942.436218262,-33704132.080078125,-16071695.327758789,-21084501.266479492,-21398187.6373291,-21401319.50378418,-35919910.4309082,-35017963.40942383,-27584314.346313477,-34349678.03955078,-35142379.76074219,-34096336.364746094,-23897094.7265625,-22377471.923828125,-21620643.615722656,-34776763.916015625,-35527030.94482422,-34380706.787109375,-35537788.39111328,-22796754.837036133,-22771251.678466797,-35386428.83300781,-34658004.76074219,-34897151.947021484
0.28,6481198.310852051,15982716.56036377,18289970.39794922,2109737.8730773926,22822074.89013672,-16570436.477661133,-15772191.047668457,-15366989.135742188,-1677795.171737671,-2835730.0758361816,4822641.372680664,5274818.420410156,5334492.6834106445,-19099548.33984375,-18354150.772094727,-18979261.39831543,-11694739.34173584,-1150901.5560150146,3845118.999481201,4457912.921905518,5945850.372314453,5526921.272277832,-19826511.38305664,-18996013.641357422,-27154924.392700195,-12919244.766235352,-12523760.795593262,-1459606.5282821655,-327625.3938674927,-13893903.732299805,-9933582.305908203,-19735931.396484375,-22153833.389282227,-22640516.28112793,-23350585.9375,-13572175.979614258,-1176077.6042938232,-25699005.126953125,-12896224.975585938,-32700954.43725586,-20092899.322509766,-22198057.174682617,-22478792.190551758,-22450500.48828125,-34406925.201416016,-33685081.481933594,-27369998.931884766,-33298282.623291016,-34165515.8996582,-32977306.365966797,-24754615.783691406,-23374580.38330078,-22379055.02319336,-33380455.017089844,-34143199.9206543,-33073070.526123047,-34108242.03491211,-23597215.65246582,-23605016.708374023,-33946388.244628906,-33262866.973876953,-33605159.759521484
0.285,2021077.3944854736,10879746.437072754,12265161.514282227,1527353.286743164,17764091.49169922,-11673408.508300781,-11119805.335998535,-10653155.326843262,-4084990.0245666504,-6564262.390136719,442262.8879547119,738684.4158172607,1068839.7884368896,-21182100.296020508,-12885008.811950684,-15334594.7265625,-10257655.143737793,-2128279.447555542,-375502.22873687744,479625.9105205536,1669889.8077011108,936328.2918930054,-21905174.255371094,-13486357.688903809,-21359073.638916016,-9446543.69354248,-11301164.627075195,-1897916.0785675049,-708212.0180130005,-15221124.649047852,-11150977.13470459,-21796514.5111084,-15982498.168945312,-16064741.134643555,-17489679.33654785,-9965827.941894531,-1371630.9070587158,-22835975.646972656,-14173404.693603516,-29315532.684326172,-22220226.287841797,-16048461.9140625,-16154586.791992188,-16043071.746826172,-29194843.292236328,-28529865.264892578,-24426195.14465332,-29797607.421875,-30883756.637573242,-29519943.237304688,-18126569.747924805,-16923082.35168457,-15801360.130310059,-28351852.416992188,-29796157.836914062,-28822397.232055664,-29652729.034423828,-17072860.717773438,-17128864.288330078,-28811147.689819336,-28595508.575439453,-28742929.458618164
0.29,-2365383.6250305176,2974401.2355804443,4611175.060272217,1699578.7620544434,12093520.164489746,-4697825.4318237305,-4433142.185211182,-3997011.423110962,-4700092.792510986,-10410233.497619629,-3413475.513458252,-3316282.5107574463,-2651892.900466919,-21934516.90673828,-5598531.246185303,-8831247.329711914,-6874780.654907227,-2070909.2617034912,-4022556.3049316406,-3285717.248916626,-2320135.1165771484,-3113329.4105529785,-22770675.659179688,-6186367.034912109,-14206157.684326172,-5325461.864471436,-9998377.799987793,-1809205.6512832642,-726213.5744094849,-15341083.526611328,-11466047.286987305,-22646440.505981445,-8218565.940856934,-8086922.645568848,-11704573.631286621,-6159435.272216797,-1254717.1115875244,-17332941.05529785,-14321577.072143555,-23783395.767211914,-23070409.774780273,-8285469.055175781,-8196778.297424316,-8096580.505371094,-21818542.48046875,-21091856.002807617,-18897478.103637695,-24138433.4564209,-25346273.42224121,-24004320.14465332,-9789793.014526367,-8710322.380065918,-7650698.661804199,-21083992.00439453,-23208112.716674805,-22264036.178588867,-22932870.864868164,-8796465.873718262,-8901978.492736816,-21414480.209350586,-21654317.85583496,-21492221.83227539
0.295,-12662339.210510254,-11783277.51159668,-8479864.120483398,-1924999.475479126,4854138.8511657715,-301929.2652606964,-221630.2901506424,155334.02562141418,-4841974.73526001,-13335105.895996094,-5581540.107727051,-5756153.583526611,-5109258.17489624,-22289550.78125,-977574.88489151,-4722094.0589904785,-4745841.026306152,-1541895.6279754639,-5911485.67199707,-5543063.163757324,-4584615.230560303,-5479104.518890381,-23099987.030029297,-1263311.8629455566,-9507312.774658203,-2617817.163467407,-9128551.483154297,-1211800.0984191895,-369489.52078819275,-14404576.301574707,-10986597.061157227,-23136922.83630371,-3040851.354598999,-2974346.399307251,-8289365.768432617,-3653891.086578369,-853489.2201423645,-12321784.019470215,-13393637.657165527,-18187198.638916016,-23335739.135742188,-2976866.0068511963,-2841486.4540100098,-2870497.465133667,-15465703.964233398,-14773544.311523438,-13987942.695617676,-18400798.797607422,-19529384.61303711,-18474792.48046875,-4151278.018951416,-3131320.2381134033,-2197021.484375,-14789736.7477417,-16879259.10949707,-15915870.666503906,-16554189.682006836,-3057706.117630005,-3280647.039413452,-15029507.637023926,-15218941.688537598,-14867729.187011719
0.3,-20422454.833984375,-21111356.735229492,-16999309.539794922,-5686996.936798096,1935615.1819229126,456790.2088165283,598845.0646400452,977833.5690498352,-3874255.895614624,-12404395.10345459,-4505113.124847412,-4926543.712615967,-4596373.558044434,-22785341.262817383,84369.57001686096,-4307371.139526367,-4237022.399902344,-147146.2994813919,-4643614.768981934,-4604056.358337402,-3449606.418609619,-4522474.765777588,-23412389.755249023,117088.183760643,-7815229.415893555,-1265436.6493225098,-8121185.302734375,-622305.8104515076,-13238.690793514252,-13888998.031616211,-10670563.697814941,-23710508.346557617,-1528599.2622375488,-1610548.3770370483,-6943304.061889648,-2602059.3643188477,-470388.59128952026,-11280855.178833008,-12875633.239746094,-15516812.324523926,-23649122.23815918,-1341741.8003082275,-1327848.3152389526,-1451694.9653625488,-13310455.322265625,-12792650.22277832,-13088825.225830078,-15659527.778625488,-16664129.257202148,-15889316.55883789,-2537738.561630249,-1542558.6700439453,-658571.5413093567,-12673439.025878906,-14065446.853637695,-13111299.514770508,-13824543.952941895,-1316978.3353805542,-1733939.1708374023,-12902763.366699219,-12594372.749328613,-12236904.14428711
0.305,-18555509.567260742,-16442066.192626953,-13255128.860473633,-6157005.310058594,6153187.7517700195,-2119089.126586914,-1744540.810585022,-1357736.349105835,-2874027.967453003,-8548810.005187988,-1491169.3334579468,-1876475.214958191,-1781619.906425476,-22981393.814086914,-2290179.2526245117,-7432105.06439209,-5687918.186187744,826356.6493988037,-1719254.3745040894,-1780232.1910858154,-324878.66282463074,-1384603.9772033691,-23575429.916381836,-2270257.9498291016,-9891409.873962402,-2439405.2028656006,-8085258.483886719,-560367.8226470947,9955.46206831932,-14404307.36541748,-10777712.82196045,-23945503.23486328,-3959314.3463134766,-4066051.0063171387,-8479225.158691406,-3627558.946609497,-420163.92946243286,-13586943.626403809,-13423869.132995605,-16602045.059204102,-23894723.892211914,-3811411.6191864014,-3964149.7135162354,-3991085.2909088135,-15757884.979248047,-15305396.08001709,-15481021.881103516,-16870401.38244629,-17907308.57849121,-17053802.490234375,-5137246.608734131,-4161108.4938049316,-3242820.978164673,-15024718.284606934,-15722146.034240723,-14804187.774658203,-15593878.746032715,-3911041.9750213623,-4454313.278198242,-15334766.387939453,-14579346.656799316,-14381268.501281738
0.31,-11569082.260131836,-5430894.374847412,-3403430.223464966,-5158361.911773682,11882022.857666016,-6210658.550262451,-5701836.109161377,-5405930.042266846,-4498919.486999512,-7089018.821716309,-404930.1743507385,-398903.7275314331,-254289.74628448486,-22340461.73095703,-6511613.845825195,-12496300.69732666,-9463747.97821045,-926363.4085655212,-995778.4414291382,-980065.5841827393,803490.5791282654,65397.4786400795,-23191747.665405273,-6698571.20513916,-15065782.54699707,-6801307.678222656,-10697039.604187012,-987840.473651886,-246146.42560482025,-14732807.159423828,-10451004.028320312,-23371509.552001953,-8621443.748474121,-8657624.244689941,-12951621.055603027,-6660174.369812012,-678124.2489814758,-14547323.226928711,-13736599.922180176,-18279701.232910156,-23531734.466552734,-8613950.729370117,-8864132.88116455,-8647731.78100586,-18885896.682739258,-18243896.484375,-16476257.32421875,-18796283.721923828,-19985658.645629883,-18751684.188842773,-9942317.962646484,-8978443.145751953,-8011591.911315918,-17877243.041992188,-18343078.61328125,-17413793.563842773,-18188486.099243164,-8762445.449829102,-9223007.202148438,-18323129.653930664,-17445602.416992188,-17552869.79675293
0.315,-9015784.26361084,-2044027.0900726318,110488.21359872818,-5622694.492340088,12100145.33996582,-7733656.406402588,-7353702.068328857,-7204985.14175415,-8457288.74206543,-10867944.717407227,-2928749.0844726562,-2564305.305480957,-2218217.372894287,-21454591.751098633,-8307302.474975586,-15036973.95324707,-13028895.378112793,-4750105.381011963,-3901458.740234375,-3812513.3514404297,-1776816.2488937378,-2196113.8248443604,-22554769.51599121,-8499947.547912598,-18142597.198486328,-10615158.081054688,-14423074.722290039,-1382758.7366104126,-456994.1461086273,-13696671.485900879,-9219633.102416992,-22553174.97253418,-10564431.190490723,-10560268.40209961,-16177873.611450195,-9053085.327148438,-905188.5604858398,-11408044.815063477,-12548829.078674316,-16813310.623168945,-22756494.522094727,-10595115.661621094,-10863590.240478516,-10466513.633728027,-18114719.39086914,-17257244.110107422,-13347649.574279785,-17425230.026245117,-18680809.020996094,-17220869.064331055,-11876209.259033203,-10864155.769348145,-9902468.68133545,-16875322.341918945,-17408996.58203125,-16420545.57800293,-17078399.658203125,-10648574.829101562,-10891951.560974121,-17424081.802368164,-16534675.598144531,-16960189.819335938
0.32,-13215137.481689453,-8933491.706848145,-5629947.185516357,-6627707.958221436,7810510.158538818,-4547314.643859863,-4397778.9878845215,-4293917.655944824,-10623372.077941895,-15766249.656677246,-5893332.004547119,-5666416.168212891,-5165737.628936768,-21308212.280273438,-5141780.376434326,-11854994.773864746,-12512467.384338379,-6658181.667327881,-7046101.093292236,-6957468.9865112305,-4896477.222442627,-5336885.452270508,-22343818.66455078,-5109320.640563965,-14626567.840576172,-9135378.83758545,-15424703.598022461,-1358990.9076690674,-382291.704416275,-11917181.968688965,-7808647.155761719,-22384248.733520508,-6955151.081085205,-6932576.656341553,-14040377.616882324,-8275297.164916992,-860291.1829948425,-7735181.80847168,-10633457.18383789,-13396751.403808594,-22362144.470214844,-6835323.810577393,-7097253.322601318,-6710783.004760742,-14471874.237060547,-13638026.237487793,-9653182.029724121,-13836456.298828125,-15003242.492675781,-13722327.23236084,-8244374.2752075195,-7073991.775512695,-6211674.213409424,-13272875.785827637,-13769300.46081543,-12786396.026611328,-13310290.336608887,-6919120.311737061,-7026886.940002441,-13799444.198608398,-12771475.791931152,-13298299.789428711
0.325,-17454339.9810791,-15490315.437316895,-11418804.168701172,-5395539.283752441,5994294.6434021,-584834.5160484314,-453891.5157318115,-241388.84246349335,-8645205.4977417,-16043560.028076172,-5472796.440124512,-5754299.163818359,-5208075.523376465,-21811634.063720703,-951798.2006072998,-6546224.594116211,-8462055.206298828,-4573867.321014404,-6638625.144958496,-6497322.559356689,-4679985.046386719,-5342988.967895508,-22608453.75061035,-848508.6560249329,-8374765.396118164,-4022754.669189453,-13059438.705444336,-1027175.9033203125,-41580.49076795578,-10826235.7711792,-6982484.340667725,-22783908.84399414,-2343517.541885376,-2264460.325241089,-9435552.597045898,-5989333.629608154,-634844.6011543274,-8998784.065246582,-9669014.930725098,-13290658.950805664,-22574665.069580078,-2042986.3929748535,-2296962.4996185303,-2045606.1363220215,-14041344.64263916,-13370819.091796875,-10877608.299255371,-13545400.619506836,-14600424.766540527,-13606152.534484863,-3749369.8596954346,-2394697.666168213,-1684757.7095031738,-13049310.684204102,-13319216.72821045,-12462549.209594727,-12958756.446838379,-2469302.6542663574,-2585618.9727783203,-13410186.767578125,-12288881.301879883,-12652735.710144043
0.33,-16188465.118408203,-13838637.351989746,-10283267.974853516,-2362951.9939422607,8626584.05303955,-979991.1975860596,-614282.1311950684,-282080.88874816895,-5694416.522979736,-12422626.495361328,-3002168.655395508,-3528111.696243286,-3045837.40234375,-22455711.364746094,-1251898.0503082275,-5625965.118408203,-6001290.321350098,-1548530.5786132812,-4107192.039489746,-3760232.925415039,-2276904.582977295,-2990998.9833831787,-23178421.020507812,-1407159.447669983,-7192003.25012207,-1841256.9761276245,-11016517.639160156,-709963.9177322388,375613.5702133179,-10813292.503356934,-6678462.505340576,-23367822.647094727,-2864251.136779785,-2773795.3662872314,-8786812.782287598,-5776515.483856201,-428159.2071056366,-14458457.946777344,-9986495.971679688,-17989881.51550293,-23220907.21130371,-2585739.3741607666,-2788641.2143707275,-2663747.3106384277,-18961935.04333496,-18325073.2421875,-16329301.834106445,-18339256.286621094,-19351804.733276367,-18362913.131713867,-4463389.3966674805,-3100352.2872924805,-2455804.5864105225,-18077667.236328125,-18232555.389404297,-17491308.212280273,-18112941.74194336,-3418815.1359558105,-3529854.2976379395,-18222982.40661621,-17344032.287597656,-17517747.87902832
0.335,-12483748.435974121,-9619061.470031738,-7468671.3218688965,-937885.9400749207,9485965.728759766,-3888279.1996002197,-3368890.5239105225,-3048204.4219970703,-6065976.142883301,-11078892.707824707,-3539473.056793213,-3742404.2224884033,-3425085.0677490234,-23630472.18322754,-4322202.205657959,-8952178.955078125,-7522474.28894043,-1535570.9791183472,-4419461.727142334,-3876432.8956604004,-2581191.062927246,-3173131.9427490234,-24467914.581298828,-4688745.975494385,-10852871.894836426,-4237668.991088867,-11592773.4375,-534776.2107849121,666277.825832367,-11320961.952209473,-6738905.429840088,-24575939.178466797,-6373989.582061768,-6423374.176025391,-11863423.347473145,-7150758.266448975,-273757.666349411,-17240060.806274414,-10668229.103088379,-21659357.07092285,-24553838.7298584,-6340922.3556518555,-6409988.880157471,-6343387.126922607,-22761390.686035156,-22022928.23791504,-19142978.66821289,-22280599.59411621,-23271841.049194336,-22075496.673583984,-8040617.942810059,-6901183.605194092,-6147390.842437744,-21835073.471069336,-22273324.966430664,-21449483.87145996,-22249769.21081543,-7205460.071563721,-7198500.633239746,-21871389.389038086,-21449010.848999023,-21606374.740600586
0.34,-13195773.124694824,-12614883.422851562,-11464594.841003418,-2870537.757873535,3894564.390182495,-3035055.160522461,-2718958.616256714,-2483719.58732605,-9271186.828613281,-14954020.500183105,-8494268.417358398,-8244605.06439209,-8082351.6845703125,-25584129.333496094,-3560597.6581573486,-9951040.267944336,-9306194.305419922,-3923105.7167053223,-8906722.068786621,-8443292.617797852,-7151408.1954956055,-7773365.020751953,-26457355.499267578,-3664824.2473602295,-11219058.0368042,-5512413.501739502,-12327922.821044922,-445195.3172683716,716336.5483283997,-11986859.321594238,-7371965.8851623535,-26520944.595336914,-5340787.410736084,-5553850.6507873535,-11940629.005432129,-6152695.178985596,-115556.44869804382,-13470952.033996582,-11163467.407226562,-18627346.03881836,-26475048.065185547,-5525764.942169189,-5428516.864776611,-5350811.004638672,-18908687.591552734,-18139268.87512207,-15392199.516296387,-19339328.76586914,-20304958.34350586,-19026052.474975586,-6860464.572906494,-5936155.796051025,-5007399.082183838,-17915668.487548828,-18923177.71911621,-17827056.884765625,-18693817.138671875,-5958019.733428955,-5876861.095428467,-18050174.713134766,-17835332.8704834,-18049577.713012695
0.345,-19772037.506103516,-22060190.200805664,-20547159.19494629,-6753892.421722412,-3709288.1202697754,1439637.541770935,1398472.785949707,1650382.161140442,-11658692.359924316,-20042747.497558594,-13103791.236877441,-12816940.307617188,-12639634.132385254,-27037914.276123047,1122597.2175598145,-6557042.598724365,-7961391.925811768,-5047903.537750244,-13034803.39050293,-12907722.473144531,-11588604.927062988,-12456748.962402344,-27762866.973876953,1585091.1140441895,-5807057.3806762695,-2238512.7544403076,-10625041.007995605,-429616.8088912964,564637.6609802246,-12775447.845458984,-8538337.707519531,-27792316.436767578,312206.08949661255,149514.61553573608,-7294462.203979492,-2499750.3757476807,-13263.050466775894,-7798446.6552734375,-11671707.153320312,-12132740.020751953,-27708154.678344727,177275.8513689041,360404.5808315277,502268.4335708618,-11287520.408630371,-10590331.077575684,-9682667.73223877,-12661517.143249512,-13660634.04083252,-12479882.24029541,-982338.1900787354,-19451.390951871872,971843.1830406189,-10227214.813232422,-11637454.03289795,-10310755.729675293,-11080459.594726562,232107.53500461578,160487.47301101685,-10601278.305053711,-10146626.472473145,-10315160.751342773
0.35,-26541381.8359375,-27833404.541015625,-25239444.732666016,-10427536.964416504,-5982646.942138672,2087312.2215270996,1992095.947265625,2408597.946166992,-12015386.581420898,-21209817.88635254,-12800691.604614258,-12820534.706115723,-12488851.547241211,-27258230.209350586,2006188.3926391602,-4748942.3751831055,-5921735.763549805,-3678769.35005188,-12556031.227111816,-12683436.393737793,-11404955.863952637,-12468874.93133545,-27839555.740356445,2725369.453430176,-2520614.1471862793,873798.668384552,-8412685.39428711,-545469.7608947754,377519.78635787964,-13559773.445129395,-9970621.109008789,-27771638.870239258,1729615.0922775269,1781297.3260879517,-4981029.033660889,-1252036.690711975,-101362.04957962036,-7347881.317138672,-12397473.335266113,-10938488.006591797,-27849905.014038086,1828693.2706832886,1972962.2602462769,2180836.6775512695,-10111261.367797852,-9416120.529174805,-9162500.381469727,-11299034.118652344,-12392554.28314209,-11238059.997558594,513302.0281791687,1641552.8059005737,2573214.292526245,-8949635.50567627,-10277400.016784668,-8963319.778442383,-9611429.214477539,1940031.4092636108,1604943.6330795288,-9497337.341308594,-8679141.0446167,-8780456.54296875
0.355,-26204139.709472656,-23646873.474121094,-21356933.59375,-11636174.201965332,-2460365.056991577,-3356898.784637451,-3117839.574813843,-2529898.166656494,-11619844.436645508,-18105920.791625977,-9157506.942749023,-9378562.927246094,-8997499.465942383,-28862779.61730957,-3588587.999343872,-7762238.025665283,-6571331.977844238,-1741848.111152649,-8999674.797058105,-9074601.173400879,-7819529.056549072,-8993079.18548584,-29449804.306030273,-3250297.784805298,-6584299.564361572,-1066874.384880066,-8829110.145568848,-794553.6971092224,274815.9468173981,-14435602.188110352,-12131632.804870605,-29339525.22277832,-4641446.590423584,-4559058.666229248,-9609305.381774902,-5146157.264709473,-400760.14399528503,-12794264.793395996,-13467574.119567871,-17704233.169555664,-29665531.158447266,-4454493.999481201,-4411642.551422119,-4195756.912231445,-17960441.58935547,-17149099.349975586,-14561410.903930664,-18129529.95300293,-19286256.790161133,-17973611.83166504,-6042476.654052734,-4967997.5509643555,-4088871.479034424,-16781190.872192383,-17719177.24609375,-16620710.372924805,-17301280.975341797,-4827644.348144531,-5218413.352966309,-17284866.333007812,-16371402.740478516,-16585634.231567383
0.36,-14969072.341918945,-12231287.956237793,-13100809.097290039,-7047331.3331604,2037006.3781738281,-6204522.132873535,-5661879.062652588,-5024171.352386475,-10035027.503967285,-13638255.11932373,-6974163.055419922,-7163784.027099609,-6963984.489440918,-35270740.5090332,-6979970.455169678,-8982541.08428955,-7618446.826934814,-338710.1888656616,-6842577.934265137,-6733142.852783203,-5369525.909423828,-6859286.308288574,-35902950.286865234,-7391683.578491211,-10983463.287353516,-4643937.587738037,-10766964.91241455,-1126013.2789611816,175472.78106212616,-15910550.117492676,-15755510.330200195,-35956359.86328125,-9754785.537719727,-9989413.261413574,-15232274.055480957,-9716973.304748535,-802164.8526191711,-18594451.904296875,-15165887.832641602,-25551082.611083984,-36342197.41821289,-9796544.075012207,-9862794.876098633,-9676059.72290039,-26244283.67614746,-25347188.94958496,-20377012.252807617,-26118820.190429688,-27299707.412719727,-25814594.268798828,-11571804.04663086,-10790332.794189453,-9926628.112792969,-25247755.05065918,-25956453.323364258,-25077072.143554688,-25949151.99279785,-10903318.405151367,-11048648.834228516,-25560159.68322754,-24818998.336791992,-25268342.971801758
0.365,3292114.2578125,-480942.4877166748,-6064226.150512695,3643796.682357788,4744287.967681885,735466.5398597717,1195923.6860275269,1789923.4294891357,-6239687.919616699,-10373496.055603027,-8079218.864440918,-8252545.356750488,-8278071.403503418,-45223369.59838867,-553398.9071846008,-2216595.17288208,-5051140.785217285,1057345.7479476929,-7802193.164825439,-7669710.636138916,-6127295.970916748,-8142972.946166992,-45784614.56298828,-1586216.3305282593,-7183256.62612915,-3671571.2547302246,-10855478.286743164,-1489683.0320358276,-83858.96682739258,-17869125.366210938,-19934890.747070312,-46069435.119628906,-4860708.236694336,-5467896.938323975,-14024896.621704102,-9485834.121704102,-1178247.6902008057,-20251918.79272461,-17200632.095336914,-27197689.056396484,-46350051.87988281,-5242918.014526367,-5428567.886352539,-5229625.225067139,-26826120.376586914,-25945468.90258789,-22094869.61364746,-27732574.462890625,-28997690.200805664,-27471448.89831543,-7189871.311187744,-6527659.893035889,-5728606.224060059,-26052244.186401367,-26923839.569091797,-26143419.26574707,-27177978.515625,-6889130.115509033,-6777108.669281006,-26233289.71862793,-25687974.92980957,-26221431.732177734
0.37,15555857.65838623,3842887.8784179688,-4766047.00088501,12189114.570617676,4677360.534667969,10952838.897705078,11120350.83770752,11645157.814025879,-3796871.6621398926,-10749538.42163086,-11166616.439819336,-11452537.536621094,-11522734.642028809,-53321659.088134766,9603637.6953125,6486172.676086426,-1369927.167892456,1362828.254699707,-10741054.53491211,-10744295.120239258,-9145088.195800781,-11457304.000854492,-53734798.431396484,8404026.03149414,750187.3970031738,315262.49647140503,-9478846.549987793,-1775854.5875549316,-461040.82465171814,-19115224.838256836,-22447864.532470703,-54019886.0168457,4866559.982299805,4212789.535522461,-8063258.171081543,-5721250.534057617,-1412772.77469635,-17844663.619995117,-18372650.146484375,-23352596.282958984,-54296558.38012695,4349946.022033691,4091525.077819824,4325312.13760376,-21479488.372802734,-20626758.575439453,-19694335.9375,-23681455.612182617,-25080560.6842041,-23592405.319213867,2165284.8720550537,3152839.183807373,3855905.771255493,-20725500.106811523,-22027610.778808594,-21251100.540161133,-22245655.059814453,2700892.686843872,2767894.744873047,-20946624.755859375,-20555301.666259766,-20953443.52722168
0.375,9935912.132263184,-4536686.420440674,-12887019.157409668,8217334.747314453,-637220.2038764954,12437733.65020752,12528817.176818848,12922115.325927734,-8377010.345458984,-16706153.869628906,-15390089.988708496,-15755192.756652832,-15741055.488586426,-56777374.267578125,11484206.199645996,6127870.082855225,-3014058.5899353027,-1835550.5466461182,-14883835.792541504,-14940388.679504395,-13478219.032287598,-15684979.438781738,-57127567.291259766,10614723.205566406,1849812.9844665527,207780.51018714905,-10324811.935424805,-1806240.6778335571,-670132.2197914124,-18994699.478149414,-22877000.80871582,-57179859.16137695,7510977.268218994,7118114.471435547,-5787193.298339844,-3979847.9080200195,-1405628.9196014404,-13445460.319519043,-18112476.348876953,-19890516.28112793,-57600788.11645508,7107769.966125488,6967062.473297119,7127045.154571533,-17162218.09387207,-16330642.700195312,-15163972.854614258,-20015119.552612305,-21420915.603637695,-19990011.21520996,4808467.388153076,6264448.642730713,6977630.615234375,-16310592.651367188,-18180557.250976562,-17368080.139160156,-18142463.68408203,5984764.575958252,5771612.644195557,-16679382.32421875,-16550846.099853516,-16822595.596313477
0.38,-5279715.538024902,-17806722.64099121,-24969434.73815918,-4463189.601898193,-9380114.555358887,4866959.095001221,5220523.834228516,5387921.8101501465,-17619630.813598633,-24965494.15588379,-19707794.189453125,-20032516.479492188,-19984289.169311523,-58181915.283203125,4226249.694824219,-2354213.9530181885,-9446081.161499023,-7103391.170501709,-19128078.46069336,-19058042.526245117,-17755887.985229492,-19848037.719726562,-58629344.94018555,3854738.235473633,-5068557.262420654,-5192695.140838623,-13982098.579406738,-1554541.5878295898,-522082.98444747925,-18720958.709716797,-23561161.041259766,-58553310.39428711,1238164.5441055298,1042161.7031097412,-9658855.438232422,-6076995.849609375,-1180055.9759140015,-9202043.533325195,-17715448.3795166,-20331239.700317383,-59021652.22167969,939388.8115882874,1115891.5758132935,1053313.4937286377,-17104732.513427734,-16403814.315795898,-10745394.706726074,-20342533.111572266,-21547370.91064453,-20242229.461669922,-1202867.2695159912,371775.1204967499,1202854.3949127197,-16321138.381958008,-18890176.77307129,-18016929.626464844,-18567115.783691406,340435.83273887634,-18227.307125926018,-16846771.240234375,-17135259.6282959,-17424148.559570312
0.385,-1232304.9306869507,-12562138.557434082,-21702363.967895508,-6114156.246185303,-9745849.609375,-221339.33007717133,502054.92973327637,498017.0428752899,-19937774.658203125,-26369497.299194336,-20190868.377685547,-20471847.534179688,-20416154.861450195,-60254508.97216797,-1336259.0074539185,-5990422.248840332,-11699804.306030273,-8234618.186950684,-19679428.100585938,-19465955.73425293,-18131635.665893555,-20318744.659423828,-60890052.795410156,-1715998.649597168,-9973703.384399414,-8854885.10131836,-16231922.149658203,-1292645.0967788696,-209415.003657341,-19840368.270874023,-26134212.493896484,-60978427.88696289,-4699064.254760742,-5041980.743408203,-14155556.678771973,-8775974.27368164,-933144.1521644592,-8295506.477355957,-18786060.333251953,-24276479.721069336,-61289131.16455078,-5144148.349761963,-4715645.790100098,-4976973.056793213,-20545379.638671875,-20078519.821166992,-9849320.411682129,-24283809.661865234,-25246915.817260742,-24140911.102294922,-7192435.264587402,-5887342.929840088,-5025181.770324707,-19974100.11291504,-23182535.17150879,-22261436.462402344,-22733509.063720703,-5966648.101806641,-6118965.625762939,-20636875.15258789,-21305875.778198242,-21585418.701171875
0.39,39281330.10864258,26169183.7310791,10676957.130432129,15585905.075073242,8035845.756530762,4122508.0490112305,5108962.059020996,5185852.05078125,-8758378.982543945,-15943324.089050293,-13607487.678527832,-13889735.221862793,-13705056.190490723,-61448825.83618164,1661855.5784225464,2425873.041152954,-4442708.969116211,-1739095.92628479,-13527638.43536377,-13309507.369995117,-11783205.98602295,-13871287.34588623,-62229862.213134766,345085.65068244934,-6512494.087219238,-5661396.9802856445,-13905285.835266113,-1313739.538192749,-110082.06009864807,-21964054.107666016,-28826282.501220703,-62554233.55102539,-4052465.4388427734,-4831818.103790283,-14772188.186645508,-9326425.552368164,-846818.9239501953,-13454557.418823242,-20967617.03491211,-30326208.114624023,-62718082.427978516,-4884884.834289551,-4538901.329040527,-4773500.442504883,-26780895.233154297,-26435045.24230957,-15270363.807678223,-30512355.80444336,-31378322.60131836,-30417659.759521484,-7387493.61038208,-6343140.125274658,-5634897.708892822,-26251882.553100586,-29611892.700195312,-28731967.92602539,-29296560.287475586,-6834030.628204346,-6615592.002868652,-27009515.7623291,-27810159.68322754,-27891399.383544922
0.395,92949073.7915039,77846496.58203125,54952133.17871094,45799129.486083984,33665950.775146484,12208881.378173828,13306496.620178223,13660321.235656738,6747809.410095215,-1704085.4692459106,-4044221.4012145996,-4273590.564727783,-3916145.3247070312,-59334495.544433594,8435812.950134277,14934219.360351562,6092322.34954834,7400703.430175781,-4536782.741546631,-4390807.628631592,-2782367.706298828,-4348412.990570068,-60111652.37426758,5808733.940124512,500282.7048301697,1014367.4612045288,-9081757.545471191,-1535291.6717529297,-329617.58971214294,-23367883.682250977,-29014381.408691406,-60470264.43481445,-29152.916744351387,-1269499.3019104004,-12613816.261291504,-8149490.3564453125,-884496.5696334839,-22376018.524169922,-22541603.088378906,-36300067.90161133,-60671764.3737793,-1266378.9987564087,-1255119.4429397583,-1259583.2347869873,-33992633.81958008,-33534015.655517578,-24453178.40576172,-36846969.60449219,-37747562.408447266,-36775039.67285156,-4582746.982574463,-3554508.2092285156,-3018542.0513153076,-33283279.418945312,-36166923.52294922,-35416633.60595703,-36167900.08544922,-4419092.655181885,-4017664.909362793,-34025970.458984375,-34671619.4152832,-34496845.24536133
0.4,116082992.55371094,101014518.73779297,74285865.7836914,57565135.95581055,43797489.166259766,15917562.484741211,16965101.24206543,17491474.151611328,12000362.396240234,3260849.2374420166,-297729.2537689209,-417673.82621765137,-116626.16580724716,-55272769.927978516,11941465.377807617,20176965.713500977,10326853.75213623,11251933.097839355,-920038.2828712463,-768615.9014701843,664853.9900779724,-561027.1692276001,-55898403.16772461,8800762.176513672,4209923.74420166,5063675.403594971,-5803510.665893555,-1591092.586517334,-578978.8365364075,-23408208.8470459,-26985698.699951172,-56149627.685546875,2748548.984527588,1271750.9269714355,-10076983.451843262,-6384708.881378174,-889091.0744667053,-28004379.272460938,-22814960.479736328,-38269489.28833008,-56426906.58569336,1338319.0631866455,1089754.7006607056,1302399.3968963623,-37077140.80810547,-36447292.32788086,-30061199.188232422,-39115470.88623047,-40085113.525390625,-38992713.928222656,-2325756.072998047,-1246625.304222107,-719603.0616760254,-36296722.412109375,-38497097.01538086,-37832473.75488281,-38746532.44018555,-2082978.4870147705,-1797264.9335861206,-36896419.525146484,-37180892.94433594,-36917831.42089844
0.405,95123695.37353516,80945487.97607422,55585346.22192383,44719654.08325195,31283050.537109375,15187722.206115723,16058881.759643555,16476718.90258789,5396284.103393555,-2750209.5699310303,-4658893.585205078,-4744317.531585693,-4772996.425628662,-52299739.837646484,12121932.983398438,17500020.98083496,7417281.627655029,8718908.309936523,-4842384.338378906,-4590799.808502197,-3376837.2535705566,-5029955.3871154785,-52766914.36767578,9653677.940368652,4591767.78793335,5252679.347991943,-5222030.162811279,-1331849.9326705933,-549782.3357582092,-22926324.84436035,-24986562.728881836,-52998783.111572266,4582097.53036499,3172457.695007324,-7738631.248474121,-4544651.031494141,-818936.5863800049,-26330936.431884766,-22478929.51965332,-34052967.0715332,-53194473.26660156,3320286.0355377197,3024810.791015625,3277097.225189209,-32772144.317626953,-32140445.709228516,-28134449.005126953,-34874164.58129883,-35916175.842285156,-34721904.75463867,140728.01172733307,1139695.0483322144,1748524.785041809,-32195243.83544922,-33952053.07006836,-33213100.43334961,-34166194.915771484,575640.3803825378,658672.6307868958,-32634155.2734375,-32448394.775390625,-32271915.435791016
0.41,59842121.12426758,46069759.368896484,25319488.525390625,27050540.924072266,14817008.972167969,14166613.578796387,14931066.513061523,15112589.836120605,-1542089.9391174316,-8817602.157592773,-9532299.041748047,-9651888.847351074,-9968663.215637207,-50547485.3515625,12047767.639160156,14008112.907409668,4060115.8142089844,5678551.67388916,-9285454.750061035,-8977224.349975586,-7718817.234039307,-10060802.459716797,-51010299.68261719,10481235.50415039,4650851.249694824,4098322.868347168,-5924430.847167969,-1021056.8904876709,-297029.048204422,-22568216.32385254,-23767021.17919922,-51331462.86010742,6338568.210601807,5151703.834533691,-6605496.406555176,-3909536.123275757,-746647.4771499634,-21702808.380126953,-22020513.5345459,-27661144.256591797,-51371761.322021484,5391191.005706787,5088798.522949219,5233809.471130371,-25886138.916015625,-25411014.556884766,-23294536.590576172,-28218389.5111084,-29279609.68017578,-28096595.764160156,2857877.9697418213,3760356.4262390137,4348806.381225586,-25504537.58239746,-27000694.274902344,-26093938.82751465,-26948728.561401367,3293024.778366089,3328054.666519165,-25902492.52319336,-25273117.065429688,-25223882.6751709
0.415,41311466.217041016,28275905.60913086,12568269.729614258,21333093.643188477,12268243.789672852,13030152.320861816,13927838.325500488,13983244.895935059,-1701672.5540161133,-7876183.50982666,-8416841.506958008,-8472543.716430664,-8772215.843200684,-48340816.497802734,11113427.16217041,12750441.551208496,3727931.7378997803,5829192.638397217,-8174779.891967773,-7967640.8767700195,-6436930.179595947,-8773522.37701416,-48950984.954833984,9640480.041503906,4040849.208831787,2779330.9688568115,-7026719.570159912,-975176.751613617,-165846.586227417,-22166452.407836914,-22502014.16015625,-49303249.35913086,5597289.562225342,4550684.452056885,-8469793.319702148,-5859322.071075439,-693312.2277259827,-21007034.301757812,-21341093.063354492,-25944202.423095703,-49305702.209472656,4860450.744628906,4445543.28918457,4479389.667510986,-24504894.256591797,-24189121.24633789,-22544908.52355957,-26329721.450805664,-27227472.30529785,-26205261.23046875,2350309.371948242,3340066.1945343018,3781446.695327759,-24057498.931884766,-25284791.946411133,-24284404.754638672,-24998146.057128906,2712432.622909546,2858803.7490844727,-24540735.244750977,-23693170.54748535,-23772121.42944336
0.42,35956119.537353516,24576101.303100586,12844178.199768066,21538131.713867188,16844940.185546875,9774406.433105469,10860952.377319336,10922003.746032715,-866703.0930519104,-6086393.8331604,-5198727.130889893,-5101780.891418457,-5199174.404144287,-46240913.39111328,7716107.368469238,11008032.79876709,3271226.167678833,6232981.204986572,-5065092.56362915,-5061690.330505371,-3395792.4842834473,-5096618.65234375,-46982578.27758789,5796034.812927246,1571388.840675354,1033840.2986526489,-8501627.922058105,-1189176.9170761108,-376042.6342487335,-21663797.37854004,-21258491.51611328,-47260173.79760742,1607558.7272644043,573141.6344642639,-12048927.307128906,-8884352.684020996,-634628.1170845032,-24044996.26159668,-20709486.00769043,-29593702.31628418,-47297977.447509766,886486.4110946655,361394.0477371216,385441.27345085144,-28658002.853393555,-28458063.12561035,-25574710.845947266,-30005796.432495117,-30587953.567504883,-29809967.041015625,-1998563.289642334,-820451.2596130371,-504758.00037384033,-28078374.8626709,-29268798.828125,-28286483.764648438,-28929349.899291992,-1556702.1369934082,-1294314.3844604492,-28656005.859375,-27934858.322143555,-28142749.786376953
0.425,23801828.384399414,13563276.290893555,4294591.903686523,14704955.101013184,11583554.2678833,6575263.023376465,7526000.9765625,7592874.050140381,-5862542.152404785,-11249905.586242676,-7417330.265045166,-7335237.0262146,-7319951.53427124,-45978698.73046875,4817654.609680176,8060418.128967285,240367.6062822342,3411577.9399871826,-7068338.871002197,-7191699.504852295,-5735334.873199463,-7133377.0751953125,-46705181.12182617,2955641.269683838,-75820.58012485504,61596.449464559555,-9550503.730773926,-1429208.2786560059,-763402.6408195496,-21157144.54650879,-20785079.956054688,-46919509.88769531,-820692.5988197327,-1758271.57497406,-12787774.085998535,-9255791.664123535,-637820.6014633179,-23969898.223876953,-20423540.115356445,-31400695.80078125,-46879425.048828125,-1530085.802078247,-2003553.867340088,-1898244.857788086,-29644020.080566406,-29556991.577148438,-25476411.819458008,-31808389.66369629,-32223590.850830078,-31595293.045043945,-4338272.571563721,-3127815.7234191895,-2809086.561203003,-29152727.127075195,-30823324.20349121,-29833568.572998047,-30504226.684570312,-3730602.979660034,-3415465.3549194336,-29731494.903564453,-29337629.318237305,-29564626.693725586
0.43,4823175.90713501,-5852864.742279053,-14322982.788085938,3392890.214920044,-2511856.5559387207,7772866.725921631,8254832.2677612305,8290155.410766602,-12755777.359008789,-19342084.884643555,-14103768.348693848,-14292767.524719238,-14309220.314025879,-46451816.55883789,6732921.600341797,7336480.140686035,-2315439.7010803223,-478503.2570362091,-13484642.028808594,-13531829.833984375,-12419070.24383545,-14181262.969970703,-47054977.41699219,5641441.345214844,2380887.269973755,1624120.3546524048,-9016901.016235352,-1536034.107208252,-945302.3076057434,-20116939.544677734,-20336566.925048828,-47266002.6550293,2572554.349899292,1947908.9975357056,-8845963.478088379,-5952261.924743652,-789021.0747718811,-17449909.210205078,-19708803.176879883,-25794925.689697266,-47061359.40551758,2049457.5500488281,1754388.451576233,1934758.186340332,-22438543.31970215,-22403625.48828125,-19001327.514648438,-26017564.77355957,-26626510.620117188,-25934463.500976562,-55784.53838825226,985430.3598403931,1421894.6695327759,-22138050.079345703,-24370121.002197266,-23252302.169799805,-24005500.79345703,578442.5139427185,940446.674823761,-22629800.79650879,-22400827.407836914,-22471916.19873047
0.435,-3938916.2063598633,-15249804.496765137,-24041976.928710938,-296115.0109767914,-8905159.950256348,12352316.856384277,12503494.262695312,12544293.403625488,-13369293.212890625,-20398508.071899414,-17052003.860473633,-17470966.339111328,-17533063.888549805,-44946338.65356445,11756714.820861816,9917056.0836792,-975029.7665596008,-939471.8408584595,-16619409.561157227,-16440109.252929688,-15499774.932861328,-17567098.61755371,-45449508.66699219,11254179.000854492,6746638.298034668,4607098.579406738,-7338206.2911987305,-1493936.6579055786,-704533.4577560425,-18111942.291259766,-18562646.865844727,-45632022.857666016,8410297.393798828,8070141.792297363,-4283791.542053223,-2529546.4992523193,-982082.6649665833,-10001396.179199219,-17729869.842529297,-16851116.180419922,-45398036.95678711,8103770.2560424805,7966601.848602295,8148358.345031738,-13343526.840209961,-13175620.079040527,-11673740.38696289,-16901496.88720703,-17834674.835205078,-16987596.51184082,6591641.426086426,7483710.289001465,8086555.480957031,-13003609.657287598,-15057638.168334961,-13807139.39666748,-14649415.016174316,7111524.1050720215,7521077.632904053,-13413178.443908691,-12926787.376403809,-12852145.195007324
0.44,646637.9165649414,-9954888.343811035,-18742942.810058594,4187925.338745117,-2358423.4714508057,14093678.47442627,14383003.234863281,14481799.125671387,-8449677.467346191,-13956179.61883545,-13198810.577392578,-13510526.657104492,-13589990.615844727,-42119731.90307617,13393553.733825684,11526714.324951172,2069960.355758667,1828839.5404815674,-13216328.620910645,-12835146.9039917,-11890665.054321289,-13701913.833618164,-42644920.349121094,12702133.178710938,7416588.78326416,5538422.584533691,-6424845.6954956055,-1334217.0715332031,-209104.89559173584,-16208604.81262207,-16401561.737060547,-42742832.18383789,9619698.524475098,9185254.096984863,-3880741.834640503,-2550584.7930908203,-1000388.6222839355,-8799888.610839844,-15548345.565795898,-13160218.238830566,-42662075.04272461,9269236.56463623,9207629.203796387,9367247.581481934,-11511141.777038574,-11049101.829528809,-10539949.417114258,-13281947.135925293,-14264248.847961426,-13399649.620056152,7714652.061462402,8635890.007019043,9367733.001708984,-10882285.118103027,-11983294.486999512,-10799900.05493164,-11684987.06817627,8195569.99206543,8558421.13494873,-11303616.523742676,-10286690.711975098,-10291458.129882812
0.445,3649950.2658843994,-5838246.822357178,-13454534.530639648,5815784.454345703,4118329.5249938965,10279915.809631348,10935291.290283203,11064043.045043945,-6301739.21585083,-9684788.703918457,-8781194.686889648,-8750177.383422852,-8851454.734802246,-41274749.755859375,9350862.503051758,8809260.368347168,2119163.2747650146,3341272.8309631348,-8835453.033447266,-8400733.947753906,-7452938.079833984,-8906435.9664917,-41966789.24560547,8211869.239807129,3216233.253479004,3089872.5986480713,-7323780.536651611,-1148408.7705612183,133955.86609840393,-16018896.102905273,-16048093.795776367,-42022499.084472656,5109160.900115967,4256568.908691406,-7133270.263671875,-5212793.827056885,-848474.383354187,-13424576.759338379,-15166883.46862793,-16725690.841674805,-42056098.93798828,4458505.153656006,4408620.834350586,4620339.870452881,-16870119.094848633,-16149276.733398438,-15151419.639587402,-17073833.465576172,-17810335.159301758,-17077394.485473633,2592325.448989868,3623366.117477417,4366890.430450439,-15985587.120056152,-16314990.997314453,-15419322.967529297,-16242418.28918457,3216116.9052124023,3413370.370864868,-16499862.670898438,-15164609.909057617,-15368810.653686523
0.45,-1252272.7251052856,-10943638.801574707,-17383460.998535156,1076305.5086135864,1024822.5927352905,5581149.101257324,6416740.417480469,6500088.214874268,-10180107.116699219,-13144924.16381836,-9761107.444763184,-9457728.385925293,-9504100.799560547,-42515846.252441406,4652015.686035156,4710606.098175049,-963003.396987915,1602036.8337631226,-9345100.402832031,-8989750.862121582,-8042626.38092041,-9509598.731994629,-43448272.705078125,3503766.7751312256,-994564.1160011292,-156067.1478509903,-9062164.306640625,-1111486.4349365234,54175.31728744507,-17391086.57836914,-17113927.841186523,-43556060.791015625,710478.1866073608,-430097.8183746338,-9967350.959777832,-7285861.015319824,-777230.441570282,-17516597.747802734,-16647089.004516602,-21537727.35595703,-43521709.44213867,-162829.33950424194,-262496.32239341736,62436.96063756943,-21637702.94189453,-20847663.87939453,-19302593.231201172,-22016977.310180664,-22587429.04663086,-21914760.58959961,-2050359.2491149902,-1002307.1765899658,-332093.745470047,-20659988.403320312,-21159778.594970703,-20538919.44885254,-21225635.528564453,-1216736.078262329,-1183269.3815231323,-21227157.592773438,-20133125.30517578,-20388252.25830078
0.455,-2979129.5528411865,-13678351.402282715,-20730684.280395508,-1328943.133354187,-4628582.47756958,5169221.4012146,5965144.157409668,5972310.0662231445,-14607419.967651367,-18979572.296142578,-13955606.460571289,-13578451.156616211,-13402316.093444824,-42573329.92553711,4297756.195068359,4124069.6907043457,-2803180.21774292,-397829.3538093567,-13184888.83972168,-12944119.453430176,-11885368.347167969,-13441878.318786621,-43649982.45239258,3409039.02053833,-1096653.5806655884,-1130623.3406066895,-9960650.444030762,-1286845.2072143555,-326910.2871417999,-18773172.37854004,-17250276.565551758,-43811050.41503906,651691.198348999,-361723.8402366638,-10450731.27746582,-7592111.587524414,-885665.9531593323,-17891649.24621582,-18207664.489746094,-22771406.173706055,-43669357.29980469,-148726.73153877258,-331955.7309150696,33055.64820766449,-21704189.30053711,-21004430.770874023,-19853349.685668945,-23243459.701538086,-23941896.438598633,-23135402.67944336,-1836734.8909378052,-899609.2081069946,-223264.9177312851,-20668195.724487305,-21949092.864990234,-21331306.45751953,-21978073.120117188,-863071.3224411011,-909979.7010421753,-21159452.438354492,-20667266.845703125,-20843948.364257812
0.46,4196838.37890625,-6314323.902130127,-15484650.611877441,3193624.258041382,-3711272.954940796,7605330.467224121,8360945.701599121,8316665.6494140625,-14710024.8336792,-20033380.50842285,-15610986.709594727,-15321113.586425781,-14920565.605163574,-41239501.953125,6610406.875610352,6563202.381134033,-1267421.9608306885,348112.1361255646,-14956348.419189453,-14765343.66607666,-13590601.921081543,-14967280.387878418,-42233543.395996094,5666316.032409668,1238240.8380508423,58361.55638098717,-9430240.631103516,-1451263.427734375,-628889.7395133972,-19811897.27783203,-16804065.704345703,-42374504.08935547,2485964.53666687,1803128.719329834,-10127842.903137207,-7551575.183868408,-938083.0526351929,-17478359.22241211,-19229732.513427734,-22453668.59436035,-42254112.243652344,1891072.6308822632,1705639.0047073364,1962089.7769927979,-20746818.54248047,-20165790.557861328,-19508890.15197754,-22932739.2578125,-23813127.517700195,-22825254.440307617,230912.37246990204,996836.4238739014,1848524.6896743774,-19631248.474121094,-21456544.876098633,-20562366.485595703,-21390102.38647461,1250500.5598068237,1112439.3939971924,-20000345.23010254,-19896507.263183594,-20155206.68029785
0.465,8051643.371582031,-792932.92760849,-11195599.555969238,6686286.449432373,33066.9991672039,7864097.118377686,8598715.782165527,8543867.111206055,-12691502.571105957,-16829990.38696289,-13677675.247192383,-13628326.416015625,-13295647.621154785,-42594757.080078125,6700150.012969971,7281682.968139648,776006.4005851746,2661182.165145874,-13234558.10546875,-12967866.897583008,-11954552.65045166,-13241449.356079102,-43373470.306396484,5433881.759643555,1935606.0028076172,1075042.6054000854,-8185484.886169434,-1331815.3619766235,-620537.8770828247,-21410747.528076172,-18694091.796875,-43503078.46069336,2006575.584411621,1499213.9339447021,-10463397.979736328,-8165046.691894531,-750573.5754966736,-19004098.892211914,-20697549.81994629,-24086656.57043457,-43452049.255371094,1493486.1660003662,1471270.9188461304,1550991.2967681885,-22579610.82458496,-22056917.190551758,-20812932.96813965,-24625297.54638672,-25426818.84765625,-24391901.01623535,-293560.9817504883,298398.1966972351,1336559.2956542969,-21493188.858032227,-23287527.084350586,-22093767.166137695,-23168323.516845703,676033.5564613342,362895.10130882263,-21854770.66040039,-21604784.01184082,-22163290.02380371
0.47,-1969797.2536087036,-9598034.858703613,-18860303.87878418,1680479.645729065,-2201665.4014587402,5120401.382446289,5709399.223327637,5682330.60836792,-12828249.93133545,-14740927.696228027,-11776443.481445312,-12066731.452941895,-12074578.285217285,-47462547.302246094,4004894.256591797,4711950.302124023,363927.9305934906,3612951.9939422607,-11238821.983337402,-10800538.063049316,-10216962.814331055,-11915408.13446045,-48141036.98730469,2749278.5453796387,408198.5056400299,840207.5171470642,-7181174.755096436,-1011028.2897949219,-443753.8981437683,-22897216.796875,-22423633.575439453,-48362453.46069336,-299388.73648643494,-797578.8712501526,-10683584.213256836,-8626156.8069458,-535945.475101471,-20259447.09777832,-22163963.317871094,-25763019.561767578,-48262649.53613281,-825762.2718811035,-622934.8182678223,-676196.9923973083,-24643959.045410156,-24104965.209960938,-21718095.779418945,-26285778.045654297,-26809944.15283203,-25837272.64404297,-2545458.3168029785,-2057434.7972869873,-1068877.5777816772,-23723939.895629883,-25142204.28466797,-23891347.885131836,-24952968.59741211,-1743850.2311706543,-2156906.6047668457,-24192911.14807129,-23501476.287841797,-24256361.00769043
0.475,-16548803.329467773,-24758056.640625,-31774477.005004883,-6747684.478759766,-9550639.152526855,3376244.068145752,3763961.5535736084,3785270.929336548,-14895542.14477539,-15983685.493469238,-12109272.956848145,-12606927.871704102,-12842483.520507812,-49944664.001464844,2502701.5209198,2503704.54788208,-1220962.2859954834,2898652.5535583496,-11340034.484863281,-10779056.549072266,-10470702.171325684,-12694234.848022461,-50728919.982910156,1732184.4100952148,-606337.1300697327,350873.4703063965,-6787489.891052246,-869831.8004608154,-378252.3274421692,-21919181.82373047,-22819467.544555664,-51066970.82519531,-771943.2711601257,-1153916.0013198853,-9813006.401062012,-8182663.917541504,-609278.678894043,-18319168.090820312,-21273038.864135742,-23130628.58581543,-50851684.5703125,-1182645.7977294922,-921880.6028366089,-1029277.6823043823,-22496423.721313477,-21883161.544799805,-19599512.100219727,-23530097.96142578,-23925834.65576172,-22975868.225097656,-2620008.945465088,-2047294.1398620605,-1369325.6378173828,-21657489.776611328,-22597629.54711914,-21554185.86730957,-22257802.963256836,-2025770.1873779297,-2271243.3338165283,-22176969.528198242,-21174682.6171875,-21797904.96826172
0.48,-19960914.611816406,-29607969.284057617,-35312835.693359375,-9042040.824890137,-13680189.13269043,4920353.412628174,5295472.145080566,5331332.683563232,-15824992.179870605,-18118415.83251953,-13093613.624572754,-13475976.943969727,-13584109.30633545,-45503627.77709961,4259450.435638428,3489483.8333129883,-1117592.5731658936,2528075.2182006836,-12284946.44165039,-11789977.073669434,-11280910.49194336,-13504969.596862793,-46424213.40942383,3862892.8661346436,127532.43744373322,352668.6131954193,-6849587.917327881,-1058910.846710205,-441823.21429252625,-18297525.40588379,-17502641.677856445,-46745719.90966797,1446098.9236831665,1371606.469154358,-8837084.770202637,-7670665.740966797,-878630.2804946899,-15085389.137268066,-17661249.1607666,-17098258.97216797,-46545726.77612305,1326357.6030731201,1358952.522277832,1305318.5939788818,-17317243.576049805,-16586460.11352539,-16396835.327148438,-17420015.335083008,-18023578.643798828,-16992340.087890625,9919.359348714352,881912.112236023,1229077.4583816528,-16278743.743896484,-16781887.05444336,-15987223.625183105,-16306398.391723633,552839.9348258972,612526.4763832092,-16715450.286865234,-15652699.47052002,-16023515.701293945
0.485,-12687954.902648926,-22962707.51953125,-28309719.08569336,-4999052.52456665,-11483548.164367676,7508134.365081787,8036451.33972168,8009843.826293945,-14846143.72253418,-18394626.61743164,-12657186.508178711,-12746605.87310791,-12598593.711853027,-38265411.376953125,6955072.87979126,5717559.337615967,591092.1096801758,3340003.728866577,-11942365.646362305,-11649099.349975586,-10701507.568359375,-12512635.231018066,-39175655.364990234,6397662.63961792,1013898.6110687256,302317.7683353424,-7001500.606536865,-1259983.3011627197,-377930.9391975403,-15264751.434326172,-11472250.938415527,-39339302.06298828,3804092.4072265625,3959459.3048095703,-9078678.131103516,-8081233.978271484,-927423.2387542725,-14314516.067504883,-14502405.166625977,-13046300.888061523,-39316345.21484375,3930813.789367676,3582661.1518859863,3732195.8541870117,-13989338.874816895,-13114413.261413574,-15653318.405151367,-13416642.189025879,-14383950.233459473,-13235461.235046387,2434513.3304595947,3625867.8436279297,3867167.2344207764,-12585630.416870117,-12940529.823303223,-12208818.435668945,-12479785.919189453,3175849.9145507812,3318599.224090576,-12945576.667785645,-11916090.01159668,-12221992.492675781
0.49,-8720349.311828613,-18562765.12145996,-22893692.016601562,-2274475.09765625,-7859444.141387939,9050402.641296387,9558393.478393555,9436750.411987305,-13783782.958984375,-16755140.30456543,-11224318.504333496,-11163261.413574219,-10968296.05102539,-35265628.814697266,8636906.623840332,6566020.0119018555,1797738.6713027954,4048815.2503967285,-10528851.509094238,-10355011.940002441,-9242929.458618164,-10797350.883483887,-36060501.09863281,7781865.119934082,1484870.433807373,319626.0333061218,-6680573.463439941,-1125437.2596740723,-64651.697874069214,-14926264.762878418,-10268774.032592773,-36081314.08691406,5439243.793487549,5500154.0184021,-9188562.393188477,-8365117.073059082,-596249.4611740112,-14657159.805297852,-14022923.469543457,-12159760.475158691,-36217166.900634766,5572365.760803223,4972924.709320068,5376879.692077637,-12785362.243652344,-11792706.489562988,-15890659.33227539,-12540727.615356445,-13695057.86895752,-12526787.757873535,3986707.4489593506,5245046.615600586,5633874.893188477,-11167076.110839844,-11785422.325134277,-10932632.446289062,-11471179.962158203,4999968.528747559,4904738.426208496,-11567502.975463867,-10576244.354248047,-10972115.516662598
0.495,-14538808.822631836,-23897562.02697754,-26058078.76586914,-4304931.163787842,-7142079.3533325195,11017771.72088623,11206114.768981934,11056567.192077637,-13664904.594421387,-15029959.678649902,-10620252.60925293,-10619913.101196289,-10555858.612060547,-36414424.896240234,10877117.156982422,7322578.430175781,2292294.502258301,3584703.4454345703,-9988826.751708984,-9726075.172424316,-8857275.009155273,-10330358.505249023,-37109710.693359375,10217874.526977539,3712322.950363159,2027054.786682129,-5391223.430633545,-770544.171333313,249579.9958705902,-14930536.270141602,-11876637.45880127,-37125988.0065918,8643198.013305664,8429654.121398926,-6244917.392730713,-6408943.653106689,-203522.9206085205,-10984727.85949707,-13975560.188293457,-9393538.475036621,-37271980.28564453,8603891.372680664,8064904.21295166,8522233.963012695,-8775749.206542969,-7782707.691192627,-12062685.012817383,-9571451.187133789,-10595785.140991211,-9621555.32836914,7391700.744628906,8410019.874572754,9028526.306152344,-7275704.383850098,-8202768.325805664,-7247158.527374268,-8027665.138244629,8470275.87890625,8136429.786682129,-7710987.091064453,-6805755.615234375,-7203489.303588867
