time,Fp1,Fpz,Fp2,AF3,AF4,F7,F5,F3,F1,Fz,F2,F4,F6,F8,FT7,FC5,FC3,FC1,FCz,FC2,FC4,FC6,FT8,T7,C5,C3,C1,Cz,C2,C4,C6,T8,TP7,CP5,CP3,CP1,CPz,CP2,CP4,CP6,TP8,P7,P5,P3,P1,Pz,P2,P4,P6,P8,PO7,PO5,PO3,POz,PO4,PO6,PO8,CB1,O1,Oz,O2,CB2
0.0,-6090181.350708008,-5887195.587158203,-6263848.304748535,-3232242.3458099365,-3437908.64944458,-934719.3241119385,-1281824.1119384766,-1351581.4542770386,-1414100.8853912354,-1498518.1093215942,-1824704.7662734985,-2535976.4099121094,-2586164.951324463,-2623962.163925171,-929793.5962677002,516954.77962493896,-612865.4479980469,-672659.5163345337,-648207.4856758118,-1033620.7151412964,-1594016.7903900146,-1811217.3080444336,-1923599.9584197998,-1036172.0323562622,-235464.6772146225,-438008.8448524475,-613597.571849823,-48476.33093595505,-782247.006893158,-1059955.358505249,-1722116.231918335,-1912868.4997558594,-991936.3260269165,-492443.0251121521,210176.84042453766,-26646.902784705162,-101396.843791008,-360978.24573516846,-536188.6024475098,-504783.3323478699,-502974.56979751587,-958638.4296417236,195300.45986175537,261650.7112979889,743234.3363761902,-45446.865260601044,-260285.8543395996,-539219.081401825,-617852.0321846008,-549885.630607605,562561.3331794739,518241.0478591919,922237.8730773926,93527.60016918182,-604628.2649040222,-564599.9908447266,-590739.905834198,792679.3694496155,803241.9681549072,54240.71103334427,-606896.8176841736,-562403.0232429504
0.005,2049546.9570159912,12615758.895874023,5898129.463195801,8492038.72680664,2808920.6218719482,22873687.744140625,14572280.883789062,12197085.3805542,10485266.68548584,8223752.975463867,6666882.9917907715,3845419.16847229,3299673.080444336,4302543.163299561,-8371689.796447754,15540368.08013916,8532932.28149414,7274061.20300293,6297674.655914307,4315783.0238342285,1153478.3840179443,-414985.0606918335,-753584.623336792,-10507410.049438477,3175934.314727783,4632200.717926025,2034349.2031097412,-123798.65348339081,1945199.4895935059,-1441553.8311004639,-8427890.77758789,-355251.10363960266,-10647392.272949219,-6165503.978729248,-621245.3842163086,111616.92440509796,-667405.1880836487,-350036.3230705261,-1930627.703666687,-8350939.750671387,-8401780.128479004,-10028532.981872559,-989649.7130393982,107274.50996637344,608584.7020149231,-399899.8701572418,-8103711.128234863,-9838159.561157227,-11084452.629089355,-9478811.264038086,-914661.3478660583,-1827325.3440856934,2184269.428253174,-7893707.275390625,-11942846.298217773,-11283259.391784668,-11436814.308166504,77100.2471446991,341745.64480781555,-8307495.1171875,-11878901.481628418,-10979821.20513916
0.01,922075.3312110901,17467439.651489258,6906995.77331543,10622698.783874512,2508195.8770751953,32438739.776611328,19185214.99633789,15744261.741638184,12836686.134338379,9820101.737976074,7905622.0054626465,3665073.3947753906,2873699.188232422,4224328.517913818,-10485804.557800293,22475198.74572754,11034264.56451416,8597453.117370605,7057526.588439941,4526633.262634277,-121355.46654462814,-3108682.155609131,-3931488.275527954,-13478383.06427002,4504570.007324219,6023082.733154297,2298748.254776001,-70525.48974752426,1496428.9665222168,-4042391.300201416,-15098839.75982666,-3394320.9648132324,-13547043.800354004,-7767300.605773926,466537.32657432556,231592.8190946579,-830845.4751968384,-1264827.847480774,-3951405.2867889404,-12136173.248291016,-12113985.061645508,-12684567.45147705,-6989.372428506613,1359866.738319397,1707261.2047195435,-453811.4666938782,-10263807.29675293,-13902922.630310059,-15435003.280639648,-13422151.565551758,1111356.7352294922,-194286.68916225433,4680977.821350098,-9208931.922912598,-16487125.396728516,-15660374.641418457,-16004247.665405273,2208616.018295288,2326327.8007507324,-9781949.996948242,-16524692.53540039,-15037189.483642578
0.015,-5674453.258514404,11099013.328552246,-745460.7486724854,5609205.24597168,-3080781.936645508,28839801.788330078,14453299.522399902,11153741.836547852,7764309.883117676,4873756.885528564,3028636.932373047,-1991316.0800933838,-2761170.1488494873,-1757812.8576278687,-7945456.981658936,21719108.58154297,7933442.59262085,4654771.80480957,2956577.777862549,874097.8837013245,-4502838.611602783,-8715264.320373535,-10039535.522460938,-10662659.645080566,4250371.932983398,4417809.009552002,719008.5053443909,-58128.21164727211,-1296653.151512146,-7858642.101287842,-20110834.1217041,-9644932.746887207,-10540474.891662598,-5776938.438415527,3191169.500350952,187325.8501291275,-826422.1549034119,-2755164.14642334,-5580543.518066406,-11520717.62084961,-11389750.480651855,-9681879.997253418,2808019.8764801025,3802462.8162384033,3954882.1449279785,-327381.4916610718,-7416032.791137695,-12595603.942871094,-13735510.82611084,-12245798.110961914,5939500.331878662,4747374.534606934,8444448.471069336,-4985443.592071533,-14457441.329956055,-13823018.074035645,-14340653.419494629,6484897.136688232,6300691.604614258,-5575223.922729492,-14643323.89831543,-12939491.271972656
0.02,-9394297.59979248,4693122.863769531,-7113602.638244629,1487996.8166351318,-8352815.628051758,22036033.630371094,9614598.274230957,6717514.514923096,3688721.6567993164,559325.4566192627,-1702304.9592971802,-7030948.638916016,-7673535.346984863,-7079731.464385986,-6470585.346221924,18308174.13330078,4425491.3330078125,1224866.8670654297,-325484.9910736084,-1666413.1879806519,-8045939.4454956055,-12521958.351135254,-13977272.987365723,-8722693.44329834,3334438.5623931885,2544242.3820495605,-697273.1947898865,-329144.1202163696,-3143933.5346221924,-10076712.608337402,-21640401.84020996,-13812710.762023926,-8563574.79095459,-4340861.3204956055,5214048.862457275,-106882.4753165245,-1128786.0870361328,-3590508.460998535,-5395830.154418945,-9349385.261535645,-9236985.206604004,-7664193.630218506,4936341.285705566,5636670.112609863,6036941.051483154,-360536.8733406067,-4408977.98538208,-9895832.061767578,-10788338.661193848,-9721567.153930664,9425209.999084473,8490540.504455566,11728001.594543457,-1788750.7677078247,-11324698.448181152,-10833782.196044922,-11357554.43572998,8948702.812194824,8829947.471618652,-2437953.9489746094,-11492435.455322266,-9843979.835510254
0.025,-11434160.232543945,1419337.8686904907,-9680390.357971191,-773401.67760849,-11794261.932373047,16323436.737060547,7640638.35144043,4813959.59854126,2818035.125732422,-928657.8893661499,-4019294.7387695312,-8997917.175292969,-9538634.300231934,-8882943.153381348,-9710192.680358887,14092115.40222168,2060732.6030731201,-101395.6144452095,-1128514.7666931152,-1863150.954246521,-9551923.751831055,-12832359.313964844,-14033726.692199707,-11915272.71270752,957009.7923278809,936975.89635849,-1533592.8201675415,-805173.5162734985,-3017402.410507202,-10172380.447387695,-20641780.853271484,-13954782.485961914,-11836047.172546387,-5963430.881500244,4983868.12210083,-472246.4382648468,-1678155.1837921143,-3324234.4856262207,-3935985.0883483887,-8224094.390869141,-8230587.959289551,-10841255.187988281,4803804.397583008,5670222.282409668,7162348.747253418,-609238.9225959778,-3552018.165588379,-8927156.448364258,-9984778.40423584,-8808372.497558594,9063410.758972168,8214015.007019043,12642254.829406738,-2867341.0415649414,-10734223.365783691,-10186697.006225586,-10553057.670593262,6954537.868499756,7266276.3595581055,-3615123.987197876,-10745756.149291992,-9228768.348693848
0.03,-17385448.455810547,-3310985.326766968,-13851504.3258667,-4946546.0777282715,-16167522.430419922,11521266.93725586,5420094.4900512695,2468074.083328247,1225976.4671325684,-3161530.7331085205,-6881081.581115723,-11332891.464233398,-11827986.717224121,-10791670.799255371,-14205315.589904785,9515056.610107422,-541968.7628746033,-2040198.802947998,-2634938.0016326904,-3217904.3292999268,-11776977.5390625,-13351909.637451172,-14254129.409790039,-16600805.282592773,-2368569.6125030518,-870410.9787940979,-2555752.992630005,-1141319.2749023438,-3285057.783126831,-10806125.64086914,-20931018.829345703,-14048091.888427734,-16480930.32836914,-8278490.06652832,4136692.0471191406,-637630.4030418396,-1966531.753540039,-3091474.5330810547,-3532719.850540161,-8742973.327636719,-8793241.500854492,-15541520.118713379,4076160.430908203,5299594.402313232,8357991.2185668945,-778304.3384552002,-3251120.090484619,-9709487.915039062,-10937583.923339844,-9549350.73852539,7306189.53704834,6373903.751373291,11943454.74243164,-4968652.248382568,-11925302.505493164,-11275091.171264648,-11545582.77130127,3133563.280105591,3710186.48147583,-5743146.4195251465,-11831414.222717285,-10394792.556762695
0.035,-22699527.740478516,-8420757.293701172,-20623355.865478516,-8230884.552001953,-21413633.346557617,12728523.254394531,4258999.824523926,1212875.485420227,-920810.7590675354,-6839067.9359436035,-11290528.297424316,-16895021.438598633,-17411224.365234375,-16287601.470947266,-13162161.827087402,9163126.945495605,-1552537.3220443726,-4436942.100524902,-5790475.845336914,-7368913.650512695,-16561506.271362305,-18019992.82836914,-19040546.417236328,-15665171.62322998,-2386999.6070861816,-1011206.865310669,-3051891.565322876,-1142466.66431427,-5830080.032348633,-14070186.614990234,-25140581.130981445,-18635719.299316406,-15398301.124572754,-7197684.288024902,5655745.506286621,-551892.101764679,-1795688.509941101,-4273293.018341064,-5622792.2439575195,-10519670.486450195,-10487076.759338379,-14641478.538513184,5604897.022247314,6984905.242919922,10923691.749572754,-656612.0386123657,-2540800.8098602295,-11232388.496398926,-12395928.382873535,-11036230.087280273,8350282.669067383,7322926.5213012695,12382143.020629883,-4184542.179107666,-13303224.563598633,-12569169.998168945,-12994240.760803223,2648800.3730773926,3026090.621948242,-4946198.463439941,-13177462.577819824,-11772936.820983887
0.04,-16674613.952636719,-6013079.1664123535,-23058452.606201172,-2982257.127761841,-23022676.467895508,25933301.92565918,10008028.984069824,6862009.525299072,2044116.0202026367,-7051327.705383301,-13241841.316223145,-22985065.460205078,-23597270.965576172,-23006153.106689453,-5209475.517272949,17378145.217895508,2960914.134979248,-2976268.768310547,-6486371.040344238,-10492971.420288086,-21379850.387573242,-25264284.133911133,-27561958.31298828,-7798583.507537842,3882512.092590332,2672809.600830078,-1224125.3852844238,-916629.0163993835,-8995071.411132812,-18365131.378173828,-31407152.17590332,-27102756.50024414,-7539119.243621826,-2651598.9303588867,9421239.852905273,-361533.64181518555,-1481803.4172058105,-6585961.34185791,-9162420.272827148,-13321006.774902344,-13219906.8069458,-6816654.682159424,9154160.499572754,10444703.102111816,13770860.67199707,-391607.96999931335,-3138967.990875244,-13516146.659851074,-14614086.151123047,-13312525.749206543,12157804.489135742,11050732.612609863,14408856.391906738,-1748366.4751052856,-15268398.28491211,-14369931.2210083,-15080303.192138672,6134327.411651611,6155311.584472656,-2568866.968154907,-15052862.167358398,-13671370.506286621
0.045,-1634953.8564682007,4123968.1243896484,-18167125.701904297,9070082.664489746,-19679790.496826172,43895084.381103516,21187015.533447266,17957468.032836914,10563252.449035645,-1778592.1096801758,-10455711.364746094,-25566287.994384766,-26302255.630493164,-26525043.487548828,2889843.702316284,28808746.337890625,11080437.660217285,3087337.7323150635,-2328403.7113189697,-8975818.634033203,-22920896.530151367,-30130285.263061523,-35182495.1171875,108190.20122289658,11988388.061523438,7783864.498138428,2280797.9583740234,-657289.8030281067,-9993652.34375,-20522603.98864746,-35564819.3359375,-34894638.06152344,160041.82398319244,805436.9688034058,11701715.469360352,-179196.98357582092,-1322054.5053482056,-8194493.293762207,-11853489.875793457,-16452821.731567383,-16405200.958251953,1065477.2520065308,11191190.719604492,12336432.456970215,14379538.536071777,-265700.42967796326,-5644585.132598877,-16491724.014282227,-17691740.036010742,-16300775.527954102,14177430.152893066,12930870.056152344,15014352.798461914,-1660677.9098510742,-18238389.96887207,-17155950.54626465,-17980979.919433594,8317648.887634277,8255537.986755371,-2571623.3253479004,-17893993.377685547,-16507099.151611328
0.05,5371121.406555176,9696155.548095703,-14032435.417175293,14603107.452392578,-17587091.44592285,49436412.8112793,26474468.231201172,23371461.868286133,15587803.840637207,2403435.230255127,-7907053.470611572,-25829534.53063965,-26632301.330566406,-27351118.087768555,3858817.5773620605,31828880.310058594,14483558.654785156,7125793.933868408,1792350.172996521,-5835029.602050781,-22370195.388793945,-31249134.063720703,-39129722.595214844,972447.395324707,14014510.154724121,9002604.484558105,3860676.050186157,-477240.29421806335,-9153961.181640625,-20178356.170654297,-36324520.111083984,-39087226.86767578,912583.3511352539,-93079.46264743805,10398969.650268555,-45432.135462760925,-1273325.4432678223,-7936607.360839844,-12319390.296936035,-18310277.938842773,-18355632.781982422,1912476.1819839478,9952407.836914062,11024456.024169922,12955492.01965332,-354260.2062225342,-7139208.3168029785,-18572904.586791992,-19855003.356933594,-18478734.970092773,11889799.118041992,10499526.977539062,12665634.155273438,-4440819.263458252,-20462867.736816406,-19438985.82458496,-20120210.647583008,5453803.062438965,5598460.674285889,-5340103.626251221,-20139774.322509766,-18690071.10595703
0.055,-4034776.6876220703,2681229.591369629,-18307756.423950195,6109310.626983643,-22285362.243652344,37684799.19433594,19530569.076538086,16700277.328491211,10304720.878601074,-1555320.2629089355,-11635443.687438965,-28157560.348510742,-28942321.77734375,-29606426.239013672,-1398150.4440307617,23983900.07019043,9177623.748779297,3323076.009750366,-489425.33135414124,-7070526.599884033,-23699968.338012695,-32014842.987060547,-40374382.01904297,-4077897.548675537,9085621.83380127,5484075.06942749,1595662.8322601318,-450983.4349155426,-9333849.906921387,-19880798.33984375,-36200466.15600586,-40406986.236572266,-3969610.2142333984,-2779695.749282837,8592727.661132812,-30179.422348737717,-1240403.175354004,-6729036.331176758,-10919751.167297363,-17848588.943481445,-17891038.89465332,-3199918.270111084,8505969.047546387,9580185.890197754,13008017.539978027,-519945.6214904785,-5327054.977416992,-18204521.17919922,-19403636.932373047,-18324262.619018555,8707390.785217285,7364159.58404541,10562209.129333496,-6612607.002258301,-20045436.85913086,-19369632.720947266,-19872089.385986328,872564.1965866089,1230519.413948059,-7418112.754821777,-19921197.89123535,-18412914.276123047
0.06,-15503184.31854248,-6955365.180969238,-24982583.99963379,-5872744.083404541,-28889513.01574707,24888881.68334961,9708718.299865723,6877848.6251831055,1212803.4830093384,-9994380.950927734,-18689548.49243164,-32017574.310302734,-32753665.924072266,-33093261.71875,-5305752.754211426,16849367.141723633,2199856.996536255,-4250148.296356201,-7218495.3689575195,-12277628.898620605,-26838001.251220703,-33955924.98779297,-40273899.07836914,-7668615.818023682,4994330.883026123,2660072.3266601562,-1484785.0799560547,-596031.4869880676,-11086857.795715332,-20709428.787231445,-36837867.736816406,-40137062.072753906,-7343674.659729004,-2443706.0356140137,10103012.084960938,-165973.499417305,-1304927.5875091553,-6165102.958679199,-8972700.119018555,-16112247.467041016,-16073680.877685547,-6920939.4454956055,10277945.518493652,11393092.155456543,15843706.130981445,-645754.9333572388,-2880446.672439575,-16304615.020751953,-17420143.127441406,-16591236.114501953,8854187.965393066,7798151.969909668,11716263.771057129,-6344886.779785156,-18037242.889404297,-17646606.4453125,-18115581.512451172,-168025.07638931274,239283.85972976685,-7127929.210662842,-18034221.649169922,-16584938.049316406
0.065,-10954221.725463867,-3712597.370147705,-21569272.994995117,-5649815.559387207,-26888467.78869629,27807649.612426758,10628144.264221191,7358968.734741211,680894.9112892151,-11856354.713439941,-19234874.725341797,-31133016.58630371,-31863960.26611328,-32036045.07446289,-3481490.37361145,20932624.81689453,2924078.7029266357,-5998165.130615234,-9488233.56628418,-13975303.649902344,-26538198.471069336,-33423835.75439453,-38565624.23706055,-5833801.746368408,7465637.683868408,4692873.954772949,-1093567.2521591187,-761011.8985176086,-11170139.31274414,-20440797.805786133,-36488124.84741211,-38196334.83886719,-5542737.4839782715,764594.0184593201,12979475.021362305,-317445.0099468231,-1492847.4426269531,-6386853.218078613,-7832782.26852417,-15490049.362182617,-15440306.663513184,-5215250.015258789,13042396.545410156,14205047.607421875,17076087.951660156,-745598.0181694031,-4260791.301727295,-15735218.048095703,-16912351.608276367,-15922731.399536133,10558756.828308105,9776300.430297852,13136000.633239746,-6298135.280609131,-17619293.212890625,-17148460.388183594,-17614120.483398438,1327782.5117111206,1660590.1718139648,-7156345.367431641,-17463424.682617188,-16191841.125488281
0.07,6536151.885986328,12136535.64453125,-7051770.210266113,7059540.271759033,-14653292.655944824,41970275.87890625,21856538.772583008,18177484.5123291,10574151.992797852,-3329696.4168548584,-9863347.053527832,-22807315.826416016,-23602775.57373047,-23894412.994384766,604443.6693191528,31368724.822998047,10567769.050598145,530175.6262779236,-3392477.9891967773,-8059944.152832031,-20168203.353881836,-27876008.987426758,-35662368.77441406,-2076754.8084259033,12588569.641113281,8649052.619934082,2412925.4817962646,-740657.5679779053,-7462116.718292236,-17650865.55480957,-33899471.282958984,-35230438.232421875,-2001492.977142334,1716894.268989563,11632218.360900879,-299022.1679210663,-1618030.309677124,-6380688.190460205,-8448970.794677734,-17338724.13635254,-17416254.0435791,-1509277.8205871582,11378980.63659668,12585987.091064453,12262535.095214844,-866447.4487304688,-9104043.960571289,-18096094.131469727,-19334304.809570312,-17975755.69152832,8590005.874633789,7775340.0802612305,9771489.143371582,-9158432.960510254,-20286605.834960938,-19560827.255249023,-19888078.689575195,-35101.95389389992,195803.85088920593,-10055152.893066406,-19869491.577148438,-18734975.814819336
0.075,17882738.11340332,25039743.423461914,5613557.3387146,17669399.26147461,-3335907.6976776123,49695446.0144043,29979379.653930664,26430644.989013672,20038343.42956543,6586564.064025879,386456.4895629883,-13917128.562927246,-14807823.181152344,-15265327.453613281,1748248.815536499,35232818.603515625,15632220.268249512,7444366.455078125,4219190.1206970215,-544602.4537086487,-13248536.109924316,-22058910.369873047,-34392150.87890625,-1199042.3202514648,13249968.528747559,9058924.674987793,4487369.537353516,-582216.4416313171,-3183244.466781616,-15318762.77923584,-32118927.001953125,-34105594.635009766,-1231353.4021377563,-1937378.5257339478,5604658.603668213,-132616.8328523636,-1570302.3672103882,-5995672.225952148,-10974720.95489502,-20791921.615600586,-21025026.321411133,-650473.4754562378,5188041.210174561,6457919.597625732,4577470.302581787,-989398.0622291565,-12302893.63861084,-22016925.811767578,-23148086.547851562,-21706974.029541016,3050504.207611084,1930568.3374404907,3314359.426498413,-12832029.342651367,-24257049.560546875,-23526634.216308594,-23685914.993286133,-4769217.967987061,-4574105.262756348,-13675145.149230957,-23803661.346435547,-22620893.478393555
0.08,14522100.448608398,25218015.670776367,6536946.2966918945,16733085.632324219,-3159999.370574951,44990322.11303711,27252786.63635254,24217332.83996582,20323818.20678711,7951674.938201904,1182284.5935821533,-13015863.418579102,-13946701.049804688,-14326033.592224121,347858.190536499,29436487.197875977,13081982.612609863,7385426.998138428,4920339.584350586,162901.07369422913,-13093747.13897705,-22656492.233276367,-36922985.0769043,-2534022.092819214,9338531.494140625,5935152.053833008,2802819.25201416,-571600.1987457275,-3215108.3946228027,-17127637.86315918,-34733371.73461914,-36838855.7434082,-2509552.478790283,-5694444.179534912,1621835.708618164,-14271.887019276619,-1521429.181098938,-6176381.587982178,-14199832.916259766,-23686815.26184082,-23949754.71496582,-2085543.155670166,1315967.082977295,2664312.8395080566,2055210.3519439697,-1043996.2148666382,-10921766.28112793,-24743955.612182617,-25710369.110107422,-24537538.528442383,578151.8816947937,-792456.0308456421,1269022.7031707764,-12955521.583557129,-26652818.67980957,-26225414.276123047,-26412643.432617188,-6855522.155761719,-6556057.929992676,-13756111.145019531,-26464550.018310547,-25100187.301635742
0.085,7207435.607910156,19137619.018554688,268983.6025238037,10740066.528320312,-10699975.967407227,39383480.072021484,21161623.001098633,18424045.56274414,15473796.844482422,2542249.917984009,-5747812.271118164,-18920085.906982422,-19783592.224121094,-19858446.12121582,682435.9893798828,24093574.52392578,8576658.248901367,3010916.4714813232,-92937.8941655159,-5216092.586517334,-18744562.14904785,-28351943.969726562,-41032352.447509766,-1996600.9855270386,7207583.427429199,4476995.468139648,503583.31203460693,-796504.7955513,-7178440.570831299,-21454751.96838379,-39447093.96362305,-41070796.966552734,-1968238.9497756958,-4275411.128997803,4759499.073028564,-24508.759379386902,-1624764.4424438477,-7084382.5340271,-15876049.041748047,-24194044.11315918,-24349132.537841797,-1707513.0939483643,4662222.862243652,6039826.393127441,6887565.612792969,-985359.4303131104,-7781229.019165039,-24627281.188964844,-25575239.181518555,-24604034.423828125,5168676.376342773,3832732.915878296,6269305.229187012,-9067272.186279297,-26133419.036865234,-25934486.389160156,-26306623.458862305,-2666064.977645874,-2187942.2664642334,-9896876.335144043,-26242298.126220703,-24750495.91064453
0.09,7476729.869842529,16885997.772216797,-3177345.037460327,10406549.453735352,-14532436.37084961,43166595.458984375,22349330.90209961,19479299.545288086,14826701.164245605,-104440.80829620361,-9723745.346069336,-22330448.150634766,-23091007.232666016,-22965696.334838867,4127844.3336486816,27666015.625,9805545.806884766,2198728.561401367,-2508642.6734924316,-8192023.277282715,-21929613.11340332,-30785264.96887207,-42160800.93383789,1485990.047454834,10443075.180053711,7688684.463500977,1800643.9208984375,-930243.6709403992,-9506889.343261719,-22594114.303588867,-39826328.27758789,-42236427.307128906,1355627.8944015503,991506.3381195068,11326000.213623047,-33630.743622779846,-1696877.0027160645,-7457118.034362793,-14523547.172546387,-22017814.63623047,-22056148.529052734,1720166.4447784424,11317294.120788574,12636715.88897705,12270817.756652832,-833278.4175872803,-6968050.479888916,-22095088.958740234,-23154170.989990234,-22046209.33532715,12038505.554199219,10909043.312072754,11760285.377502441,-5338474.750518799,-23447212.21923828,-23124944.68688965,-23565118.78967285,3354735.1360321045,3874047.9946136475,-6174554.347991943,-23598068.237304688,-22136682.510375977
0.095,12024892.807006836,18078321.45690918,-2244498.0144500732,15544978.141784668,-10813443.183898926,51371009.826660156,29776376.724243164,26707954.40673828,19677900.314331055,3484631.299972534,-6062388.896942139,-18802034.378051758,-19567747.116088867,-19577480.31616211,7631955.623626709,36210601.806640625,16094533.920288086,6790609.359741211,1182979.941368103,-4718050.479888916,-18545043.9453125,-26291360.85510254,-39201370.23925781,4880466.461181641,15769124.031066895,12737981.796264648,6276789.665222168,-651988.4467124939,-7059995.651245117,-18740896.224975586,-34166412.353515625,-39268627.16674805,4594096.660614014,4356681.823730469,14054382.32421875,81613.83867263794,-1465254.9028396606,-6611323.356628418,-11253624.91607666,-18764711.380004883,-18776109.69543457,5217065.811157227,13960007.667541504,15207893.371582031,11888181.686401367,-644510.4479789734,-8549576.759338379,-19075958.251953125,-20210411.071777344,-18823358.5357666,14020384.788513184,13002303.123474121,11274544.715881348,-4939198.4939575195,-20504247.665405273,-19905313.49182129,-20202575.68359375,5047015.66696167,5391496.658325195,-5679914.951324463,-20459447.860717773,-19122840.881347656
0.1,11109815.59753418,16124387.741088867,-2640210.3900909424,17428558.349609375,-6833106.517791748,52863986.96899414,33589912.41455078,30589103.69873047,22933572.76916504,7077462.196350098,-1417641.1628723145,-14223708.152770996,-15115242.004394531,-15457611.083984375,8415146.827697754,40048675.537109375,20237579.345703125,10853155.136108398,5676484.107971191,-222160.57777404785,-13904067.993164062,-20962934.494018555,-35970451.35498047,5637603.759765625,18153844.833374023,15136315.34576416,9564534.187316895,-121774.42759275436,-3249217.2718048096,-14706528.663635254,-28589431.762695312,-35964488.9831543,5371205.3298950195,3647783.7562561035,11756566.047668457,272535.7413291931,-1020307.3024749756,-5747942.4476623535,-8934660.911560059,-16867244.720458984,-16908298.49243164,6068018.436431885,11501101.49383545,12753213.882446289,8064012.52746582,-457212.4779224396,-9734925.270080566,-17608747.482299805,-18726083.755493164,-17233427.047729492,11012139.320373535,9932342.529296875,7221719.264984131,-6465746.4027404785,-19098272.3236084,-18441598.892211914,-18610771.17919922,2812024.5933532715,2996781.587600708,-7086841.106414795,-18899364.471435547,-17674917.221069336
0.105,3377313.6138916016,9557828.903198242,-7143396.854400635,12113904.95300293,-9542881.965637207,46028751.373291016,29216722.48840332,26429033.279418945,20125528.33557129,4903692.245483398,-3148845.911026001,-15643784.523010254,-16594266.891479492,-17175851.821899414,6963112.354278564,36328773.498535156,18282917.022705078,9565907.47833252,5265522.003173828,-1027919.8884963989,-14607513.427734375,-21572982.788085938,-36054718.017578125,4311120.510101318,16449960.708618164,13916907.31048584,8916143.417358398,215995.99719047546,-2957644.7010040283,-15181562.423706055,-28936731.338500977,-35888587.951660156,4183819.29397583,2096103.4297943115,9605368.614196777,424878.41844558716,-735321.044921875,-6241550.922393799,-9165272.71270752,-17317134.857177734,-17374176.025390625,4720144.748687744,9226529.121398926,10536128.044128418,7053408.145904541,-264775.24638175964,-9417559.623718262,-18227472.30529785,-19298402.786254883,-17909278.869628906,8960586.547851562,7805617.809295654,6250804.901123047,-6874629.020690918,-19631374.35913086,-19180841.44592285,-19431692.123413086,1808053.6127090454,2084450.9601593018,-7471310.138702393,-19520338.05847168,-18377672.19543457
0.11,-4355341.43447876,2919416.1891937256,-12651709.55657959,5226583.957672119,-16315057.754516602,39117244.720458984,22546812.057495117,19848985.67199707,15271892.547607422,-261790.6928062439,-9114840.507507324,-21330802.91748047,-22118328.094482422,-22737709.045410156,5356861.114501953,30890861.51123047,13676179.885864258,5429033.279418945,1446195.0063705444,-5709748.268127441,-19455053.329467773,-26108249.66430664,-38013343.811035156,2840600.01373291,13348959.922790527,11555844.3069458,6154532.432556152,215968.5343503952,-6049365.997314453,-18490425.10986328,-32988815.307617188,-37690158.84399414,2815043.2109832764,2683493.3757781982,10973514.556884766,511623.3825683594,-769157.7076911926,-7653570.175170898,-10816349.029541016,-18627645.49255371,-18717803.955078125,3282664.2990112305,10546648.979187012,11887518.882751465,9686956.405639648,-69675.12518167496,-9226582.527160645,-19530557.63244629,-20543252.94494629,-19285030.364990234,11049941.062927246,9935971.2600708,9308233.261108398,-5652087.211608887,-20816154.47998047,-20534654.61730957,-20965065.002441406,4141838.550567627,4616546.154022217,-6313831.806182861,-20911300.659179688,-19875387.19177246
0.115,-7273265.838623047,-217728.43599319458,-15634422.302246094,3595574.8558044434,-19661491.39404297,38313579.55932617,20959682.46459961,18214054.107666016,14469015.121459961,-2080766.6778564453,-11957534.790039062,-24005012.51220703,-24530450.82092285,-25068101.88293457,4995505.809783936,29689046.85974121,11833698.272705078,3877176.523208618,-580594.8972702026,-8458690.643310547,-22179000.854492188,-27708383.560180664,-37892566.6809082,2530636.3105773926,12096467.018127441,10642726.89819336,4866564.2738342285,140099.6744632721,-8591232.299804688,-19820617.67578125,-34335704.8034668,-37571949.00512695,2533023.3573913574,4593958.854675293,13660136.222839355,583754.1818618774,-886918.1275367737,-8601523.399353027,-11960601.806640625,-18772855.758666992,-18988567.352294922,3224064.1117095947,13261509.895324707,14594006.538391113,11556213.37890625,69431.57315254211,-10587578.773498535,-19859994.888305664,-20752866.744995117,-19555301.666259766,14426259.04083252,13378403.663635254,11663496.017456055,-4400947.093963623,-21147047.04284668,-20779413.2232666,-21279693.603515625,6980523.109436035,7411897.659301758,-5121865.749359131,-21273815.155029297,-20405036.92626953
0.12,-5443345.069885254,1063194.0364837646,-14715896.606445312,7334484.100341797,-16946779.251098633,41754112.243652344,24508033.752441406,21698217.391967773,17911428.451538086,359696.2094306946,-9672597.885131836,-21002273.559570312,-21435577.392578125,-21783327.102661133,6626038.551330566,32496662.139892578,13798219.680786133,5851942.06237793,402569.62180137634,-7654183.387756348,-20579837.799072266,-24631448.74572754,-34974788.665771484,4170247.0779418945,14056743.621826172,11749858.856201172,6094789.505004883,196086.7941379547,-8789852.142333984,-18386768.341064453,-31592964.17236328,-34839637.756347656,4188855.1712036133,6172800.064086914,14777306.55670166,698144.8531150818,-810367.1669960022,-8774670.600891113,-12247386.932373047,-17675735.473632812,-18052497.86376953,5123371.124267578,14514306.06842041,15807518.95904541,10804822.92175293,103254.5194029808,-12614936.828613281,-19163784.02709961,-19874959.94567871,-18735576.629638672,15832716.941833496,14711990.356445312,11218970.29876709,-3782753.2291412354,-20506685.256958008,-19917043.685913086,-20394960.403442383,7760571.9566345215,7872571.94519043,-4515180.1109313965,-20429868.698120117,-19753393.173217773
0.125,212473.12426567078,7489063.739776611,-9125875.473022461,11701272.010803223,-11781940.460205078,44932617.1875,27862604.14123535,24933855.056762695,20947320.93811035,2653542.0417785645,-6759414.6728515625,-16424938.201904297,-16993637.084960938,-17025157.928466797,10267352.104187012,35221340.17944336,16412252.426147461,7568660.736083984,1237165.4510498047,-6497541.904449463,-18030652.99987793,-21348432.540893555,-32719902.03857422,7796038.627624512,17975070.95336914,13715176.582336426,7723721.027374268,278215.34872055054,-8362917.900085449,-17454084.396362305,-29445741.653442383,-32748741.149902344,7841061.592102051,7852186.20300293,14998052.597045898,886852.2644042969,-543304.979801178,-8742436.408996582,-12441980.361938477,-16902498.245239258,-17294418.334960938,8654709.815979004,14969647.407531738,16145009.994506836,10312689.781188965,100753.61281633377,-13349094.39086914,-18612920.7611084,-19161079.40673828,-18153343.200683594,15971068.382263184,14660835.266113281,10932743.072509766,-3098744.8692321777,-19862545.013427734,-19171590.80505371,-19698465.34729004,7256837.844848633,7119632.244110107,-3844597.578048706,-19646244.049072266,-19098077.77404785
0.13,7988151.550292969,17444177.627563477,-100545.51810026169,13411117.553710938,-8230519.2947387695,46440971.37451172,27879261.016845703,24697402.954101562,20800758.361816406,2211517.095565796,-6516801.834106445,-14363837.242126465,-15078462.600708008,-14797720.909118652,14038933.753967285,35355270.38574219,16988948.822021484,6391236.782073975,143929.89873886108,-6884956.359863281,-17382312.774658203,-20985086.44104004,-33453857.421875,11470861.434936523,20729211.807250977,15017148.0178833,7633390.426635742,262477.21910476685,-8799683.570861816,-18735706.329345703,-31042198.181152344,-33403053.283691406,11538983.345031738,10162494.659423828,16111585.61706543,1118647.2177505493,-288798.39181900024,-8561573.028564453,-12782134.056091309,-17290523.529052734,-17475061.416625977,11955661.77368164,16250452.041625977,17240213.39416504,11936212.539672852,202897.89140224457,-12238815.307617188,-18768144.607543945,-19260469.436645508,-18401100.158691406,16736232.75756836,15321817.398071289,12685615.539550781,-2231621.503829956,-19759971.618652344,-19179262.161254883,-19823863.983154297,7126237.869262695,7048192.977905273,-3039064.884185791,-19745065.689086914,-19196010.58959961
0.135,14282531.73828125,25700046.53930664,7869894.981384277,13514466.285705566,-6538763.046264648,47768207.55004883,26566406.25,23192468.643188477,19504878.997802734,1373045.2060699463,-6837068.557739258,-13986063.003540039,-14697434.425354004,-14312156.677246094,15300662.994384766,34292278.28979492,16121831.893920898,4161602.9739379883,-844249.1292953491,-7034040.451049805,-17525527.954101562,-21389259.338378906,-34861385.345458984,12567150.115966797,20530391.693115234,15164047.241210938,6423347.473144531,274331.4504623413,-9292272.567749023,-20236003.875732422,-33777709.9609375,-34545970.91674805,12667414.665222168,11655891.418457031,17388359.06982422,1275168.4188842773,-188646.6145515442,-7982882.499694824,-13019417.762756348,-18223691.940307617,-18144018.173217773,12907693.862915039,17418817.5201416,18324064.254760742,13316508.293151855,430809.70644950867,-10877711.296081543,-19257297.51586914,-19842939.376831055,-19001668.93005371,17310981.75048828,15998560.905456543,13768333.435058594,-2213982.8205108643,-20078790.66467285,-19714506.149291992,-20360664.36767578,7110352.039337158,7250011.920928955,-3093092.203140259,-20449800.491333008,-19832418.44177246
0.14,19348764.419555664,31496688.842773438,13240820.88470459,16113697.052001953,-3604708.671569824,51265712.73803711,28008916.8548584,24829462.0513916,20975086.212158203,3627449.7509002686,-4054283.1420898438,-11978238.105773926,-12654961.585998535,-12415101.051330566,13666561.126708984,35380989.07470703,16438987.731933594,4502378.940582275,658078.8493156433,-5268980.979919434,-16330366.134643555,-19601102.828979492,-33916908.264160156,10812554.359436035,19165168.76220703,15176858.901977539,6563243.389129639,453804.49295043945,-8856414.794921875,-19955289.840698242,-34259609.22241211,-33466930.389404297,10943010.330200195,10927722.930908203,16882200.241088867,1252538.3234024048,-229700.92296600342,-7658849.239349365,-13702285.766601562,-19719337.463378906,-19557064.056396484,11463469.505310059,16570945.739746094,17613737.106323242,12020159.721374512,617312.7293586731,-11510696.411132812,-20590723.037719727,-21401311.87438965,-20379962.921142578,15240176.2008667,14133672.714233398,11165833.473205566,-4200184.8220825195,-21527647.018432617,-21338953.018188477,-21808803.55834961,5365779.399871826,5643406.391143799,-5075570.583343506,-22042829.513549805,-21469533.920288086
0.145,32242141.723632812,45433055.87768555,23984830.856323242,25420949.935913086,4356294.15512085,59334426.87988281,34471035.00366211,31830213.54675293,27269317.626953125,9715394.020080566,2403931.3793182373,-7037364.482879639,-7818892.955780029,-7843274.5933532715,11099316.596984863,40161514.28222656,19770889.282226562,8674328.804016113,4330071.449279785,-2562118.5302734375,-13794968.605041504,-16558385.848999023,-32193893.432617188,8197910.308837891,19435838.69934082,16325716.018676758,9186069.48852539,657826.9004821777,-8050644.874572754,-18715463.638305664,-33929409.02709961,-31924774.169921875,8272527.694702148,8795916.557312012,14474893.569946289,1124434.8287582397,-299106.80651664734,-8586665.153503418,-15867631.912231445,-23576143.264770508,-23573614.1204834,9178670.883178711,13892341.613769531,15121206.283569336,9207593.91784668,606852.0545959473,-14816046.714782715,-24721004.486083984,-25804460.525512695,-24533987.045288086,9564060.21118164,8611694.3359375,5559625.625610352,-9109045.98236084,-25987432.4798584,-25826013.565063477,-26135149.002075195,-139298.75195026398,194429.4571876526,-9913550.37689209,-26259147.64404297,-25945850.372314453
0.15,59320457.458496094,76137847.90039062,47803585.052490234,40761440.27709961,17270790.100097656,71950187.68310547,44173038.482666016,41927047.72949219,36705432.8918457,17253562.927246094,9584734.916687012,-1436733.1266403198,-2372924.8046875,-2672519.2070007324,8756211.280822754,46360046.38671875,25148138.04626465,14476961.135864258,8090057.373046875,-674447.6556777954,-11607672.691345215,-15683877.944946289,-33979526.51977539,5756625.175476074,20871627.807617188,18268981.93359375,12465960.502624512,650707.6621055603,-7808025.360107422,-18599250.79345703,-36602909.088134766,-33991039.27612305,5650594.234466553,6758090.972900391,11544541.358947754,1093605.1607131958,-269412.5473499298,-10473472.595214844,-19310987.47253418,-30723375.32043457,-30992795.944213867,6595251.083374023,10949250.221252441,12137428.283691406,7199035.64453125,451522.6185321808,-19103839.874267578,-32239925.384521484,-33535682.678222656,-32158603.66821289,1653556.4661026,788110.3754043579,-558004.4388771057,-17065727.23388672,-33885265.3503418,-33557003.021240234,-33903652.19116211,-9823160.171508789,-9433836.936950684,-17899444.580078125,-33831787.109375,-33852119.44580078
0.155,88178413.39111328,110494331.35986328,75316253.66210938,53773834.228515625,28301256.17980957,83330635.07080078,51784267.42553711,49430648.80371094,44383647.91870117,22380435.943603516,13429620.742797852,860847.7115631104,-29874.89104270935,-534471.0350036621,5988731.861114502,49735176.08642578,29349054.33654785,18434917.449951172,10352694.511413574,-111935.85395812988,-11441439.628601074,-18303653.717041016,-39313007.35473633,2790960.0734710693,20575340.270996094,19291328.43017578,13781558.0368042,502794.3253517151,-8078837.3947143555,-20243595.123291016,-41933818.81713867,-39342926.025390625,2500531.1965942383,4922540.664672852,8911059.379577637,1243956.9234848022,-96408.73223543167,-11977490.425109863,-22306961.059570312,-38206878.662109375,-38712547.302246094,3182579.278945923,8407068.252563477,9374536.514282227,6062659.740447998,328412.89043426514,-22015724.182128906,-39842262.268066406,-41218593.59741211,-39933979.03442383,-5691126.346588135,-6483669.757843018,-5725447.177886963,-25599334.716796875,-41825386.04736328,-41233535.76660156,-41710651.39770508,-20301305.770874023,-19920511.24572754,-26711763.381958008,-41684154.51049805,-41863449.09667969
0.16,95250801.08642578,121256172.18017578,84632087.70751953,54641155.24291992,29057935.71472168,85024520.87402344,52506092.0715332,49778980.25512695,45689586.6394043,22250286.102294922,11910658.836364746,-1726467.9670333862,-2337475.061416626,-2859108.2096099854,3162483.2153320312,48451351.165771484,29801372.528076172,18715070.724487305,10698799.133300781,-449876.48725509644,-13475434.303283691,-21690761.56616211,-42729885.10131836,-142513.09633255005,18305751.80053711,18510644.912719727,12848991.394042969,541259.4079971313,-8143235.206604004,-22051330.56640625,-44746719.36035156,-42502223.96850586,-471258.1932544708,3266678.810119629,6884546.756744385,1449084.1627120972,123953.98318767548,-12371719.360351562,-23090021.13342285,-40832435.607910156,-41462562.561035156,57552.09177732468,6361236.572265625,7263898.3726501465,4771504.878997803,328081.4290046692,-22721561.431884766,-42401924.13330078,-43704635.62011719,-42559360.50415039,-9210474.967956543,-9976165.771484375,-8706110.000610352,-29760461.807250977,-44527412.41455078,-43822441.10107422,-44264495.849609375,-25283351.89819336,-25022142.41027832,-31251342.7734375,-44476268.76831055,-44616447.44873047
0.165,74775779.7241211,100446258.54492188,68603828.43017578,43603862.76245117,20152900.69580078,75409027.09960938,47018043.518066406,44193103.7902832,40929328.91845703,17854082.107543945,7416613.578796387,-5575480.937957764,-5936162.47177124,-6332884.788513184,2502791.8815612793,44799747.467041016,27170755.38635254,16379863.739013672,9623874.66430664,-893454.4324874878,-15206777.572631836,-21706817.626953125,-40498828.88793945,-601934.9694252014,17238924.026489258,17101352.69165039,11664292.335510254,905016.2434577942,-7256177.4253845215,-21313608.169555664,-41471267.70019531,-40110000.61035156,-868086.7552757263,3069537.1627807617,6309328.556060791,1581903.8152694702,257897.64523506165,-11801902.770996094,-21168972.01538086,-36769935.607910156,-37371017.45605469,-205229.31218147278,5716573.238372803,6825411.796569824,3687855.9589385986,425849.7953414917,-22006965.63720703,-38365955.3527832,-39466239.92919922,-38352951.04980469,-7281670.570373535,-8125492.095947266,-7924848.556518555,-26895965.576171875,-40225658.41674805,-39703781.12792969,-39908504.486083984,-21780971.52709961,-21561981.201171875,-28473854.064941406,-40188396.45385742,-40336360.931396484
0.17,48273540.49682617,71401748.65722656,45711952.209472656,31758659.36279297,11746366.500854492,62899906.158447266,40667541.50390625,38225727.08129883,35043506.62231445,13437004.089355469,4606894.969940186,-5607915.878295898,-5950613.021850586,-6328154.08706665,4705564.498901367,41824813.84277344,24106546.40197754,13679515.838623047,7992815.017700195,-669306.0994148254,-13645076.751708984,-17688083.64868164,-35381999.96948242,2035590.8870697021,18652439.11743164,16447059.631347656,11343975.067138672,1357762.9327774048,-5150855.06439209,-16981555.938720703,-34907337.1887207,-35178535.46142578,1758291.9597625732,5033166.408538818,7557560.443878174,1684388.8759613037,303229.30216789246,-10281706.809997559,-17498752.59399414,-30013704.299926758,-30446556.091308594,2601157.6652526855,7040962.696075439,8326869.964599609,3744306.0874938965,599240.8990859985,-20542213.439941406,-31734888.076782227,-32618934.631347656,-31441339.49279785,-2120343.9235687256,-3075661.8976593018,-4071365.3564453125,-20604881.286621094,-33037471.771240234,-32802555.084228516,-32824428.55834961,-14498520.851135254,-14071292.877197266,-21823104.858398438,-32898689.27001953,-33261051.177978516
0.175,36403072.357177734,57543174.743652344,34697517.39501953,26951946.258544922,9851809.50164795,56193881.98852539,36618865.966796875,34733562.46948242,31313184.73815918,11406901.359558105,4282312.870025635,-2905119.8959350586,-3336510.181427002,-3835222.2442626953,7089648.723602295,39515369.4152832,21536886.21520996,11255926.132202148,6096380.233764648,-328417.1223640442,-10351956.367492676,-14043014.526367188,-31965881.34765625,4774926.662445068,19258188.247680664,15954946.517944336,10601740.837097168,1594755.8879852295,-2881447.5536346436,-12016141.891479492,-30894571.30432129,-32060451.50756836,4391718.864440918,7201750.2784729,9200122.833251953,1845541.4772033691,376133.2929134369,-7918519.496917725,-13920145.034790039,-25788740.158081055,-26065191.2689209,5227459.43069458,8895887.37487793,10064063.07220459,4554087.6388549805,832227.5280952454,-18111509.323120117,-27499130.249023438,-28334445.95336914,-27074729.919433594,2022466.1827087402,1038805.9616088867,-773866.2362098694,-16812343.59741211,-28493862.15209961,-28313903.80859375,-28409700.393676758,-10413156.509399414,-9738477.70690918,-17582851.40991211,-28325843.811035156,-28935335.159301758
0.18,32351230.62133789,51859745.025634766,29177875.518798828,23962596.893310547,7695696.3539123535,54167240.142822266,32617397.30834961,31046087.26501465,27709966.6595459,9513193.130493164,1976625.919342041,-4513189.792633057,-4910437.107086182,-5349847.316741943,7280141.353607178,36525276.18408203,18001523.971557617,8115561.485290527,3565211.057662964,-1797080.7552337646,-11055890.083312988,-15285905.838012695,-30639657.974243164,5048908.710479736,16558383.94165039,13949750.900268555,8272402.763366699,1567178.3685684204,-2469700.0980377197,-10985068.321228027,-31348215.103149414,-30733011.24572754,4648308.277130127,7265576.362609863,9626714.706420898,2013574.1233825684,518121.4213371277,-5907051.086425781,-11838468.551635742,-24352775.57373047,-24682010.650634766,5405607.223510742,9479601.860046387,10410120.964050293,5367627.6206970215,1033382.6541900635,-14683012.008666992,-25890230.178833008,-26904773.712158203,-25550245.28503418,4123712.5396728516,3138669.729232788,120950.98942518234,-15915279.388427734,-27131250.381469727,-26746438.98010254,-27045862.197875977,-9361570.358276367,-8776876.449584961,-16607622.146606445,-27099416.732788086,-27725698.471069336
0.185,17573385.23864746,34007396.69799805,12665372.848510742,14977877.616882324,-2285199.1653442383,50173206.3293457,27002582.550048828,25384504.318237305,22247064.5904541,5780708.789825439,-4286111.354827881,-12409715.65246582,-12677023.887634277,-12837653.160095215,6630460.739135742,34134807.58666992,13646451.950073242,4823673.248291016,1107584.9533081055,-5023356.4376831055,-16804761.88659668,-19537048.33984375,-29368270.874023438,4336384.7732543945,13692773.818969727,10834005.355834961,6068546.295166016,1432529.091835022,-4172591.209411621,-13711749.076843262,-32626575.469970703,-29118488.311767578,4099953.1745910645,6197508.811950684,9605812.072753906,2060723.3047485352,621214.9858474731,-5585080.623626709,-10701685.905456543,-21537441.25366211,-22121107.10144043,4948671.817779541,9466707.229614258,10384832.382202148,6711648.941040039,1101492.5241470337,-11187992.095947266,-22967575.073242188,-24206022.262573242,-22742883.682250977,7434027.194976807,6327458.381652832,1668590.784072876,-12689251.899719238,-24559612.274169922,-24044887.54272461,-24419622.42126465,-4999350.070953369,-4800936.222076416,-13626943.588256836,-24698812.48474121,-25146230.697631836
0.19,-4653789.520263672,7811987.400054932,-9677601.81427002,4728730.67855835,-13524716.3772583,43643058.77685547,24193212.509155273,22366222.381591797,18819570.541381836,3616993.188858032,-8585736.274719238,-17994337.08190918,-18250717.163085938,-18476898.193359375,7136320.114135742,34928607.94067383,12305498.123168945,4559638.500213623,1119430.1843643188,-6227900.505065918,-19969028.47290039,-20411540.985107422,-28400470.733642578,4865077.018737793,14789323.806762695,9819197.654724121,6916230.67855835,1334084.5108032227,-5261127.948760986,-14614405.632019043,-31163429.260253906,-27810037.61291504,4811574.935913086,6790655.136108398,11157934.188842773,1995801.4488220215,600137.5317573547,-6571187.496185303,-8890930.17578125,-15766210.556030273,-16543893.814086914,5908934.116363525,10924902.91595459,12057395.935058594,9141242.027282715,1092088.222503662,-8873107.91015625,-17182304.38232422,-18481342.315673828,-16969823.837280273,13490975.379943848,12218241.691589355,6962318.897247314,-5133170.604705811,-18629981.994628906,-18282163.619995117,-18583679.19921875,4090966.22467041,4075267.791748047,-6184329.032897949,-18823169.708251953,-19167438.507080078
0.195,-12537781.715393066,-2172178.5068511963,-15825895.309448242,4595703.125,-13469510.078430176,39922313.69018555,28580018.997192383,26666130.06591797,22185094.833374023,7041755.676269531,-5073530.673980713,-13755543.70880127,-14144561.767578125,-15073079.109191895,7014042.854309082,37218364.71557617,16417531.967163086,8707215.309143066,4499905.586242676,-2761926.1741638184,-14688723.56414795,-16357004.165649414,-28989524.841308594,4896182.060241699,17360155.10559082,12947182.655334473,10608895.301818848,1332129.955291748,-3578212.022781372,-10870388.03100586,-28500001.907348633,-28310464.85900879,4880199.432373047,8796363.830566406,13999555.587768555,1988514.0657424927,543428.0037879944,-7350280.284881592,-6677707.195281982,-11446721.076965332,-12146631.240844727,6151850.22354126,13610678.672790527,14861085.891723633,11453845.977783203,1170985.6986999512,-8341687.202453613,-12678699.493408203,-13921506.881713867,-12462915.420532227,18128385.543823242,16926389.694213867,13152238.845825195,1184839.8447036743,-13657780.647277832,-13572650.909423828,-13847875.595092773,10409614.562988281,10567815.780639648,337778.80668640137,-13795400.619506836,-14229948.997497559
0.2,-1579631.6862106323,9650599.479675293,-2492511.749267578,13335983.276367188,-3968561.1724853516,39222854.61425781,35054977.41699219,33297573.08959961,28686752.319335938,12515926.361083984,1719377.7561187744,-5800397.872924805,-6244432.9261779785,-7837405.204772949,3141041.2788391113,35031044.006347656,21360401.153564453,13048631.66809082,7937694.072723389,1833709.0015411377,-6989548.206329346,-13762804.03137207,-29714097.97668457,1165444.4932937622,14530628.204345703,17147386.55090332,13134189.60571289,1451001.1672973633,-1029816.1506652832,-7126286.98348999,-28853385.92529297,-29095422.744750977,1136963.6058807373,8396162.033081055,15193487.167358398,2170730.3524017334,616537.868976593,-7516603.469848633,-6394374.847412109,-13024239.540100098,-13488017.082214355,2392776.9660949707,14653530.12084961,15743416.786193848,12070960.04486084,1369251.012802124,-9200886.726379395,-13867321.014404297,-15106689.453125,-13727400.779724121,16730381.01196289,15885458.946228027,14464673.99597168,791369.0209388733,-14740992.546081543,-14701992.03491211,-15053880.69152832,8058943.748474121,8412264.823913574,133920.3268289566,-14814204.216003418,-15386910.438537598
0.205,5388856.410980225,18509399.4140625,6630546.569824219,16079130.172729492,-265042.18578338623,34700332.64160156,33140399.932861328,31590002.059936523,28922491.0736084,11996894.836425781,2235042.8104400635,-5728911.876678467,-6055051.326751709,-7595559.597015381,-2990140.199661255,26366060.256958008,19379962.921142578,11822967.529296875,7194509.506225586,1972026.9441604614,-6250744.342803955,-17724727.630615234,-28673170.08972168,-4939540.863037109,5498337.268829346,16627866.744995117,11293569.564819336,1672425.0316619873,-676202.3568153381,-7570979.595184326,-32856529.235839844,-28082569.122314453,-4849816.32232666,3623520.3742980957,13000994.682312012,2501643.657684326,877592.7424430847,-7674726.486206055,-8215479.850769043,-17746885.299682617,-18097919.464111328,-3683164.596557617,12498883.247375488,13312048.91204834,11454238.891601562,1555729.0315628052,-10029937.744140625,-18393911.361694336,-19626308.44116211,-18305747.985839844,11455837.24975586,10902763.366699219,10546247.482299805,-3269253.730773926,-19624458.31298828,-19431789.39819336,-19785861.96899414,2066104.4120788574,2240299.2248535156,-4052155.4946899414,-19686552.047729492,-20334001.541137695
0.21,-7969717.979431152,5785081.386566162,-4437447.071075439,5841472.625732422,-8065460.205078125,24297679.901123047,21893615.72265625,20235618.591308594,20939804.077148438,4686808.109283447,-3670702.2190093994,-12750381.469726562,-13003791.809082031,-14174505.233764648,-6248439.788818359,17993425.369262695,10154407.501220703,5522728.443145752,2856046.438217163,-1715986.2518310547,-10214452.743530273,-24031152.725219727,-27561981.201171875,-8242687.225341797,-1732819.5571899414,10342260.360717773,6849962.7113342285,1915838.360786438,-1700231.0752868652,-8085821.151733398,-36567951.20239258,-26996566.772460938,-7966566.08581543,-2192497.2534179688,9404670.715332031,2837959.5279693604,1250068.4261322021,-7516530.513763428,-8534633.63647461,-18615205.764770508,-19048419.952392578,-6823338.031768799,9199596.405029297,9860427.856445312,11243761.06262207,1697388.4105682373,-9248370.170593262,-19496074.676513672,-20508518.21899414,-19310800.552368164,8782974.243164062,8161655.426025391,7162255.764007568,-3690029.1442871094,-20890178.680419922,-20595705.032348633,-20791894.912719727,1478178.0242919922,1262776.9708633423,-4707221.508026123,-21002836.227416992,-21749660.49194336
0.215,-27039752.960205078,-14257849.69329834,-21168418.884277344,-5497923.851013184,-15398303.031921387,16485799.789428711,13429680.824279785,11258240.699768066,13972864.151000977,-1065063.4765625,-6784379.959106445,-15184870.719909668,-15596027.374267578,-16593261.71875,-5073252.6779174805,17726772.30834961,3040766.477584839,941361.4273071289,-386404.99114990234,-3593524.217605591,-9392214.77508545,-25289070.12939453,-28402101.516723633,-7096700.191497803,-799208.8794708252,4790483.9515686035,4592906.475067139,2103530.4069519043,-1139113.187789917,-3393737.79296875,-37031738.28125,-27950395.584106445,-6794473.648071289,-4333959.579467773,7683836.936950684,3068296.194076538,1614406.704902649,-6270233.631134033,-5368293.762207031,-14351045.608520508,-14871516.227722168,-5624721.527099609,7737617.969512939,8423645.01953125,11611512.184143066,1939830.8992385864,-7054681.301116943,-15565769.19555664,-16232881.546020508,-15233475.685119629,10461019.515991211,9585223.197937012,7761990.070343018,100298.672914505,-16611690.521240234,-16335689.544677734,-16410621.643066406,6182660.5796813965,5808038.711547852,-887610.7335090637,-16826854.705810547,-17751094.818115234
0.22,-28719261.169433594,-17472215.65246582,-22197595.596313477,-4306973.934173584,-12316893.577575684,18960474.014282227,17480699.53918457,14821191.787719727,15791998.863220215,221123.1291294098,-3702034.4734191895,-9562976.837158203,-10186030.387878418,-10378057.479858398,-3530980.8254241943,24016918.182373047,5959278.106689453,2406734.2281341553,-386066.10894203186,-2186195.135116577,-4347215.175628662,-21707822.799682617,-28322282.791137695,-5565729.141235352,4315105.438232422,6826969.146728516,6675096.035003662,2249177.932739258,391147.58372306824,2108572.7214813232,-36181312.561035156,-27975427.627563477,-5428946.495056152,-2599847.5551605225,8556923.866271973,3185074.806213379,1879427.433013916,-4906129.360198975,-2687783.95652771,-11666393.280029297,-12145290.37475586,-4272503.37600708,8467638.01574707,9264125.82397461,11341544.151306152,2320313.6920928955,-5915333.7478637695,-12938728.332519531,-13538790.702819824,-12603284.83581543,11398036.003112793,10447785.377502441,8715620.040893555,977782.9051017761,-13718502.044677734,-13405442.237854004,-13580096.244812012,7249078.750610352,7019757.270812988,225607.35046863556,-14035820.007324219,-15066369.05670166
0.225,-14816329.002380371,-4553568.363189697,-10547938.346862793,5427176.475524902,-6371127.605438232,27029947.28088379,27980796.813964844,25383373.260498047,21878196.716308594,3395701.1699676514,-2283743.143081665,-6114665.508270264,-6724625.110626221,-4534368.991851807,-4771435.260772705,27820924.758911133,15015580.177307129,6277476.3107299805,-79435.0653886795,-2004749.059677124,-5063410.758972168,-20118301.391601562,-24517808.91418457,-6844740.867614746,5025641.441345215,14743084.907531738,10307922.36328125,2422436.237335205,-416718.09554100037,562580.2874565125,-38110195.15991211,-24113260.26916504,-6843796.253204346,-1106352.3292541504,10039858.8180542,3270548.105239868,2010241.5084838867,-5203224.182128906,-4967299.461364746,-15713458.061218262,-16120542.526245117,-5752693.176269531,9520421.981811523,10424845.695495605,10246607.780456543,2590351.343154907,-7608440.87600708,-16870639.80102539,-17815570.831298828,-16687732.696533203,7644360.542297363,6835958.003997803,5457570.0759887695,-5104668.140411377,-18051908.493041992,-17563196.182250977,-17919059.75341797,152252.9572248459,87465.01803398132,-5803878.307342529,-18369453.43017578,-19323749.542236328
0.23,-5390929.222106934,4959240.913391113,-4490541.934967041,9658216.47644043,-8922343.254089355,30584505.081176758,31420907.974243164,29384672.164916992,22683750.15258789,1324124.9322891235,-7916267.395019531,-11387891.76940918,-11835752.487182617,-7022918.224334717,-6276298.046112061,24771421.432495117,19490566.25366211,6629606.246948242,-2022229.9098968506,-4746776.580810547,-11627380.37109375,-24029474.25842285,-22375555.03845215,-8426243.782043457,-39962.802082300186,19984600.067138672,11481004.71496582,2614340.06690979,-2808019.1612243652,-4426576.614379883,-44371902.46582031,-21826513.290405273,-8402089.11895752,-2613385.9157562256,10344563.484191895,3386188.03024292,2032593.4886932373,-6331251.14440918,-9365894.317626953,-22600444.793701172,-23028459.548950195,-7376123.428344727,9605298.99597168,10550720.21484375,9373847.961425781,2500958.6811065674,-10303512.573242188,-23668252.94494629,-24947475.43334961,-23648628.23486328,2111405.849456787,1407029.0327072144,-312549.5910644531,-12932992.935180664,-25551414.489746094,-24902322.76916504,-25259378.43322754,-9035157.203674316,-9043650.62713623,-13868311.882019043,-25710136.41357422,-26572385.787963867
0.235,-7601891.994476318,3525583.7440490723,-7872322.082519531,5176255.226135254,-16152196.884155273,28518285.751342773,25130405.42602539,23573724.7467041,17623199.462890625,-4016978.2638549805,-13708333.969116211,-17392065.048217773,-17862150.192260742,-12713180.541992188,-4414605.617523193,20087711.334228516,15684340.476989746,3650705.337524414,-3936807.632446289,-5487647.533416748,-11139628.410339355,-30331186.294555664,-29049571.990966797,-6674160.003662109,-4490042.686462402,18058160.78186035,9782043.45703125,2681178.569793701,-1894345.6411361694,-1583573.579788208,-52788021.087646484,-28489797.592163086,-6606867.31338501,-5452435.493469238,9515396.118164062,3447931.0512542725,1974900.245666504,-5464217.662811279,-9243142.127990723,-25150550.842285156,-25615222.930908203,-5629005.432128906,8964937.210083008,9824466.705322266,8832999.229431152,2132998.466491699,-10665265.083312988,-25952619.552612305,-27125289.916992188,-26022840.49987793,-121129.02849912643,-848097.3243713379,-3248708.963394165,-15466078.758239746,-28037527.084350586,-27384675.979614258,-27584699.630737305,-12642197.608947754,-12579463.958740234,-16588783.264160156,-27960472.106933594,-28929443.359375
0.24,-9521080.97076416,2025093.0786132812,-8018545.150756836,2071572.7806091309,-15751249.313354492,28332269.6685791,19795154.571533203,18298391.342163086,15189830.780029297,-5002575.874328613,-11192671.775817871,-15068890.571594238,-15808857.917785645,-12299486.16027832,-802365.3030395508,19968284.606933594,10859911.918640137,2813181.6387176514,-2357249.975204468,-1162678.599357605,-63524.723052978516,-34601493.83544922,-38257423.400878906,-3229406.3568115234,-4616556.644439697,13864204.406738281,8419623.374938965,2474060.05859375,2998633.861541748,8137154.579162598,-58699329.3762207,-37840602.87475586,-3238528.251647949,-6949717.998504639,8247093.200683594,3282285.9287261963,1803681.73122406,-2656623.125076294,-4929890.6326293945,-22832311.630249023,-23201519.012451172,-2331532.0014953613,7954885.005950928,8616734.504699707,7443347.930908203,1763496.5181350708,-8694692.611694336,-23088846.20666504,-23864013.671875,-23158725.73852539,837139.2488479614,117217.60779619217,-2294344.663619995,-13344892.501831055,-24781106.94885254,-24215866.088867188,-24349393.844604492,-11344824.79095459,-11210458.755493164,-14343537.330627441,-24557374.954223633,-25729297.637939453
0.245,-2475058.5556030273,9070455.551147461,1568453.1927108765,7421029.567718506,-6167356.491088867,33453720.092773438,24104887.008666992,22525558.471679688,20559360.50415039,411404.7884941101,-3269149.3034362793,-8105937.957763672,-9032341.003417969,-5561781.406402588,80637.1420621872,23423421.85974121,12699640.274047852,6958041.667938232,1983595.609664917,3501214.5042419434,6278244.495391846,-33621097.564697266,-33491092.681884766,-2560463.6669158936,-3953694.3435668945,14144312.858581543,9919335.36529541,2040294.4087982178,5978161.334991455,9881340.980529785,-56558166.50390625,-33167480.46875,-2648421.7643737793,-7484529.0184021,6631986.618041992,2875802.0401000977,1491374.9694824219,-1585563.6596679688,-3775355.577468872,-20771381.378173828,-20953132.62939453,-1868791.103363037,6349534.98840332,6836971.282958984,5003893.852233887,1506829.023361206,-7742636.680603027,-20826486.587524414,-21390142.4407959,-20731765.747070312,752397.0007896423,115493.98303031921,-1641806.2448501587,-12570187.56866455,-22174491.88232422,-21650331.497192383,-21873302.459716797,-11136383.056640625,-11122802.734375,-13316074.37133789,-21977907.180786133,-23156139.373779297
0.25,7008033.752441406,19707729.33959961,12934163.093566895,16395582.19909668,2976863.8610839844,39045825.95825195,33869850.158691406,32398155.212402344,29180622.100830078,6938987.731933594,1658864.974975586,-4114000.7972717285,-4910251.617431641,1884827.6138305664,-1797676.44405365,26114154.815673828,19351589.20288086,12804299.354553223,5524059.772491455,3695284.843444824,-2111075.4013061523,-24260587.692260742,-11929362.297058105,-4567852.020263672,-5552290.916442871,18103891.372680664,13079257.011413574,1648044.3477630615,3967969.8944091797,-869165.0032997131,-43952110.290527344,-11558574.676513672,-4548620.700836182,-8874168.395996094,4855153.560638428,2481741.9052124023,1154772.8776931763,-3553895.4734802246,-7620286.464691162,-20354936.599731445,-20441198.348999023,-3933212.2802734375,4479443.073272705,4956877.708435059,3192057.3711395264,1297159.7909927368,-8997229.57611084,-21189369.201660156,-21870855.3314209,-20746976.852416992,-1620140.552520752,-2268119.3351745605,-3650405.4069519043,-14808012.008666992,-22650558.471679688,-22094289.779663086,-22362049.102783203,-13527404.78515625,-13768645.286560059,-15488711.3571167,-22569810.86730957,-23528215.408325195
0.255,9682654.38079834,25268600.463867188,17782014.846801758,20666000.366210938,6320475.101470947,40511337.28027344,39050807.95288086,37711959.83886719,33511703.491210938,9930686.950683594,2790405.511856079,-846605.0028800964,-1398885.96534729,8816903.114318848,-1725136.8761062622,27717943.19152832,22906957.626342773,15594930.648803711,6899042.129516602,2819661.6172790527,-10432410.24017334,-7590941.429138184,6566264.629364014,-4395630.359649658,-5966811.180114746,19413888.931274414,14650851.249694824,1537444.3531036377,2620468.3780670166,-6894966.125488281,-26776603.69873047,6982437.1337890625,-4135286.331176758,-10121401.7868042,4116586.685180664,2341491.937637329,987177.9680252075,-4448877.334594727,-8139073.371887207,-17159366.607666016,-17302410.125732422,-3655637.741088867,3826695.203781128,4449161.529541016,3439881.3247680664,1133566.4987564087,-9246243.476867676,-19206912.994384766,-20061006.546020508,-18462352.752685547,-2444282.293319702,-3261533.260345459,-4966603.755950928,-15146654.12902832,-20958936.69128418,-20349521.63696289,-20513620.376586914,-13713047.981262207,-13995862.007141113,-15931285.858154297,-20928314.208984375,-21725431.442260742
0.26,5171569.347381592,22770109.176635742,16246982.57446289,18057771.682739258,6800019.74105835,38957790.37475586,36443321.228027344,34958023.07128906,31439985.275268555,9491274.8336792,4908676.1474609375,7186161.041259766,6691714.286804199,16478610.99243164,2555875.539779663,30285238.26599121,19935075.759887695,14303515.434265137,7338044.166564941,6307358.741760254,-652424.4546890259,6203343.868255615,4883853.435516357,160916.40293598175,-1420733.4518432617,15620024.681091309,13234369.277954102,1643794.298171997,7411358.35647583,6019196.033477783,-16792058.94470215,5251435.75668335,563269.4363594055,-8052707.672119141,5567317.485809326,2370621.4427948,1006789.6842956543,-962181.7469596863,267141.3719654083,-9289294.242858887,-9509160.995483398,1008844.9716567993,5483244.895935059,6261844.158172607,5223248.9585876465,1097780.3468704224,-6093233.108520508,-11715519.905090332,-12571414.947509766,-10981979.370117188,1673865.1990890503,722912.073135376,-1489869.5945739746,-9726736.068725586,-13505153.65600586,-12860515.594482422,-12942359.924316406,-8003671.646118164,-8036386.489868164,-10507443.42803955,-13410538.673400879,-14261611.938476562
0.265,-2543078.899383545,13362598.419189453,10610391.616821289,11668882.369995117,5644649.028778076,36693737.0300293,31098609.924316406,29387672.424316406,26247190.475463867,6991477.966308594,6982364.654541016,14688973.426818848,14132503.509521484,20993862.15209961,7713761.329650879,32146984.100341797,14602798.461914062,11164484.024047852,7020308.017730713,10968980.78918457,17389753.341674805,6207283.973693848,-5769520.282745361,5535542.4880981445,4458058.834075928,10898766.51763916,10554008.483886719,1666398.4060287476,13489986.419677734,24412305.83190918,-19278808.59375,-5420606.61315918,5887730.598449707,-2455184.4596862793,8547722.816467285,2296562.1948242188,1010881.5431594849,3233928.442001343,9698002.815246582,-1757987.2608184814,-1969559.669494629,6423812.8662109375,8538544.654846191,9368278.503417969,7284530.162811279,1147548.4371185303,-2379853.9638519287,-3518401.622772217,-4232589.244842529,-2990473.747253418,9194746.971130371,8306516.647338867,5711397.647857666,-1062608.1228256226,-5029345.512390137,-4413692.951202393,-4578372.478485107,1309132.2183609009,1418185.5916976929,-1623652.696609497,-4862436.771392822,-5782509.803771973
0.27,-10902832.984924316,1109680.6526184082,2002547.5025177002,5351840.972900391,172229.48372364044,33742809.2956543,27962772.369384766,26428939.819335938,21775873.1842041,2923437.3569488525,3296683.3114624023,11695048.332214355,11251067.161560059,17669471.740722656,10313141.822814941,30062404.63256836,12028566.360473633,8316207.8857421875,4671947.479248047,8786561.965942383,17498147.96447754,-3780351.6387939453,-773194.7302818298,8146720.886230469,5390029.430389404,9377189.636230469,9052961.349487305,1446624.2790222168,11786704.063415527,23880672.454833984,-25585561.752319336,-323493.5998916626,8391832.35168457,2522908.926010132,10917649.269104004,2071182.2509765625,865366.2204742432,2125422.954559326,8736854.553222656,590408.7424278259,405278.0568599701,9076494.216918945,10852972.030639648,11631421.089172363,9279542.922973633,1121692.6574707031,-2229531.764984131,-673377.2158622742,-1174719.214439392,-123439.68451023102,16097009.658813477,15361516.952514648,12031401.634216309,5921088.218688965,-1766369.104385376,-1295027.9712677002,-1573916.3160324097,9670577.049255371,9543725.01373291,5623894.214630127,-1647065.6394958496,-2428664.6842956543
0.275,-16937669.75402832,-6618384.838104248,-5375209.331512451,2048799.991607666,-7559781.551361084,30851890.563964844,26673208.236694336,25684288.024902344,19629438.400268555,-1088964.581489563,-4928052.90222168,1134326.696395874,993056.9529533386,10821547.508239746,11491151.809692383,26490419.387817383,12156890.869140625,6400128.364562988,846178.7104606628,91804.54909801483,-3249664.306640625,-7195152.282714844,21496171.951293945,9235885.620117188,2552570.104598999,9958541.870117188,9147312.16430664,1163503.885269165,3079082.250595093,4907433.032989502,-23282827.377319336,22014120.10192871,9468220.710754395,3674300.193786621,11359280.586242676,1923501.8491744995,693572.3423957825,-3360282.1826934814,-448400.8550643921,176710.8291387558,-63993.24536323547,10237831.115722656,11342800.14038086,12018620.491027832,11181785.583496094,980934.8583221436,-4554060.459136963,-1611740.3507232666,-1871991.3959503174,-691893.3987617493,20518432.6171875,19833160.400390625,15173301.696777344,9647025.108337402,-2316391.4680480957,-2041646.4805603027,-2277065.2770996094,15390319.82421875,14965711.59362793,9492023.468017578,-2366697.072982788,-2901135.206222534
0.28,-18051734.924316406,-6046052.932739258,-6800341.606140137,2133728.7425994873,-10556054.11529541,30318626.403808594,24419185.638427734,23718887.329101562,19026716.232299805,-2665510.1776123047,-9124316.215515137,-3168670.892715454,-3155990.1237487793,9693354.606628418,13391384.12475586,27630008.697509766,11492491.722106934,5196621.417999268,-1644084.2151641846,-5429766.1781311035,-18355443.954467773,3759693.384170532,35996948.2421875,11139487.266540527,2941503.2863616943,9441577.911376953,9301012.03918457,1065220.7136154175,-2023586.2731933594,-6708060.741424561,-12117701.530456543,36398590.087890625,11458566.665649414,2909760.7135772705,10570186.614990234,1959316.4920806885,646422.4457740784,-5886783.123016357,-4119952.2018432617,2631576.0612487793,2295995.4738616943,12180073.738098145,10781859.397888184,11321931.838989258,12109385.49041748,841840.386390686,-4379282.9513549805,40707.87504315376,-99203.05758714676,1260126.8291473389,22837379.455566406,22060613.63220215,16303165.435791016,11240260.124206543,-506732.3446273804,-289358.7052822113,-386988.93785476685,18973104.47692871,18576992.03491211,11128736.49597168,-731582.0455551147,-1159865.4985427856
0.285,-17582679.748535156,-3958397.86529541,-5356754.779815674,1819962.978363037,-7918637.752532959,31226394.653320312,20580434.799194336,19542955.39855957,17770650.86364746,-2366019.2489624023,-6147449.493408203,3327351.3317108154,3135261.058807373,14950254.440307617,14152073.860168457,33162147.521972656,8628930.09185791,4214743.137359619,-1483381.986618042,-2193815.7081604004,-9545260.429382324,17344425.201416016,26912967.681884766,12039373.397827148,7827374.458312988,7665507.3165893555,8322760.581970215,1136295.6762313843,2356525.8979797363,3851030.8265686035,-3172566.1754608154,27136230.46875,12475542.068481445,3771682.5008392334,9976009.368896484,1971782.4459075928,645787.5967025757,-1791425.8241653442,4185013.771057129,8553020.477294922,8201091.766357422,13066441.535949707,10399333.000183105,10791243.553161621,11147453.308105469,754665.3151512146,-121617.00427532196,6016030.311584473,5728433.609008789,7074168.2052612305,22874654.76989746,21933155.059814453,16164575.576782227,10966164.588928223,5207998.752593994,5607038.497924805,5550125.598907471,19965778.350830078,19714836.12060547,10879539.489746094,4904825.210571289,4398032.665252686
0.29,-22183132.17163086,-9539167.404174805,-8668279.647827148,-2946679.11529541,-7009296.417236328,28800117.49267578,17104820.251464844,15485885.620117188,14615341.186523438,-3356890.6784057617,-2787564.754486084,9898768.424987793,9388312.339782715,18092496.871948242,10755706.787109375,34680835.72387695,5812050.819396973,3153898.4775543213,-538090.2886390686,4072257.5187683105,8814177.513122559,19110290.52734375,10130367.279052734,8808180.809020996,10208329.200744629,7030775.547027588,6856196.403503418,1195266.4852142334,9964496.612548828,21221958.16040039,-2662034.749984741,10319142.34161377,9357036.590576172,5810637.474060059,10195609.092712402,1802027.3447036743,566218.7933921814,4101919.651031494,15309443.473815918,13521506.309509277,13230947.494506836,9861508.3694458,10631538.391113281,10940879.821777344,9046442.031860352,662250.6380081177,4255293.846130371,11697381.019592285,11138078.689575195,12332811.35559082,20255760.192871094,19137485.50415039,13899677.276611328,8733932.495117188,10337041.854858398,11004021.644592285,10897100.448608398,17911220.55053711,17439989.08996582,8648063.659667969,10056160.926818848,9446217.53692627
0.295,-30589572.90649414,-19462287.90283203,-15880116.46270752,-9611169.815063477,-11081365.585327148,22273714.065551758,16067106.246948242,14196495.056152344,11696795.463562012,-5856075.286865234,-4332601.070404053,7824119.567871094,7279192.4476623535,15148768.424987793,5515910.625457764,28121738.43383789,5650520.801544189,2742395.8778381348,-496570.5871582031,5654471.874237061,12887557.029724121,11492321.014404297,9506698.608398438,3643699.4075775146,6220759.868621826,8572150.230407715,6533045.768737793,1221755.3853988647,12074646.949768066,23696779.251098633,-4689450.263977051,9739508.628845215,4283275.604248047,5784278.869628906,11163936.614990234,1662067.2941207886,537338.7932777405,5421621.799468994,17451686.85913086,14544360.160827637,14266469.955444336,4831440.9255981445,11464425.086975098,11811439.514160156,7823799.133300781,612481.5344810486,4837024.688720703,12964845.657348633,12331592.559814453,13420093.536376953,17172903.060913086,15959433.555603027,10409666.061401367,6505129.337310791,11204483.032226562,12001615.524291992,11927263.259887695,15232798.57635498,14250231.742858887,6368917.465209961,11001297.950744629,10369415.283203125
0.3,-32570152.282714844,-20654165.267944336,-17376203.536987305,-10394473.0758667,-13394840.240478516,19096525.192260742,17945678.7109375,16198781.967163086,12903116.226196289,-5637986.660003662,-6481463.90914917,2257921.9341278076,1999210.3576660156,11840305.32836914,4880616.664886475,21916885.375976562,7928372.383117676,4397098.541259766,-139249.39930438995,3169236.660003662,1603353.3811569214,7408724.784851074,23112674.713134766,2942933.5594177246,2430415.630340576,10780072.212219238,8048174.858093262,1343139.410018921,8497781.753540039,11774697.303771973,-2887948.751449585,23242034.912109375,3620941.400527954,3603279.1137695312,12746996.879577637,1828011.6319656372,754761.815071106,2020058.3934783936,10361035.346984863,12124759.674072266,11754459.381103516,4310726.642608643,12942217.826843262,13367856.0256958,8530333.518981934,753628.4327507019,2104193.2106018066,9993678.092956543,9511188.507080078,10628552.436828613,17341199.87487793,16228313.446044922,9280030.250549316,6443559.646606445,8263123.512268066,9025891.304016113,9085912.704467773,15302392.00592041,14105901.718139648,6233301.162719727,8160753.25012207,7570403.099060059
0.305,-22047863.006591797,-7819512.844085693,-8696242.332458496,-1958844.542503357,-7975706.577301025,26572010.040283203,21810173.03466797,20206302.642822266,19074167.251586914,-68197.84641265869,-3238857.0308685303,1618418.6935424805,1612302.8993606567,12843923.568725586,10710540.771484375,26515924.45373535,10390960.693359375,8305502.891540527,2352476.3584136963,2138405.7998657227,-7922278.40423584,10147047.996520996,28401973.724365234,8588916.778564453,6532535.552978516,11860591.888427734,10427815.437316895,1522156.7153930664,4991021.633148193,1889872.5509643555,-1063200.3545761108,28306354.522705078,9247731.20880127,3118637.800216675,14229573.249816895,2151353.8360595703,1048111.081123352,-1783600.4495620728,2186611.6523742676,6787762.16506958,6333091.259002686,10041375.160217285,14431719.779968262,14852858.543395996,10061305.99975586,1030872.7025985718,-1524977.3263931274,4126647.472381592,3696463.3464813232,4955255.508422852,20504337.310791016,19644725.799560547,11589922.904968262,6780622.482299805,2664740.3240203857,3350763.0825042725,3458564.7583007812,16801473.61755371,15901181.2210083,6474970.34072876,2649722.3377227783,2137486.219406128
0.31,-5452574.253082275,10307227.13470459,3585872.4117279053,9667936.325073242,633364.5582199097,41102886.19995117,25928955.078125,24323942.184448242,26032104.4921875,7036846.160888672,2879559.7553253174,4206281.661987305,4137417.3164367676,14115430.83190918,16456626.892089844,39065547.943115234,11472482.681274414,12259536.743164062,5756793.49899292,3494348.7644195557,-7735579.013824463,10791139.602661133,15122925.758361816,14157110.214233398,15172972.679138184,11384716.033935547,12013590.812683105,1534361.1240386963,3928024.0535736084,1021113.9917373657,-6276190.280914307,14965816.497802734,14765114.784240723,6076261.043548584,13966708.183288574,2204209.089279175,1003326.5352249146,-3787361.8602752686,-2634180.784225464,-1818370.4614639282,-2218345.1652526855,15505735.397338867,14202339.172363281,14567371.368408203,10488358.497619629,1139858.0074310303,-5283314.228057861,-4345313.549041748,-4970407.009124756,-3552609.2052459717,20835639.95361328,20163793.563842773,12555488.586425781,3173150.3009796143,-5615079.879760742,-5026174.068450928,-5046110.153198242,13747943.878173828,13177624.702453613,2683928.966522217,-5620755.672454834,-6053345.680236816
0.315,5901750.087738037,22775581.35986328,11538055.419921875,15607312.202453613,3619351.387023926,50248344.42138672,28173524.856567383,26565898.895263672,28419469.833374023,9167759.895324707,4200445.175170898,2427663.803100586,2108140.230178833,9918768.882751465,14291227.340698242,45589870.45288086,11115289.688110352,13300538.063049316,6547607.421875,2881850.004196167,-6639958.85848999,3600042.3431396484,-3401856.6608428955,11991568.565368652,17524417.877197266,9736420.631408691,11812975.883483887,1347209.3343734741,2534641.981124878,777470.7078933716,-17074245.45288086,-3348819.7326660156,12512853.622436523,8633186.340332031,10950373.649597168,1933905.3630828857,616052.4487495422,-5326172.351837158,-6424004.077911377,-11913768.768310547,-12161552.429199219,13082535.743713379,11109674.453735352,11527482.032775879,9296660.423278809,960819.4231987,-8970583.91571045,-13948443.412780762,-14732943.534851074,-13276263.236999512,13694276.809692383,13026248.931884766,7245116.710662842,-4965855.121612549,-15120077.133178711,-14735547.065734863,-14893770.217895508,3343319.1776275635,2731634.6168518066,-5721156.597137451,-15221570.96862793,-15686238.288879395
0.32,7107822.895050049,26379968.643188477,13431073.188781738,13001853.942871094,-939230.6804656982,46083717.346191406,26957742.69104004,25430324.55444336,24739225.387573242,4340997.219085693,-1668938.7559890747,-5349400.520324707,-5773871.421813965,1371676.9218444824,4220448.4939575195,38672080.993652344,9447677.612304688,10496745.109558105,2994877.815246582,-2143790.0066375732,-13143630.027770996,-6635013.580322266,-12274109.840393066,2122759.1037750244,9768918.03741455,7160750.389099121,9861263.275146484,1258887.1717453003,-1288694.2625045776,-6198893.5470581055,-25776063.919067383,-11972920.417785645,2486886.739730835,6169760.704040527,6592747.211456299,1830060.2436065674,444542.4675941467,-7410343.170166016,-11285738.945007324,-19367160.79711914,-19524681.091308594,2951493.501663208,6573567.867279053,7160299.777984619,8057028.770446777,825177.8483390808,-10516430.854797363,-21056159.97314453,-21719320.29724121,-20426080.70373535,2565355.062484741,1846071.9585418701,-1445463.1805419922,-12464169.5022583,-22104055.404663086,-21976730.346679688,-22116962.432861328,-8855724.334716797,-9609847.068786621,-13396902.084350586,-22317922.592163086,-22998691.55883789
0.325,1047649.621963501,23012552.26135254,10287415.504455566,6023849.964141846,-7828307.151794434,33920150.75683594,22730804.443359375,21247810.36376953,18136108.3984375,-3294149.875640869,-9602626.80053711,-13721087.455749512,-14013064.38446045,-6179299.831390381,-5825839.519500732,26670625.686645508,6230929.374694824,5708254.337310791,-2737617.7310943604,-8677558.898925781,-23574186.325073242,-13412831.30645752,-13110883.712768555,-7717485.427856445,145572.7517604828,3776317.834854126,6819359.77935791,1493905.3058624268,-5795219.421386719,-15760042.190551758,-29242927.55126953,-12731458.66394043,-7552773.952484131,-190823.0483531952,3791875.123977661,2264055.7289123535,875643.7301635742,-8870634.078979492,-14983345.985412598,-21846811.294555664,-22026744.842529297,-7016317.367553711,3684579.372406006,4329973.6976623535,8753713.607788086,1099884.8676681519,-7877910.614013672,-23280345.916748047,-23764066.696166992,-22745643.615722656,-3924777.5077819824,-4620542.526245117,-5014266.9677734375,-14181742.668151855,-24277280.807495117,-24232681.274414062,-24266122.817993164,-14396899.223327637,-14959002.494812012,-15055686.950683594,-24484722.137451172,-25414953.231811523
0.33,-5968102.45513916,16306774.139404297,3892618.8945770264,862771.74949646,-11672707.557678223,26587440.490722656,18419075.01220703,16854757.30895996,13256875.038146973,-7992187.976837158,-13524011.611938477,-17630025.86364746,-17808992.385864258,-9653490.06652832,-8254723.54888916,22537328.720092773,2313789.129257202,1882702.112197876,-6658081.531524658,-12266390.800476074,-29185192.108154297,-15844470.977783203,-14241167.068481445,-10113353.729248047,-1701652.0500183105,291890.05494117737,3779002.904891968,1843347.668647766,-8131873.13079834,-19943613.052368164,-30109043.12133789,-13856298.446655273,-10087456.703186035,-4543640.13671875,4011116.5046691895,2903085.708618164,1527908.6828231812,-8616294.860839844,-14672752.380371094,-20627964.01977539,-20822797.775268555,-9424809.455871582,4038875.102996826,4509789.46685791,11408065.795898438,1637183.7854385376,-2749485.492706299,-21661178.588867188,-22259265.899658203,-21427061.080932617,-1809598.0882644653,-2495240.9267425537,-327736.2287044525,-10600970.268249512,-22843971.252441406,-22632621.76513672,-22629384.994506836,-11180111.8850708,-11366998.672485352,-11284815.788269043,-22917848.587036133,-23882583.618164062
0.335,-8149697.303771973,12183750.15258789,-342702.4483680725,839549.5414733887,-10511336.326599121,30667501.44958496,17228883.743286133,15530705.451965332,12631768.226623535,-7322052.955627441,-11831788.063049316,-16151147.842407227,-16486799.240112305,-8961246.490478516,-2865909.5764160156,28183506.01196289,329429.86488342285,866126.6565322876,-6607380.390167236,-11480946.54083252,-27186489.10522461,-15408452.033996582,-15442785.263061523,-4777144.432067871,4113636.4936828613,-1591596.7226028442,2150602.8175354004,1934890.7470703125,-7627731.800079346,-17525144.577026367,-29569572.44873047,-14970402.717590332,-4772089.004516602,-3237911.2243652344,6179188.7283325195,3066091.775894165,1729539.5135879517,-7488569.736480713,-11347419.738769531,-17917205.810546875,-18022045.135498047,-4129096.508026123,6390975.475311279,6697206.020355225,13835585.594177246,1931883.0966949463,402007.8778266907,-18570182.80029297,-19486217.498779297,-18672067.642211914,4483706.474304199,3681254.6253204346,6379246.234893799,-6046725.749969482,-20006923.67553711,-19630170.822143555,-19671644.21081543,-4542644.500732422,-4676222.801208496,-6652436.73324585,-19975914.001464844,-20748163.2232666
0.34,-4984556.674957275,14120906.829833984,2080970.7641601562,4146167.755126953,-6182080.268859863,39675838.470458984,19457969.665527344,17645317.07763672,15057587.623596191,-3515594.720840454,-7513503.074645996,-11985194.206237793,-12651487.350463867,-5932102.680206299,3798854.112625122,34288650.51269531,2278687.4771118164,2448652.744293213,-3943414.6881103516,-8521436.69128418,-22007137.298583984,-13246437.072753906,-12858405.113220215,1941684.365272522,9608438.491821289,-237799.19743537903,2791071.4149475098,1736254.334449768,-5927305.221557617,-13768549.919128418,-26807800.29296875,-12305480.95703125,1990041.6135787964,1139998.435974121,8304875.373840332,2581251.621246338,1415765.643119812,-7027142.524719238,-8908342.361450195,-15297344.207763672,-15288934.707641602,2481210.708618164,8449057.579040527,8908974.647521973,14082406.044006348,1785068.9888000488,-611925.6019592285,-15867315.292358398,-16888067.2454834,-16059289.932250977,8323700.904846191,7394428.730010986,8290567.398071289,-3603325.366973877,-17259054.18395996,-16967247.009277344,-17051212.310791016,-543674.4093894958,-982436.1801147461,-4294081.211090088,-17279108.04748535,-17890615.463256836
0.345,-3348156.9290161133,16431888.580322266,5586079.5974731445,5761546.611785889,-3929660.0818634033,42121456.146240234,22452322.006225586,20509492.874145508,17243814.46838379,-812458.9920043945,-5106857.2998046875,-10353574.752807617,-11198643.684387207,-5087154.865264893,5228520.87020874,33668544.76928711,6834589.48135376,5079313.278198242,-1747875.3328323364,-6708927.631378174,-19559598.922729492,-12856656.074523926,-10954744.338989258,3498680.353164673,9466254.234313965,3807736.63520813,4925637.722015381,1559551.0005950928,-5117041.110992432,-13489398.002624512,-24709131.240844727,-10483486.17553711,3581328.1536102295,3335622.0722198486,9112410.545349121,2000460.6246948242,1147161.4837646484,-7516935.8253479,-9947937.01171875,-14965018.272399902,-14957893.371582031,4009394.1688537598,8954294.204711914,9780539.512634277,12498616.218566895,1531915.1878356934,-3510509.490966797,-15600724.220275879,-16401353.83605957,-15678981.78100586,7672188.282012939,6784289.836883545,6278931.617736816,-3695158.004760742,-16629547.119140625,-16547487.258911133,-16691225.051879883,-999716.9375419617,-1602561.354637146,-4428439.617156982,-16774585.723876953,-17443479.537963867
0.35,-9071549.415588379,11298351.287841797,334723.47259521484,3778266.191482544,-7576234.340667725,35863761.90185547,24324663.162231445,22207078.93371582,17827917.098999023,-752528.3694267273,-6299322.605133057,-14712139.129638672,-15432472.229003906,-10267595.291137695,1294586.3008499146,29629936.21826172,10625526.428222656,7575143.814086914,-1231792.3307418823,-7213436.126708984,-21688177.10876465,-17957687.377929688,-17031188.96484375,-444284.3198776245,6567636.489868164,7424336.910247803,6587587.833404541,1622531.6524505615,-5700498.580932617,-16678264.617919922,-27841463.088989258,-16696182.250976562,-346141.6959762573,1658733.2487106323,8172275.543212891,1907984.1375350952,1278572.678565979,-7975356.578826904,-13311390.87677002,-18677333.83178711,-18768396.377563477,212711.51304244995,7852830.410003662,8827470.779418945,10680448.532104492,1549167.6330566406,-5050056.457519531,-19197168.350219727,-19821123.123168945,-19239444.732666016,4693290.233612061,3938003.0632019043,5065498.828887939,-5770219.326019287,-19945659.637451172,-19877597.80883789,-20171817.779541016,-4361004.829406738,-4723612.7853393555,-6360213.756561279,-20098363.876342773,-20937625.885009766
0.355,-16624046.325683594,3043993.9498901367,-10621069.90814209,2868527.889251709,-12917195.320129395,30386779.78515625,25980697.631835938,23690849.30419922,18963520.050048828,-369032.621383667,-7495484.352111816,-20818708.419799805,-21298629.760742188,-17654876.708984375,-2354785.680770874,29548982.620239258,11821480.751037598,9894713.401794434,-522086.5607261658,-7672650.337219238,-24318204.879760742,-24860551.834106445,-26678153.99169922,-4253272.05657959,6870793.342590332,7628407.955169678,6480100.154876709,1818590.521812439,-5840749.740600586,-19187707.901000977,-33534828.186035156,-26300617.218017578,-4157279.9682617188,-788669.5861816406,5677433.013916016,2250046.2532043457,1530634.5224380493,-7479349.613189697,-15363201.141357422,-23910354.614257812,-24048692.70324707,-3441858.7684631348,5553448.677062988,6290384.292602539,8990542.4118042,1776874.06539917,-4851650.714874268,-24208011.627197266,-25031753.540039062,-24346769.332885742,1656837.2249603271,898592.2932624817,4905755.043029785,-8653539.657592773,-25034057.6171875,-24745466.232299805,-25199651.71813965,-7991104.1259765625,-8058686.256408691,-9062760.353088379,-25031917.572021484,-25957887.649536133
0.36,-15158879.280090332,4323436.737060547,-12135662.078857422,7804209.7091674805,-11056053.161621094,33123512.268066406,28176685.333251953,25740671.157836914,22411325.454711914,3407446.1460113525,-3930665.0161743164,-19590108.87145996,-19974971.771240234,-17770746.2310791,-1608138.918876648,34084663.39111328,11022374.153137207,11974492.073059082,2203516.721725464,-5013617.515563965,-21595376.96838379,-23995700.83618164,-26948554.99267578,-3584306.478500366,11147812.843322754,4571571.350097656,5025774.4789123535,1929373.025894165,-3371613.025665283,-16894500.732421875,-32806404.11376953,-26409816.74194336,-3523528.814315796,-869861.6623878479,2557207.5843811035,2512037.754058838,1511884.331703186,-6099519.729614258,-13574473.38104248,-24824758.529663086,-24891586.303710938,-2821861.743927002,2707658.290863037,3136033.058166504,6580695.152282715,1880665.1830673218,-4595569.133758545,-25183347.702026367,-26445117.950439453,-25303369.522094727,-416279.49476242065,-1324961.4238739014,2503424.1676330566,-10178480.14831543,-26273860.931396484,-25822044.372558594,-26249504.08935547,-9275428.771972656,-9372702.598571777,-10601167.678833008,-26113580.70373535,-27020700.454711914
0.365,-6233592.0333862305,15290746.688842773,-36889.996379613876,14361950.874328613,-1276031.255722046,38261184.69238281,28344253.540039062,25769813.537597656,25118219.37561035,8142964.3630981445,2928755.760192871,-9299218.17779541,-9748126.029968262,-8303290.367126465,941030.2042961121,36711261.74926758,8889166.831970215,12473866.46270752,5209395.408630371,-69812.17861175537,-13417909.622192383,-13066795.349121094,-14898054.122924805,-933660.9840393066,14106245.994567871,933955.3713798523,3390309.5722198486,1882353.9018630981,896197.1998214722,-10254958.152770996,-23058982.849121094,-14407756.805419922,-880493.700504303,419092.8637981415,-11808.786541223526,2404792.547225952,1294980.525970459,-4742207.5271606445,-8960427.284240723,-19326583.862304688,-19289617.53845215,-329853.5943031311,107688.92616033554,488300.23407936096,3790374.755859375,1726354.0029525757,-4696525.096893311,-20102352.142333984,-21639039.993286133,-19987699.508666992,-926199.5553970337,-1919550.2996444702,-1791051.8646240234,-8885044.09790039,-21355115.89050293,-20989923.47717285,-21171628.952026367,-7190821.647644043,-7494612.216949463,-9486755.37109375,-21184911.727905273,-22074871.063232422
0.37,-4960462.0933532715,19386268.615722656,9468162.536621094,12742574.691772461,5651007.652282715,34899005.88989258,23459825.51574707,20855894.088745117,22044660.568237305,7940282.344818115,5756112.575531006,224622.4731206894,-244964.24198150635,848204.7319412231,210526.06403827667,33221668.243408203,5246535.301208496,10094905.853271484,4884818.553924561,2577081.2034606934,-6709794.998168945,-2081188.2019042969,-2585000.2765655518,-1594314.5751953125,11888655.662536621,-1225831.2702178955,2228309.8697662354,1759622.8122711182,3286049.6044158936,-4337301.254272461,-13041101.455688477,-2440808.7730407715,-1380177.37865448,29527.18921005726,-1551786.8995666504,2133074.2835998535,1211810.827255249,-4254665.851593018,-4787562.847137451,-12329343.795776367,-12253309.24987793,-961351.752281189,-1723889.8277282715,-1212227.463722229,2614798.069000244,1507052.1831512451,-3843162.775039673,-13513047.218322754,-14977836.608886719,-13201371.192932129,-58845.04318237305,-986147.940158844,-3646327.495574951,-6037252.426147461,-14788638.1149292,-14613458.633422852,-14542704.582214355,-3765067.5773620605,-4095345.4971313477,-6721239.5668029785,-14719937.324523926,-15627843.856811523
0.375,-17781442.642211914,7941801.54800415,3465490.8180236816,1966429.352760315,2286734.8194122314,23695917.1295166,15887742.042541504,13603795.051574707,14073242.1875,2011915.683746338,1447473.168373108,430229.87246513367,110074.82558488846,686642.3487663269,-3279214.382171631,27528186.798095703,1316439.0325546265,6323173.522949219,1114870.4290390015,672663.7482643127,-6668457.03125,-321815.8185482025,-168537.79554367065,-5198012.828826904,7839131.832122803,-1641214.2515182495,1888643.3839797974,1697743.1774139404,1831640.124320984,-3086326.837539673,-11005934.715270996,-299389.7497653961,-4653072.357177734,-1865399.0030288696,-2053343.7728881836,2022434.949874878,1331290.0066375732,-4653645.992279053,-3077376.127243042,-9470476.150512695,-9421450.6149292,-4307053.089141846,-2414553.40385437,-1875716.6862487793,3987375.020980835,1452663.4216308594,-1731629.6100616455,-10784559.24987793,-11991826.057434082,-10524560.928344727,805979.9075126648,-63493.31885576248,-1777736.4253997803,-4253158.5693359375,-12042476.654052734,-11934827.80456543,-11800266.26586914,-2219455.0037384033,-2412585.735321045,-4787453.651428223,-12041014.671325684,-12935130.11932373
0.38,-29446981.43005371,-3455530.881881714,-6440080.642700195,-5749708.17565918,-3661246.0613250732,17292285.919189453,12734741.2109375,11194209.098815918,9229537.010192871,-2605341.911315918,-3330401.89743042,-4059025.764465332,-4152816.2956237793,-4282907.485961914,-3639962.673187256,26185630.798339844,351742.62523651123,5048929.691314697,-1555554.6283721924,-2129647.2549438477,-9694424.629211426,-4149106.979370117,-3448398.5900878906,-5660835.742950439,8210654.258728027,-404770.1060771942,2974972.2480773926,1808030.128479004,-823443.6511993408,-4785582.065582275,-13976321.22039795,-3429347.9919433594,-4878334.999084473,-1538290.7390594482,-1051285.6245040894,2112954.616546631,1442547.32131958,-5294925.689697266,-3208652.973175049,-10306694.030761719,-10319683.074951172,-4600206.37512207,-1359300.971031189,-928625.2856254578,6080605.983734131,1576445.460319519,-396794.8257923126,-11615989.685058594,-12623563.766479492,-11477400.779724121,892816.5435791016,-32330.799847841263,147627.96461582184,-4352452.278137207,-12821090.698242188,-12641149.520874023,-12588752.746582031,-3078918.695449829,-3256674.289703369,-4678994.178771973,-12789800.643920898,-13606167.793273926
0.385,-22195146.560668945,4726506.233215332,-573729.5150756836,302113.1157875061,-62922.93965816498,23223852.157592773,17828435.89782715,17113681.79321289,13437926.292419434,354860.5740070343,-795841.7534828186,-3013155.460357666,-2978060.245513916,-3656961.9178771973,1302981.972694397,29950782.775878906,4096005.439758301,8253708.839416504,438259.15455818176,-1091519.5941925049,-8863952.63671875,-4208963.394165039,-3602996.1109161377,-582958.2214355469,13345147.132873535,2531074.285507202,5578879.833221436,2064177.5131225586,-829827.9047012329,-5083157.062530518,-14163555.145263672,-3172856.092453003,83527.43089199066,2415281.295776367,1659919.6195602417,2213455.4386138916,1436670.6609725952,-5647971.630096436,-3768176.0787963867,-10791126.251220703,-10911312.103271484,335836.61913871765,1421111.1068725586,1822088.9568328857,6505475.5210876465,1720433.9504241943,-1698439.2404556274,-12167251.586914062,-13118854.522705078,-11952231.407165527,1227091.670036316,258314.43071365356,-162777.08113193512,-5146481.513977051,-13295020.10345459,-13011021.614074707,-13025129.318237305,-4061720.371246338,-4379590.98815918,-5447470.188140869,-13201948.165893555,-13934123.039245605
0.39,-1416122.9133605957,27145774.841308594,18475231.170654297,14655659.675598145,11379404.067993164,33868404.388427734,26512701.0345459,26206388.473510742,22492322.92175293,7824334.621429443,6860893.726348877,4004875.1831054688,4011113.6436462402,3024388.074874878,6015586.853027344,33782882.69042969,9730061.531066895,13101823.806762695,4774499.416351318,2979745.864868164,-3962748.7659454346,413709.3722820282,-942462.0866775513,4340991.497039795,17163127.899169922,5968805.313110352,8262838.363647461,2243435.6212615967,1797791.838645935,-2950085.6399536133,-10714761.734008789,-314240.038394928,4629374.5040893555,5909708.499908447,4399441.719055176,2195296.7643737793,1396186.351776123,-5514207.83996582,-4034231.185913086,-9669385.91003418,-9938328.742980957,5004034.519195557,4051415.9202575684,4596872.806549072,5257759.571075439,1745557.427406311,-4342309.474945068,-11108253.479003906,-12091367.721557617,-10713657.37915039,2478350.877761841,1608012.318611145,-441826.7011642456,-5723516.941070557,-12277208.32824707,-11901250.839233398,-11914695.739746094,-3785385.847091675,-4183472.156524658,-6178148.26965332,-12171000.480651855,-12884518.62335205
0.395,9954834.938049316,39312797.54638672,28210119.247436523,21870391.845703125,17026473.999023438,37128604.888916016,30539281.845092773,30116287.231445312,26671398.162841797,11217101.097106934,10426474.571228027,7911959.171295166,7801930.904388428,6540371.417999268,4997813.2247924805,33926776.88598633,12375680.923461914,14871431.350708008,6206916.332244873,5029744.625091553,-945872.1280097961,2834933.042526245,-1520582.1990966797,3294700.6225585938,15882185.935974121,7563878.059387207,9049510.955810547,2112420.7973480225,3660691.976547241,-999176.7406463623,-8741661.071777344,-1061421.7519760132,3282052.755355835,4638822.555541992,4633515.83480835,2081656.9328308105,1344718.9331054688,-4766637.802124023,-3496267.557144165,-8676929.473876953,-9055622.100830078,3913905.620574951,4099818.229675293,4829806.804656982,4299828.52935791,1632891.058921814,-5034140.110015869,-10002210.61706543,-11043704.986572266,-9627538.681030273,3042736.053466797,2316788.911819458,1073195.457458496,-6076765.537261963,-11381140.70892334,-10946650.505065918,-10969907.760620117,-3239370.346069336,-3640448.808670044,-6653872.013092041,-11322386.741638184,-12095765.113830566
0.4,1335132.8372955322,30266206.741333008,18188104.6295166,15607254.981994629,10719067.573547363,31276958.465576172,27079469.680786133,26459075.927734375,22430198.669433594,7523130.893707275,6392758.369445801,4318067.55065918,4108434.6771240234,2524616.479873657,661252.5582313538,31386531.829833984,10471228.59954834,12433917.045593262,3400717.7352905273,2876629.114151001,-2708554.983139038,297392.99416542053,-5822031.9747924805,-1238012.7906799316,12837409.019470215,6600343.704223633,7721762.180328369,1730635.2853775024,2789789.4382476807,-1029572.4868774414,-10135316.848754883,-5572724.342346191,-1318860.1732254028,547664.8211479187,2516881.9427490234,1955500.3643035889,1209838.5095596313,-3708489.418029785,-1982319.2358016968,-8408435.821533203,-8757582.664489746,-444407.28425979614,1919956.3264846802,2743238.925933838,4991911.888122559,1477923.3932495117,-2799332.1418762207,-9502513.885498047,-10604761.123657227,-9340204.238891602,1567065.4773712158,856280.0884246826,2452895.402908325,-5866654.396057129,-11005042.07611084,-10624351.501464844,-10731270.790100098,-3286352.3960113525,-3800988.19732666,-6420635.70022583,-11017904.281616211,-11867777.824401855
0.405,-13168742.179870605,15379787.44506836,3682014.226913452,5145799.63684082,1700054.0494918823,24199043.27392578,21029396.057128906,20591232.299804688,15990282.05871582,2444079.1606903076,931172.5497245789,-992752.2540092468,-1218898.6539840698,-3080179.6913146973,-805470.9434509277,28826580.047607422,7214387.4168396,9388703.346252441,331478.3573150635,-295116.3351535797,-5855317.115783691,-2832082.986831665,-9195856.094360352,-2678080.5587768555,12727873.802185059,5381679.534912109,6370935.440063477,1438676.118850708,587255.9547424316,-2438482.0461273193,-12127488.136291504,-8895103.454589844,-2740877.151489258,-552834.6300125122,1498806.8342208862,1926161.4084243774,1060104.250907898,-3675971.269607544,-1131653.3088684082,-8302536.0107421875,-8476196.2890625,-1755823.9698410034,993686.0203742981,1824511.7664337158,7032513.618469238,1413875.699043274,-815846.32396698,-9272908.210754395,-10391405.10559082,-9168432.235717773,-14000.862836837769,-833819.1509246826,2524191.8563842773,-4795160.77041626,-10549554.824829102,-10333932.876586914,-10564159.393310547,-3307250.2613067627,-3976215.362548828,-5298840.045928955,-10615283.966064453,-11463744.163513184
0.41,-15260480.880737305,13658948.89831543,2944970.8461761475,2239856.958389282,696998.8346099854,21803619.384765625,18643632.888793945,18633880.615234375,14823018.074035645,2138681.173324585,519165.87352752686,-1805767.4169540405,-1955232.7394485474,-4057873.7258911133,1261829.7338485718,27119588.85192871,6571313.858032227,9588947.296142578,862969.9945449829,-833475.8877754211,-6823943.614959717,-3336668.4913635254,-10618002.891540527,-288676.1724948883,14804407.119750977,6585888.862609863,7208713.054656982,1467510.461807251,-917591.392993927,-4349332.332611084,-13343124.389648438,-10141820.907592773,-370048.76136779785,2757029.2949676514,3785905.361175537,2101746.3207244873,1096454.0243148804,-5936549.663543701,-3424838.7813568115,-9667360.305786133,-9634563.446044922,577518.880367279,3426186.5615844727,4206202.030181885,9188506.126403809,1487883.5678100586,-2809800.148010254,-10746669.76928711,-11770175.93383789,-10381326.675415039,768667.6979064941,-143604.88951206207,3384760.618209839,-4403645.5154418945,-11626409.530639648,-11504016.876220703,-11798680.305480957,-3380111.2174987793,-3925654.649734497,-4980953.216552734,-11689929.962158203,-12441866.874694824
0.415,-5380748.748779297,23805471.420288086,13219077.110290527,7357943.058013916,5843780.994415283,22881586.0748291,21105207.443237305,21174680.709838867,18883918.76220703,5664376.258850098,3711717.128753662,273147.851228714,230994.99940872192,-2115851.1638641357,1786860.2275848389,26358268.73779297,9176782.608032227,12871261.596679688,4186079.978942871,860750.2579689026,-6430269.241333008,-3299005.9852600098,-12906348.22845459,427508.47339630127,15353226.661682129,9893964.767456055,10210848.808288574,1676279.7832489014,-1475063.443183899,-6341936.5882873535,-14797371.864318848,-12457779.884338379,390830.1591873169,5499248.98147583,6721504.211425781,2435191.1544799805,1313656.6877365112,-9468445.777893066,-8236797.332763672,-14204545.974731445,-14099748.611450195,1158440.7091140747,6460114.002227783,7120363.235473633,9893543.243408203,1581948.0419158936,-8220102.310180664,-15613884.925842285,-16455869.674682617,-14942337.036132812,1751586.4372253418,808331.4299583435,4679555.892944336,-7202787.399291992,-16396051.406860352,-16158054.35180664,-16374404.907226562,-5379204.273223877,-5573061.943054199,-7934186.935424805,-16398626.327514648,-17091848.373413086
0.42,2016991.376876831,30646455.764770508,18527729.034423828,12200802.80303955,7775817.87109375,23801961.89880371,24685342.78869629,24229072.57080078,22277276.99279785,7653481.483459473,4894804.47769165,353628.7248134613,352669.4178581238,-2124256.372451782,-1966148.3764648438,26769189.834594727,12469504.356384277,15872447.967529297,6561833.85848999,1991783.857345581,-6763826.847076416,-4771057.12890625,-15916507.720947266,-3554902.5535583496,13805242.538452148,12522305.488586426,13235528.945922852,1776968.7175750732,-1639775.8722305298,-6990868.56842041,-15691755.294799805,-15720993.995666504,-3413383.722305298,3341365.098953247,5975287.437438965,2658605.5755615234,1430459.6185684204,-11191060.066223145,-11107139.587402344,-19805812.83569336,-19854780.197143555,-2934689.998626709,5681195.259094238,6213452.8160095215,7902375.221252441,1526096.224784851,-12451824.188232422,-21702163.696289062,-22426033.02001953,-21013427.734375,-2146133.4228515625,-3130510.8070373535,805654.4065475464,-13186344.146728516,-22812145.233154297,-22411865.234375,-22434926.986694336,-10333461.76147461,-10483330.726623535,-13986951.82800293,-22758432.388305664,-23579057.693481445
0.425,-1307798.3856201172,26501642.22717285,12128846.168518066,11162416.458129883,2814291.23878479,22422348.022460938,25131679.53491211,24064472.198486328,20992162.704467773,5468358.516693115,2041953.0868530273,-2792809.7248077393,-2835239.887237549,-5234179.0199279785,-7304257.869720459,26836538.314819336,13424475.66986084,15842257.499694824,5718382.358551025,1047590.8517837524,-8008448.600769043,-6536978.721618652,-16925256.729125977,-9218660.354614258,11880353.927612305,12388228.416442871,14051451.683044434,1701711.0586166382,-1592173.2187271118,-5207737.922668457,-14127811.431884766,-16914993.286132812,-8941666.603088379,-1918450.3555297852,1601018.9056396484,2553962.469100952,1292464.8523330688,-9586987.495422363,-9233451.843261719,-21982774.73449707,-22329746.24633789,-8696746.826171875,1093058.1092834473,1644293.5466766357,4045617.5804138184,1329753.7565231323,-12063512.802124023,-24337194.442749023,-25123903.274536133,-23910192.489624023,-10910330.772399902,-11946586.608886719,-10093181.610107422,-18779108.04748535,-25777153.01513672,-25451745.986938477,-25325624.465942383,-16137666.702270508,-16790498.733520508,-19532253.26538086,-25767309.188842773,-26835901.260375977
0.43,-10809224.128723145,16427156.448364258,575055.0031661987,5645272.731781006,-5027747.15423584,17426404.95300293,21094472.885131836,20017076.49230957,16213413.23852539,973732.590675354,-2606898.784637451,-7627453.804016113,-7689363.479614258,-10036919.593811035,-11271309.852600098,23274023.056030273,10779922.485351562,12783226.013183594,2308417.797088623,-1670989.1557693481,-10045140.266418457,-7984071.731567383,-17248800.27770996,-13120034.217834473,8836990.356445312,9723490.715026855,12113050.46081543,1598821.520805359,-1892751.5745162964,-3044688.2247924805,-12166181.564331055,-17174083.709716797,-12925211.906433105,-5668301.582336426,-1825715.3034210205,2259982.3474884033,1110973.596572876,-7017309.665679932,-5702667.236328125,-20006288.528442383,-20581899.642944336,-12656066.89453125,-2637728.9295196533,-1844000.3395080566,1691491.961479187,1204934.4778060913,-8421382.904052734,-22476047.51586914,-23436729.431152344,-22342983.24584961,-17225517.27294922,-18211198.806762695,-18901321.411132812,-20396846.771240234,-23833499.908447266,-23816083.908081055,-23712156.295776367,-19433792.114257812,-20619419.09790039,-21128465.65246582,-23985309.600830078,-25170854.568481445
0.435,-20345094.680786133,5935953.617095947,-10139773.36883545,-1116793.9901351929,-12011024.475097656,8591420.17364502,14406048.774719238,13862191.200256348,10889834.4039917,-3361021.2802886963,-7078401.0887146,-13452645.301818848,-13433194.160461426,-16108596.801757812,-14313597.679138184,15549164.772033691,5652767.181396484,8480000.495910645,-1827112.4362945557,-5442508.220672607,-13588818.550109863,-10937855.72052002,-21204843.521118164,-15753706.932067871,2702215.1947021484,6221428.394317627,8790944.09942627,1545619.4877624512,-3715768.337249756,-3868602.0374298096,-14216011.047363281,-20958662.033081055,-15719694.137573242,-6512197.971343994,-1176794.8865890503,2108832.836151123,1126150.7272720337,-6899548.530578613,-5367218.017578125,-17826501.846313477,-18420766.830444336,-15187311.172485352,-2169905.185699463,-1027642.7268981934,3610205.1734924316,1294157.2666168213,-5465666.770935059,-19962251.663208008,-21051975.25024414,-19990989.685058594,-15137167.930603027,-15930194.854736328,-15368537.902832031,-18085559.844970703,-20956087.112426758,-21168313.98010254,-21165584.564208984,-19001203.536987305,-20209964.752197266,-18900928.497314453,-21270116.806030273,-22330894.470214844
0.44,-29126205.444335938,-4501395.702362061,-19837285.9954834,-7569903.85055542,-17393489.837646484,-484447.98588752747,8663548.469543457,8473646.16394043,6499233.722686768,-6791405.67779541,-10737697.60131836,-18885395.050048828,-18780683.517456055,-22064096.450805664,-17097826.00402832,8634446.144104004,833244.8601722717,4768627.166748047,-5162375.926971436,-9054409.980773926,-17478662.490844727,-14827490.80657959,-27330791.473388672,-18273788.452148438,-4226644.515991211,3558573.9612579346,6165785.312652588,1469654.91771698,-6836596.965789795,-7016693.115234375,-19165340.423583984,-27012529.373168945,-18209575.653076172,-6386471.271514893,1562887.191772461,2180332.4222564697,1251525.1636505127,-9185776.710510254,-7894390.106201172,-17932281.494140625,-18428159.713745117,-17439712.524414062,615565.3595924377,2007422.2087860107,8326585.76965332,1468924.4031906128,-4949068.069458008,-19690298.080444336,-20834568.02368164,-19710351.943969727,-8211151.123046875,-8812053.680419922,-3394461.6317749023,-14832258.224487305,-20492855.072021484,-20649787.90283203,-20616849.899291992,-16452831.268310547,-17440258.026123047,-15695667.266845703,-20823966.97998047,-21705865.85998535
0.445,-35528266.90673828,-11554166.793823242,-25360799.78942871,-11559768.676757812,-18878940.58227539,-3636170.1488494873,6865812.7784729,6468849.658966064,3838152.1701812744,-8737420.082092285,-11806617.736816406,-19800685.88256836,-19769117.35534668,-23433189.392089844,-17899665.83251953,8010162.353515625,-1167766.2134170532,2808427.095413208,-6624722.957611084,-10326735.496520996,-17718475.341796875,-14840230.941772461,-28235649.10888672,-19176134.10949707,-6478517.532348633,2594386.8160247803,5407979.0115356445,1348155.6177139282,-8513442.039489746,-7545500.755310059,-20042650.22277832,-27933885.57434082,-18914701.461791992,-6483727.931976318,2594945.4307556152,2243557.929992676,1279422.5215911865,-10511013.03100586,-8473719.596862793,-18213026.04675293,-18702556.610107422,-18124809.26513672,1789256.4535140991,3204101.5625,11381619.453430176,1502783.4177017212,-5317564.010620117,-20093399.047851562,-21287641.525268555,-19924680.709838867,-5233673.095703125,-5805573.463439941,2608513.832092285,-13178811.073303223,-21034044.26574707,-20986083.984375,-20788417.81616211,-14500425.338745117,-15620119.094848633,-13896744.728088379,-21231767.654418945,-22091159.82055664
0.45,-33726787.56713867,-7355237.96081543,-19150043.487548828,-9962394.714355469,-12859292.030334473,748211.145401001,9036167.14477539,8334334.373474121,4035206.7947387695,-7971308.708190918,-8192277.908325195,-13659067.153930664,-13829729.080200195,-17352178.5736084,-15854103.088378906,12498002.052307129,-268594.8610305786,2859029.2930603027,-5889720.439910889,-8049166.679382324,-12530996.322631836,-8343458.17565918,-21259958.267211914,-17306488.037109375,-3375188.5890960693,2890588.5219573975,6044601.4404296875,1282110.8102798462,-6325318.336486816,-3135433.9122772217,-13734256.744384766,-20936819.076538086,-16960716.247558594,-6215220.928192139,1314006.5670013428,2149291.753768921,1231776.8335342407,-8920467.376708984,-5128959.178924561,-16373733.520507812,-17000782.012939453,-16262687.683105469,573726.2964248657,1785736.5608215332,10622321.128845215,1364518.404006958,-4816906.452178955,-18851984.02404785,-20049798.9654541,-18396011.352539062,-8755146.026611328,-9447133.06427002,-2438922.166824341,-13182920.455932617,-19983102.798461914,-19807537.078857422,-19567544.93713379,-14719480.514526367,-16223047.256469727,-13674556.732177734,-20038970.947265625,-20980966.567993164
0.455,-23317094.802856445,7431113.243103027,-2710322.141647339,-3933510.5419158936,-1791025.5193710327,6344102.85949707,11789469.718933105,11235478.401184082,6590887.069702148,-4808324.337005615,-1657745.2421188354,-4732187.747955322,-5012912.750244141,-8155968.66607666,-13415601.73034668,15520957.946777344,1092785.7160568237,4036083.221435547,-3973970.413208008,-4208915.710449219,-6045236.587524414,-27652.112767100334,-13363987.922668457,-14814310.073852539,-679808.6166381836,3124052.047729492,6825187.683105469,1303941.9651031494,-1642971.396446228,2153821.4683532715,-6076679.706573486,-12985121.726989746,-14589362.144470215,-5270809.173583984,340988.4572029114,2027764.3203735352,1231233.5968017578,-6464221.000671387,-1360131.6213607788,-13787735.939025879,-14537285.804748535,-13890274.047851562,-395595.87836265564,507895.5292701721,8487972.259521484,1198661.208152771,-3900243.2823181152,-16717227.935791016,-17741167.068481445,-16098260.879516602,-12121972.08404541,-12937693.59588623,-7433661.460876465,-12996334.075927734,-17843288.42163086,-17613519.6685791,-17610301.971435547,-15769597.053527832,-17254112.243652344,-13470004.081726074,-17860609.05456543,-18816555.02319336
0.46,-15517443.656921387,17508325.576782227,8060063.362121582,-530336.9760513306,4577397.346496582,5970677.852630615,11746023.178100586,11547886.848449707,8399050.71258545,-2087943.3155059814,2224359.7507476807,-702850.1629829407,-877872.7650642395,-3863727.331161499,-12883915.901184082,13577083.587646484,968307.375907898,4967506.408691406,-2553147.792816162,-2420349.597930908,-3917784.2140197754,3140109.5390319824,-11734223.365783691,-14090309.143066406,-2338512.182235718,2850673.4371185303,7287692.546844482,1287821.1736679077,1429314.9709701538,3226778.507232666,-4054677.0095825195,-11383767.127990723,-13964196.20513916,-4152550.69732666,1564313.7693405151,2011228.322982788,1183618.0686950684,-6270584.1064453125,-796513.1998062134,-12814611.434936523,-13529531.478881836,-13170125.007629395,890756.9050788879,1581694.483757019,8209621.429443359,1072276.1154174805,-4042188.1675720215,-15626572.608947754,-16363618.850708008,-15096716.88079834,-8993752.479553223,-9844456.672668457,-2338627.338409424,-11004901.885986328,-16659654.61730957,-16294084.548950195,-16610210.418701172,-14004139.90020752,-15007425.308227539,-11714804.649353027,-16702688.217163086,-17607294.0826416
0.465,-20653617.85888672,10299819.946289062,930943.9659118652,-4658308.982849121,61134.61032509804,711211.8005752563,9468472.480773926,9151484.489440918,7118381.023406982,-2173725.128173828,207126.08098983765,-3893603.0864715576,-3876777.6489257812,-7012588.024139404,-12910824.7756958,10093205.451965332,454126.7156600952,5198448.657989502,-2266330.4805755615,-3813438.4155273438,-6569804.1915893555,239153.04243564606,-14749466.896057129,-14043661.117553711,-4823573.589324951,3325558.662414551,8021106.719970703,1158449.8882293701,750315.1297569275,537457.2277069092,-7082006.931304932,-14534066.200256348,-13835404.396057129,-2818916.082382202,3863198.5187530518,2009765.386581421,931860.9833717346,-8431565.284729004,-2556375.503540039,-13095612.525939941,-13669397.354125977,-13009513.854980469,3307198.0476379395,4028978.8246154785,9530271.530151367,924747.3478317261,-5297437.66784668,-15509017.944335938,-16149719.23828125,-15147447.58605957,-2138293.0278778076,-2940822.124481201,6354686.260223389,-7813190.460205078,-16574872.970581055,-15991811.752319336,-16430725.09765625,-7871006.488800049,-8703700.065612793,-8672640.800476074,-16621360.778808594,-17540693.283081055
0.47,-32589866.638183594,-5105847.8355407715,-14419305.801391602,-11611702.919006348,-9113296.508789062,-1700934.7677230835,8522565.841674805,7561528.205871582,4631067.276000977,-3825082.302093506,-4378394.12689209,-8891227.722167969,-8774582.862854004,-12104310.989379883,-11502904.891967773,9858582.496643066,1946584.5823287964,5611081.600189209,-2152005.434036255,-5775730.133056641,-9389500.617980957,-3598821.4015960693,-16539154.052734375,-12698917.388916016,-3116695.8808898926,5574522.972106934,9369962.692260742,1037084.5794677734,-1608366.2509918213,-1544162.2734069824,-9703554.153442383,-16447004.318237305,-12401200.294494629,-1063593.029975891,4752588.748931885,1900933.861732483,630694.3893432617,-10189190.864562988,-3693472.8622436523,-13069854.736328125,-13540381.43157959,-11648882.865905762,4229534.149169922,5163567.543029785,9653137.20703125,759827.5542259216,-6274355.411529541,-15308567.04711914,-16195604.32434082,-14957827.5680542,224449.18751716614,-460484.0576648712,5257824.420928955,-6185869.6937561035,-16488254.54711914,-15803267.478942871,-16192136.764526367,-1636235.4755401611,-3061321.973800659,-6798119.068145752,-16532503.128051758,-17518218.994140625
0.475,-34622863.76953125,-7132428.169250488,-16461351.39465332,-12115527.153015137,-11077686.309814453,2417692.4228668213,10679025.650024414,9276330.947875977,5020563.125610352,-3517834.6633911133,-5355275.1541137695,-9292634.010314941,-9165579.795837402,-12480871.200561523,-10542891.502380371,12598806.381225586,5380361.080169678,7212330.341339111,-875971.4365005493,-5196974.754333496,-8849356.651306152,-4135833.740234375,-15974699.974060059,-11763846.397399902,1113969.8028564453,8258395.195007324,10648076.057434082,1044513.9408111572,-2304306.983947754,-1025851.7265319824,-9719099.044799805,-15915434.837341309,-11588920.593261719,-241630.56910037994,3145672.082901001,1755386.1141204834,602788.8655662537,-9654315.948486328,-3719014.1677856445,-13171324.729919434,-13639404.296875,-10893043.518066406,2511473.6557006836,3615927.9346466064,7323880.195617676,704147.5772857666,-6267959.5947265625,-15487076.759338379,-16694219.589233398,-15063962.936401367,-5061212.539672852,-5564161.777496338,-5992310.523986816,-8327973.365783691,-16663196.563720703,-16100599.28894043,-16497108.459472656,-2026611.8049621582,-4195466.5184021,-8479806.900024414,-16763977.05078125,-17713726.043701172
0.48,-21097286.224365234,10524220.46661377,1056837.9163742065,-4038968.563079834,-2412976.026535034,8039578.437805176,13859461.784362793,12713644.027709961,9407265.663146973,509129.6434402466,-503343.403339386,-4114489.5553588867,-3967551.4698028564,-7006015.300750732,-13407268.524169922,14597154.61730957,7988161.563873291,9907167.434692383,2005728.2447814941,-1731365.5614852905,-5549669.26574707,-1565050.721168518,-15937504.768371582,-14574081.420898438,1876261.4727020264,8964997.291564941,11074448.585510254,1093420.147895813,-640113.7709617615,329294.0855026245,-9072817.8024292,-15895709.991455078,-14637533.187866211,-2200551.5098571777,135517.28427410126,1700234.8899841309,826865.553855896,-7929039.95513916,-4298488.140106201,-14852527.618408203,-15383706.092834473,-13921074.867248535,-646169.7220802307,437746.8228340149,4101727.9624938965,809662.1036529541,-6314110.279083252,-17185367.584228516,-18421276.092529297,-16875474.92980957,-12769413.948059082,-13108076.095581055,-14253277.778625488,-13177158.35571289,-18251379.013061523,-17867771.14868164,-18372549.057006836,-10080029.487609863,-12326231.956481934,-13151475.90637207,-18425979.614257812,-19210916.51916504
0.485,-5630569.4580078125,29903066.635131836,20804361.34338379,4795035.362243652,8410165.786743164,8512061.11907959,15189570.426940918,14611894.607543945,14422136.306762695,6336725.234985352,6637265.205383301,2619825.1247406006,2781559.944152832,132681.59329891205,-19256179.809570312,14286970.138549805,7964331.62689209,12572916.030883789,5841469.764709473,2521633.6250305176,-1740253.3292770386,1787885.069847107,-16859134.674072266,-20440048.217773438,-2507047.176361084,7418421.268463135,10864051.818847656,1058122.158050537,1309823.1554031372,964703.4406661987,-8846979.141235352,-16909769.05822754,-20580528.259277344,-6276202.201843262,-2448925.018310547,1697876.6918182373,939344.3465232849,-7337863.445281982,-6023579.120635986,-17791223.526000977,-18386426.92565918,-19861303.329467773,-3291565.418243408,-2360947.847366333,1855964.183807373,945405.1852226257,-7717708.110809326,-20060909.271240234,-21049406.051635742,-20030464.17236328,-16639659.881591797,-16985691.07055664,-11688717.84210205,-17362436.294555664,-21119764.32800293,-20723646.16394043,-21238672.256469727,-19043172.83630371,-20838659.286499023,-17612506.866455078,-21275644.302368164,-21918497.08557129
0.49,-5294260.9786987305,30315017.700195312,22509355.545043945,5704873.561859131,11151247.024536133,3341771.8410491943,14054763.793945312,13688894.271850586,15773715.97290039,10095003.128051758,10714282.035827637,6074074.268341064,6152290.821075439,3728841.781616211,-23604505.53894043,12947257.995605469,6340136.528015137,13794994.354248047,9107931.137084961,5304507.732391357,1029658.4367752075,3890019.8936462402,-16636367.797851562,-24954792.022705078,-7775449.275970459,5498284.816741943,10572446.823120117,1042322.6356506348,1629311.442375183,1496798.038482666,-8120255.470275879,-16788822.174072266,-24949575.424194336,-9528697.01385498,-4063742.160797119,1627773.404121399,799763.9179229736,-8438814.163208008,-7704376.697540283,-20235980.987548828,-20822273.25439453,-24316080.09338379,-4868000.030517578,-4069498.5389709473,702518.1651115417,973988.1157875061,-10004217.147827148,-22650754.928588867,-23437177.658081055,-22698963.165283203,-16734636.306762695,-17316764.83154297,-5862099.170684814,-18892087.936401367,-23830589.294433594,-23234542.846679688,-23567632.6751709,-22153566.360473633,-23811609.268188477,-19496566.772460938,-23887016.29638672,-24498573.303222656
0.495,-21687038.42163086,11633517.265319824,5272466.18270874,-2025458.812713623,4058240.8905029297,-3513411.283493042,11298219.680786133,10713257.789611816,12237984.657287598,9215047.836303711,9202647.20916748,3951253.890991211,3869337.797164917,1306936.502456665,-24748418.8079834,10892974.853515625,4659298.896789551,12608769.416809082,10009859.085083008,5565269.947052002,1675548.9110946655,3314675.5695343018,-15866678.237915039,-26271280.28869629,-10492914.199829102,4208466.053009033,9905935.287475586,1228536.9634628296,389872.37215042114,2436759.7103118896,-7276839.256286621,-15970784.187316895,-26111845.016479492,-10666205.406188965,-5714379.787445068,1494828.462600708,681194.4842338562,-9589933.395385742,-8438178.062438965,-21395740.509033203,-21856008.529663086,-25554376.60217285,-6419502.258300781,-5643579.006195068,-78705.54178953171,916568.1004524231,-11169095.039367676,-24171789.169311523,-24951084.13696289,-23906866.0736084,-17423971.17614746,-18320749.282836914,-7460744.857788086,-18769317.626953125,-25341938.018798828,-24628591.537475586,-24757232.666015625,-20262285.232543945,-22423557.28149414,-19411520.00427246,-25350412.368774414,-25966163.635253906
0.5,-40493896.484375,-8065505.9814453125,-13879510.879516602,-11685951.232910156,-5967814.4454956055,-9343712.80670166,7702786.445617676,6902779.579162598,6463716.983795166,4736765.8615112305,4096466.541290283,-1843058.8245391846,-2021126.0318756104,-4930892.9443359375,-25485927.58178711,7108647.346496582,2826270.580291748,9459970.474243164,8048014.6408081055,3703804.4929504395,-133609.90583896637,291840.8513069153,-17379455.56640625,-27004198.07434082,-11624174.118041992,2552457.571029663,8239082.336425781,1504789.113998413,-1230837.8219604492,2780998.706817627,-8021997.451782227,-17257013.32092285,-26849843.978881836,-11339832.305908203,-7936123.847961426,1399244.1892623901,768330.3952217102,-9325734.13848877,-8616847.038269043,-21702459.33532715,-21997955.322265625,-26232627.868652344,-8479858.3984375,-7620740.4136657715,-313963.74106407166,868151.9031524658,-10179621.696472168,-24660287.857055664,-25471523.28491211,-23992359.161376953,-19862680.435180664,-20920766.830444336,-14475401.878356934,-18616773.60534668,-25567493.438720703,-25005193.71032715,-25075782.775878906,-19002279.28161621,-21725946.4263916,-19091255.18798828,-25612810.134887695,-26196342.46826172
