time,Fp1,Fpz,Fp2,AF3,AF4,F7,F5,F3,F1,Fz,F2,F4,F6,F8,FT7,FC5,FC3,FC1,FCz,FC2,FC4,FC6,FT8,T7,C5,C3,C1,Cz,C2,C4,C6,T8,TP7,CP5,CP3,CP1,CPz,CP2,CP4,CP6,TP8,P7,P5,P3,P1,Pz,P2,P4,P6,P8,PO7,PO5,PO3,POz,PO4,PO6,PO8,CB1,O1,Oz,O2,CB2
0.0,1253201.6038894653,-143824.83065128326,-710318.6845779419,-114939.24260139465,-489810.37735939026,295261.05523109436,-431489.85505104065,-431536.2274646759,-121156.93837404251,-213045.44806480408,-237014.39797878265,-1447467.32711792,-1480068.6836242676,-1346960.3061676025,-276259.30309295654,-669806.5400123596,-635958.0755233765,-214088.23132514954,-240786.49282455444,-195021.6442346573,-799425.2443313599,-1303146.6007232666,-853272.6168632507,-229448.91452789307,-779963.493347168,-490539.43157196045,-549036.2048149109,-505.3405184298754,-315536.9758605957,-663133.3231925964,-1410660.982131958,-813880.6819915771,-242257.65466690063,-793918.788433075,-155864.6261692047,-46368.952840566635,-16832.543537020683,-146549.83580112457,-7691.115140914917,153060.55545806885,62545.02385854721,-242040.05300998688,-150716.93062782288,-134768.66483688354,61795.9201335907,-2664.0845462679863,1918.9858576282859,164885.7295513153,172419.6821451187,131667.31595993042,247572.6306438446,269951.194524765,413284.0037345886,629333.6749076843,125040.14372825623,109644.8078751564,150570.89924812317,719655.0965309143,715641.8561935425,625022.6497650146,103980.59338331223,117076.8067240715
0.005,35107299.8046875,27904264.450073242,26498861.31286621,12261855.125427246,14789157.86743164,-3660107.6126098633,4143567.0852661133,4382699.489593506,4843111.991882324,1341711.2827301025,2714948.6541748047,-3310400.96282959,-3738371.6106414795,-4145206.928253174,-13051601.40991211,-2369806.0512542725,4303684.711456299,2800307.7507019043,-538624.4058609009,-2346323.4901428223,-9189929.962158203,-23404842.376708984,1995605.3495407104,-12374529.838562012,-1147242.6652908325,1819491.5056228638,1800591.1111831665,-1119312.7632141113,-4948988.437652588,-6749294.281005859,-23575984.954833984,2960622.3106384277,-12563136.100769043,-7270250.32043457,-1188015.5801773071,-1320082.3068618774,-1578814.8641586304,-3733321.6667175293,77746.75637483597,3177265.6440734863,977222.9194641113,-12589654.922485352,-776713.4308815002,-688943.3264732361,824501.5144348145,-683355.3314208984,-879328.6085128784,1903737.3065948486,2058468.3418273926,1717768.1922912598,1858348.01197052,2191895.4849243164,7431624.412536621,8529606.819152832,1152099.370956421,694523.5133171082,2186710.834503174,2965707.302093506,3688535.9287261963,8602880.477905273,686156.6305160522,752613.0676269531
0.01,48030437.46948242,37950435.638427734,36497028.35083008,16953853.607177734,20886386.87133789,-3840339.6606445312,6138391.971588135,6504477.024078369,7170548.915863037,2576940.7749176025,4734509.468078613,-4689919.471740723,-5206543.445587158,-5772864.34173584,-16634950.637817383,-533948.540687561,5687890.529632568,3893893.003463745,-102773.01073074341,-2502662.8971099854,-12218687.057495117,-32597400.665283203,2387105.2265167236,-15609167.098999023,403380.0661563873,1689106.9412231445,2195739.984512329,-1324789.5240783691,-5459543.704986572,-8900367.736816406,-33516864.776611328,3575445.1751708984,-15788410.186767578,-9197054.862976074,-1489998.5790252686,-1632890.8205032349,-1925844.669342041,-4688617.706298828,593518.9723968506,2834768.295288086,-183880.31423091888,-16059026.718139648,-745949.2683410645,-841800.0936508179,1172753.6916732788,-992765.0690078735,-2075626.3732910156,1034715.6524658203,1299522.876739502,685810.923576355,3559134.006500244,4003696.4416503906,11204260.82611084,11281976.699829102,-133209.7351551056,-654560.8043670654,1226123.0945587158,5028388.977050781,5899844.169616699,11450556.755065918,-937233.8056564331,-730916.0828590393
0.015,43471580.505371094,33140914.916992188,32627006.53076172,15822555.541992188,20398517.608642578,-1982814.908027649,6714824.199676514,7119213.104248047,8384002.685546875,4908288.955688477,7239375.591278076,-3986408.472061157,-4344173.431396484,-4689424.03793335,-13145848.274230957,3392727.6134490967,4433463.096618652,4143795.0134277344,1920672.5358963013,3029.528772458434,-9552491.188049316,-29223613.739013672,1591539.978981018,-12095102.310180664,2342707.395553589,-888269.7820663452,780462.0862007141,-776113.0928993225,-2046187.162399292,-7235066.4138793945,-31691555.02319336,2446423.7689971924,-12184612.274169922,-8353116.035461426,-2576401.710510254,-1167113.5425567627,-1245606.3032150269,-3127897.262573242,1477324.2473602295,315055.10210990906,-2342867.851257324,-12677290.916442871,-1628705.1439285278,-2038686.752319336,107575.61028003693,-862359.7621917725,-3316484.4512939453,-1391274.2137908936,-1072670.578956604,-1791055.3216934204,4132211.685180664,4582581.996917725,10820535.659790039,9795926.094055176,-2627454.7576904297,-2934496.4027404785,-1528729.5579910278,6572419.6434021,7100259.304046631,10052215.576171875,-3560806.5128326416,-3185708.2843780518
0.02,40085292.81616211,30017026.901245117,30941257.47680664,16118349.075317383,22079484.939575195,-2508710.3843688965,8419427.871704102,8855861.66381836,11340015.411376953,9162873.268127441,11472601.890563965,-371703.29689979553,-560027.4801254272,-659344.3751335144,-11471487.045288086,5244684.69619751,4057816.982269287,5849939.346313477,5509502.410888672,3925716.1617279053,-5144514.083862305,-23348365.783691406,2341309.070587158,-10550683.975219727,2094648.1227874756,-3283204.0786743164,-432562.58964538574,-375938.0877017975,1681304.4548034668,-4625542.163848877,-27295783.99658203,2990027.666091919,-10668797.492980957,-9348654.747009277,-5531474.590301514,-856697.2613334656,-716287.3148918152,-1352910.1610183716,2283165.693283081,-786088.3474349976,-2990456.1042785645,-11019546.508789062,-4559201.717376709,-5054467.678070068,-2362099.6475219727,-575940.3109550476,-4150504.5890808105,-2433998.5847473145,-2124058.485031128,-2680857.4199676514,2607980.251312256,3156723.976135254,8308378.219604492,8554350.852966309,-3578944.444656372,-3777060.9855651855,-2697093.2483673096,6914199.352264404,7152760.982513428,8812076.568603516,-4432722.091674805,-4005012.9890441895
0.025,45282218.93310547,35506008.14819336,37501525.87890625,19852519.989013672,27451047.897338867,-5652606.964111328,10863221.168518066,11316202.163696289,15209696.769714355,13086675.643920898,15372678.756713867,4066064.8345947266,4002810.478210449,3882819.652557373,-14571437.83569336,4160354.1374206543,5675982.475280762,8820386.88659668,9048818.588256836,7045431.137084961,-2552355.2894592285,-21446268.08166504,4558868.885040283,-13760091.781616211,461769.163608551,-2873339.1761779785,99428.09492349625,-593822.4196434021,3092492.8188323975,-2726848.363876343,-25693761.825561523,5417476.654052734,-13978289.604187012,-12184864.99786377,-7931233.882904053,-1127952.4564743042,-979630.2914619446,-1086910.0093841553,2579712.390899658,135402.8731584549,-2123382.329940796,-13976113.319396973,-7132850.646972656,-7362614.154815674,-4110876.5602111816,-486721.87328338623,-4845098.972320557,-1719581.2463760376,-1475169.1818237305,-1738280.4155349731,348935.6338977814,1056869.2684173584,6751531.600952148,9119461.059570312,-2832487.3447418213,-3153437.614440918,-1816907.286643982,5613070.487976074,5903456.687927246,9244823.455810547,-3549897.4323272705,-3218457.9372406006
0.03,50369560.24169922,41722282.40966797,43659225.46386719,23009220.123291016,30278104.782104492,-6815372.943878174,12069846.153259277,12462773.323059082,17027744.29321289,14113203.048706055,16112400.05493164,6178894.04296875,6255619.525909424,5954983.711242676,-17072830.200195312,3780689.001083374,7431270.122528076,10776730.53741455,10789831.161499023,8245587.348937988,-2194570.541381836,-21693834.30480957,5812909.126281738,-16288948.059082031,840318.5606002808,-62046.93019390106,1761552.4530410767,-1032844.5434570312,2721702.3372650146,-1178837.776184082,-25363403.3203125,6953911.304473877,-16488672.256469727,-12712310.791015625,-6674566.268920898,-1523598.4325408936,-1551172.375679016,-2066985.6071472168,2149554.967880249,87124.82452392578,-2397296.42868042,-16407701.49230957,-6147373.676300049,-6040118.69430542,-3209428.7872314453,-651981.0557365417,-6345892.429351807,-1951915.2641296387,-1796327.4717330933,-1886439.0850067139,-316895.7531452179,429224.4613170624,7236525.058746338,9181189.53704834,-3165947.437286377,-3617786.645889282,-1942271.113395691,3453889.846801758,3913477.4208068848,9131515.502929688,-3872338.29498291,-3618534.0881347656
0.035,49853256.22558594,42635276.794433594,43216808.3190918,24428432.46459961,28614688.873291016,-2944925.308227539,13139901.161193848,13446398.735046387,17612489.700317383,14091638.565063477,15275992.393493652,6122080.326080322,6271636.962890625,5962465.763092041,-15022156.715393066,7047552.585601807,8685507.774353027,11503404.61730957,11346739.768981934,8786219.596862793,-2285143.6138153076,-20627031.326293945,5571093.559265137,-14196260.452270508,4330105.781555176,2557449.1024017334,3076066.493988037,-1111522.6745605469,2412717.342376709,184365.6748533249,-24606988.90686035,6709794.998168945,-14276154.518127441,-9754590.98815918,-2966964.4832611084,-1499822.0205307007,-1688518.1665420532,-3208173.5134124756,921812.891960144,-2860589.7426605225,-5316023.349761963,-14517924.308776855,-2596265.3160095215,-2411316.6332244873,-996476.2330055237,-811789.3934249878,-9243823.051452637,-4918853.759765625,-4807915.210723877,-4937769.889831543,440565.67549705505,1081234.097480774,7624068.737030029,6913352.966308594,-6266027.927398682,-6702451.705932617,-5077108.383178711,1541277.7662277222,1988699.197769165,6820717.334747314,-7139070.0340271,-6754770.755767822
0.04,51135948.181152344,44016170.501708984,42555698.39477539,28762231.826782227,29192827.224731445,3644925.594329834,17483398.4375,17831253.051757812,21550754.54711914,17837875.366210938,17877376.556396484,7691960.334777832,7733537.673950195,7665940.284729004,-11353040.69519043,12153285.026550293,11512700.080871582,13876284.5993042,13494464.874267578,10948369.026184082,-946440.9947395325,-18312932.96813965,6107761.383056641,-10445103.645324707,8385001.182556152,3963654.9949645996,4091095.9243774414,-754929.780960083,2903013.7062072754,790909.8863601685,-24425291.061401367,7044883.728027344,-10519173.622131348,-6950928.688049316,-1082174.53956604,-1092305.1834106445,-1303453.2070159912,-4117547.035217285,-921801.2690544128,-6734389.781951904,-9023509.02557373,-11096212.387084961,-631742.8350448608,-631454.0505409241,-882227.1227836609,-745697.7963447571,-13084280.014038086,-8881071.090698242,-8719289.779663086,-8970593.452453613,127202.30221748352,656549.9305725098,5288576.602935791,3341240.644454956,-10221793.174743652,-10645033.836364746,-9216460.227966309,-436278.70082855225,-155282.82523155212,3383256.435394287,-11345509.52911377,-10672080.993652344
0.045,60505168.91479492,52067760.4675293,48761344.90966797,38276264.19067383,36717308.044433594,8629455.56640625,25051469.802856445,25599241.256713867,30023178.100585938,26071588.51623535,25172552.10876465,12849536.895751953,12721673.011779785,12807853.698730469,-9834428.787231445,15441471.099853516,16861749.64904785,19405658.721923828,18506444.931030273,15143315.315246582,2284271.9554901123,-16255060.195922852,8639899.253845215,-8844876.289367676,10800101.280212402,5795148.849487305,6108287.811279297,-298392.05741882324,3781180.1433563232,995556.2353134155,-24693124.771118164,9466255.187988281,-9089649.200439453,-6701861.381530762,-2293654.680252075,-681845.1285362244,-835170.0901985168,-4959936.141967773,-2650088.07182312,-8255906.105041504,-10525856.971740723,-9671106.338500977,-1662657.0224761963,-1849700.8085250854,-3909368.9918518066,-536742.8064346313,-16681480.407714844,-10691151.61895752,-10416922.569274902,-10702431.678771973,-1945565.3429031372,-1488973.2599258423,1008919.7158813477,576514.5421028137,-11817527.770996094,-12397671.699523926,-10861257.553100586,-3325057.029724121,-3147621.3932037354,757973.7305641174,-13129658.699035645,-12292200.088500977
0.05,70112518.31054688,60872802.734375,56408409.118652344,46647796.630859375,45079982.75756836,10037739.753723145,30368169.7845459,31091178.89404297,37025585.17456055,32643909.454345703,31460966.110229492,17948534.01184082,17796072.006225586,17646286.010742188,-9217815.399169922,15721816.062927246,21492467.880249023,24578790.66467285,23445201.873779297,18845964.431762695,5769849.3003845215,-14593260.765075684,11110843.658447266,-8180191.0400390625,12083730.697631836,8715077.40020752,8811843.872070312,-11834.545992314816,4613957.405090332,2177392.7211761475,-23107652.66418457,11992656.707763672,-8575453.758239746,-6764874.458312988,-3467006.6833496094,-486922.41311073303,-609254.777431488,-5460843.086242676,-3062097.7878570557,-6570386.4097595215,-8915233.612060547,-8929728.507995605,-2792873.1441497803,-3017713.5467529297,-7180335.04486084,-401227.77223587036,-18535425.186157227,-9249352.45513916,-8910693.168640137,-9092209.815979004,-2947163.1050109863,-2593430.757522583,-1238303.6613464355,93495.88304758072,-10106014.251708984,-10897052.764892578,-9009895.324707031,-5647031.307220459,-5442110.538482666,237629.9649477005,-11424312.591552734,-10744108.200073242
0.055,68007713.3178711,59692691.802978516,54911693.57299805,45619773.864746094,44795707.70263672,8449738.502502441,28198595.04699707,28904661.178588867,35655055.99975586,31067617.416381836,30394575.119018555,17853939.056396484,17746309.280395508,17184787.75024414,-6940852.165222168,14173923.49243164,20858049.392700195,24065507.888793945,23685962.677001953,18999322.89123535,6774354.457855225,-13376966.47644043,11388807.29675293,-5889282.2265625,12933141.708374023,9773500.442504883,9356677.055358887,62113.56818675995,5096563.816070557,4561298.847198486,-19429616.928100586,12359937.66784668,-6254975.79574585,-5015624.046325684,-2389504.6710968018,-502162.4565124512,-620791.2564277649,-4862919.807434082,-1196632.981300354,-3062606.3346862793,-5362112.998962402,-6434476.375579834,-1831582.78465271,-2052612.066268921,-7353098.8693237305,-374978.0058860779,-16909278.869628906,-5663601.875305176,-5373460.76965332,-5390102.863311768,-470327.9733657837,-214646.41392230988,977537.214756012,2689892.530441284,-6439983.367919922,-7271293.640136719,-5196702.003479004,-4178043.842315674,-3919185.6384277344,2669581.651687622,-7557071.208953857,-7208005.428314209
0.06,55963668.82324219,49411056.51855469,45438732.1472168,36058685.302734375,36368976.59301758,4651252.746582031,20049301.147460938,20629432.678222656,26976409.912109375,22612703.323364258,23060316.08581543,13199117.660522461,12942924.499511719,12306416.511535645,-5328860.759735107,11227991.104125977,15052456.855773926,17642717.361450195,18613353.729248047,15545295.715332031,4451434.135437012,-13524659.156799316,10451679.229736328,-4273627.758026123,11833227.157592773,6403107.166290283,6035765.171051025,-25503.49198281765,4722811.222076416,6530421.733856201,-16687047.958374023,11452469.825744629,-4509117.126464844,-4095082.2830200195,-1234336.9722366333,-673834.502696991,-740757.1077346802,-3101182.9376220703,2426190.137863159,706475.7943153381,-1459804.7733306885,-4656802.177429199,-734012.9017829895,-1033413.1717681885,-4658252.239227295,-331020.5638408661,-11303107.261657715,-1570047.9745864868,-1363923.43044281,-1290881.0377120972,3040714.740753174,3349328.7563323975,4772297.8591918945,7248886.585235596,-2487813.4727478027,-3213531.255722046,-1225135.5648040771,541576.9219398499,830994.188785553,7135635.3759765625,-3332698.5836029053,-3157019.853591919
0.065,47565795.8984375,42205646.51489258,40100959.77783203,27566345.21484375,29733259.201049805,-170111.7604970932,12971512.794494629,13527314.186096191,19459594.7265625,15300312.995910645,16867956.161499023,9900716.781616211,9324228.286743164,9070169.448852539,-8433873.176574707,6961185.932159424,9492412.567138672,11439831.733703613,13185246.467590332,11790740.966796875,1267657.8760147095,-15258082.389831543,10165990.829467773,-7388012.409210205,7898729.8011779785,1422220.1108932495,1610863.0895614624,-206908.76245498657,3340359.4493865967,6717531.204223633,-17010700.225830078,11141206.741333008,-7537721.633911133,-7415235.51940918,-2799731.492996216,-902759.7308158875,-853981.7333221436,-1525107.0261001587,5348476.409912109,3166060.447692871,1013620.138168335,-7730670.928955078,-2183888.6737823486,-2539988.2793426514,-2435530.9009552,-251892.47727394104,-4780596.2562561035,1142541.2893295288,1374138.7128829956,1376892.08984375,2583390.235900879,3096983.1943511963,4796149.730682373,9659419.059753418,118894.65153217316,-590026.2594223022,1300635.6954574585,2330977.9167175293,2697470.188140869,9582356.452941895,-600651.9794464111,-331186.5031719208
0.07,49807228.088378906,44672874.450683594,44262641.90673828,27124677.658081055,30886352.5390625,-3197583.4369659424,12323780.059814453,12985949.516296387,19498172.760009766,14969773.292541504,16753448.486328125,11075947.761535645,10372032.165527344,10501669.883728027,-14474878.311157227,3750294.4469451904,9088376.04522705,11221592.903137207,12653698.921203613,10930436.134338379,227843.0163860321,-17389284.133911133,9672904.014587402,-13491673.469543457,4048829.0786743164,585362.0767593384,774374.0081787109,-396456.39061927795,1896579.623222351,5502746.58203125,-19374319.076538086,10563712.120056152,-13601065.635681152,-12952964.782714844,-5934321.880340576,-1033990.3831481934,-870096.5046882629,-1820921.3018417358,4847820.75881958,2138458.9672088623,-159585.29710769653,-13896247.863769531,-5233105.659484863,-5437436.580657959,-3336690.902709961,-294856.5483093262,-2954504.2514801025,77487.85614967346,469698.07147979736,303294.6586608887,-2990282.5355529785,-2330858.7074279785,-397672.3551750183,5950604.9156188965,-817352.5929450989,-1667579.7700881958,266052.57391929626,-3654829.978942871,-3154082.2982788086,5895758.152008057,-1629460.4539871216,-1230080.9621810913
0.075,54980453.49121094,48937820.43457031,48321300.5065918,31851325.98876953,34613304.138183594,-2116623.4016418457,17046489.715576172,17749923.706054688,24727001.190185547,19257957.458496094,19850515.365600586,12603000.64086914,12151547.4319458,12241542.81616211,-17035091.400146484,5554262.638092041,12930172.92022705,15773275.375366211,16403852.462768555,12475904.46472168,869386.0769271851,-19407386.779785156,6750162.601470947,-16190298.080444336,4252701.759338379,4832097.053527832,4188737.392425537,-548594.2959785461,1566415.0714874268,3622546.911239624,-22396041.870117188,7474474.4300842285,-16232028.96118164,-15223893.165588379,-7246682.167053223,-1033175.2300262451,-802728.7721633911,-4100865.8409118652,857240.9152984619,-3185709.7148895264,-5622656.345367432,-16690683.364868164,-6726538.181304932,-6639570.236206055,-6595452.308654785,-549673.0208396912,-8016183.853149414,-5489430.4275512695,-4944636.821746826,-5243597.507476807,-9075395.584106445,-8489271.16394043,-6334223.27041626,-2239624.0234375,-6197587.013244629,-7130598.545074463,-5173333.168029785,-13337645.530700684,-12769244.194030762,-2370227.098464966,-7161446.094512939,-6827833.652496338
0.08,53358009.338378906,44674373.626708984,41672725.677490234,34284984.58862305,32620697.021484375,2387120.485305786,21584093.09387207,22111734.39025879,27621309.280395508,21074302.673339844,19689022.064208984,9007113.456726074,8902836.799621582,8784272.193908691,-13379909.51538086,12673607.82623291,15768334.38873291,18540624.618530273,18619413.375854492,12794614.791870117,-198394.67108249664,-22121303.55834961,2200699.5677948,-12708797.454833984,8208597.183227539,8653064.727783203,7283221.72164917,-705915.1530265808,2009350.299835205,915852.7851104736,-25994068.145751953,2738141.2982940674,-12677836.418151855,-12506175.994873047,-5649722.576141357,-1062596.6787338257,-807249.1884231567,-6509881.496429443,-3175777.9121398926,-9423387.52746582,-11864938.735961914,-13288997.650146484,-5457335.472106934,-5251484.394073486,-8726067.543029785,-877346.0984230042,-14624565.124511719,-11835385.3225708,-11277138.710021973,-11651098.251342773,-10115390.77758789,-9740765.571594238,-7354293.8232421875,-7597440.719604492,-12606280.326843262,-13393755.912780762,-11578367.233276367,-16819881.439208984,-16315319.061279297,-7767975.330352783,-13618863.105773926,-13456283.569335938
0.085,47661266.3269043,34768993.37768555,28656810.760498047,32329212.188720703,24960670.471191406,8072889.32800293,22202817.916870117,22406314.849853516,24648340.225219727,17042634.963989258,14228678.703308105,1404167.890548706,1370851.0398864746,1444922.0895767212,-7029496.192932129,20354736.328125,14465277.671813965,15697682.38067627,15487536.430358887,9544871.33026123,-4445138.454437256,-25361120.223999023,-478493.3626651764,-6486054.420471191,11849810.600280762,7809049.606323242,6150096.893310547,-889215.5289649963,1537182.331085205,-2375905.2753448486,-29173931.121826172,13723.81579130888,-6462313.652038574,-8318975.448608398,-2750093.936920166,-1212047.3384857178,-980691.0753250122,-7180512.428283691,-3640952.5871276855,-10970631.59942627,-13313258.171081543,-7151392.936706543,-2661684.513092041,-2649740.9343719482,-6858689.308166504,-1066921.1149215698,-15165019.989013672,-13074911.117553711,-12583139.419555664,-13072078.704833984,-5062793.731689453,-4855674.266815186,-2604746.103286743,-4704149.7230529785,-14066933.631896973,-14631769.180297852,-13012660.98022461,-9872364.044189453,-9423728.942871094,-4721864.223480225,-15073334.693908691,-14931273.460388184
0.09,49270549.77416992,32478958.129882812,23640077.590942383,31191520.69091797,19564523.696899414,15226189.613342285,21162822.723388672,21068075.18005371,20234525.680541992,11278995.513916016,8165488.243103027,-3849147.319793701,-4078357.696533203,-3447878.59916687,-1387416.124343872,24435356.14013672,12014863.967895508,10916707.038879395,10190950.393676758,4934000.492095947,-9020247.459411621,-27471958.16040039,-890832.781791687,-875868.2012557983,13302120.208740234,5615314.00680542,2867503.881454468,-974142.1937942505,-515741.34826660156,-4535449.981689453,-29923917.770385742,-204848.37889671326,-958468.496799469,-5716269.969940186,58620.97442150116,-1270256.8769454956,-1160298.9435195923,-6387682.4378967285,-1246390.2235031128,-6735181.3316345215,-8978941.917419434,-1694420.4568862915,382543.6234474182,151018.58973503113,-1955245.9716796875,-1046660.4232788086,-9499969.482421875,-8263056.755065918,-7758131.504058838,-8394813.537597656,2156608.819961548,2324374.6757507324,3040204.7634124756,3441482.3055267334,-9167796.13494873,-9708781.242370605,-8173515.319824219,743236.1841201782,1294791.6984558105,3699059.247970581,-10231206.893920898,-9941869.735717773
0.095,62689743.04199219,44379547.119140625,32335968.017578125,36336120.60546875,21890165.328979492,26683357.23876953,24323169.708251953,24052425.384521484,21410821.91467285,10682413.101196289,7428012.847900391,-3731337.070465088,-4144233.7036132812,-3375218.8682556152,4621063.232421875,26964235.305786133,14190847.396850586,11082577.7053833,9261682.510375977,3537395.238876343,-10435698.509216309,-28364759.44519043,-3678989.6488189697,5163099.28894043,15480875.015258789,8349182.12890625,2840929.7466278076,-803929.2097091675,-2562860.4888916016,-4429495.334625244,-29044738.76953125,-2673882.484436035,4909004.688262939,-3821990.0131225586,2419566.1544799805,-979689.0020370483,-1089176.4163970947,-6163456.439971924,-688166.7971611023,-2849486.5894317627,-5073694.229125977,4122822.7615356445,2997024.5361328125,2801997.9000091553,1542183.518409729,-881578.7434577942,-5781843.662261963,-4050573.3489990234,-3430050.6114959717,-4073876.38092041,6549878.120422363,6784865.379333496,3811362.0281219482,8644001.960754395,-4380939.00680542,-5118122.577667236,-3578305.959701538,5087800.5027771,5791502.952575684,9084033.966064453,-5494440.55557251,-5146156.787872314
0.1,79424339.2944336,62005847.9309082,45022869.11010742,46651142.12036133,28692995.071411133,42470287.32299805,33777427.673339844,33457458.49609375,29320917.1295166,16987531.661987305,12468348.503112793,-2020403.6235809326,-2462718.4867858887,-2519295.9308624268,12197863.578796387,32872325.897216797,22340955.73425293,17959175.10986328,14536464.69116211,6838814.735412598,-9022335.052490234,-30416439.056396484,-12148054.122924805,12743587.493896484,21069557.189941406,16295709.609985352,7621244.430541992,-440955.5494785309,-2805108.7856292725,-3682838.201522827,-30396308.89892578,-10946127.891540527,12270528.793334961,-1137099.9813079834,3760618.6866760254,-454137.1166706085,-781011.0449790955,-7728498.935699463,-4968952.178955078,-5926271.915435791,-8231394.7677612305,11525981.903076172,4268600.4638671875,4340976.715087891,338352.17356681824,-658462.3456001282,-9860866.54663086,-7336804.389953613,-6641826.152801514,-7092441.558837891,6271764.278411865,6631958.484649658,-1248643.5174942017,6847384.452819824,-7065571.7849731445,-7982955.455780029,-6458791.732788086,1006688.117980957,1672654.151916504,7284645.080566406,-8050746.917724609,-7872982.978820801
0.105,87659141.54052734,71573478.69873047,48837070.46508789,55151268.005371094,32320236.206054688,56453880.310058594,43823902.13012695,43545459.74731445,37221809.38720703,24203504.56237793,17513675.689697266,-3640176.0578155518,-4028486.2518310547,-5397294.521331787,18022857.666015625,41920581.81762695,30770479.202270508,25625230.78918457,20568918.228149414,11016301.155090332,-8186008.453369141,-34856773.376464844,-22566623.68774414,18498807.907104492,27714471.8170166,23029884.338378906,12762916.564941406,-184723.67525100708,-1834320.6644058228,-4860793.113708496,-35299896.240234375,-21399141.311645508,17809272.76611328,1153448.7009048462,3718672.275543213,-112228.98215055466,-541191.2202835083,-9983513.832092285,-11276408.195495605,-14480350.494384766,-16920690.536499023,17263111.114501953,3907525.062561035,4150274.2767333984,-3506582.260131836,-453192.3830509186,-17411399.841308594,-16289218.90258789,-15647670.74584961,-15941614.151000977,3757690.906524658,4240714.550018311,-7268918.514251709,2001229.5246124268,-15947764.39666748,-16881416.32080078,-15370447.158813477,-4994087.696075439,-4516246.795654297,2324377.7751922607,-16663902.282714844,-16691061.019897461
0.11,84778099.0600586,68894180.29785156,42373287.200927734,56158527.37426758,29426065.44494629,61097599.029541016,46609001.15966797,46389339.447021484,37922046.66137695,25010654.44946289,16885955.810546875,-8181295.394897461,-8492245.6741333,-10658874.51171875,17749483.108520508,47397979.736328125,32736106.872558594,27124696.731567383,21143720.626831055,11384123.802185059,-9650643.348693848,-38997306.82373047,-27985963.821411133,18136144.638061523,30393482.208251953,23694366.455078125,13560776.710510254,-262635.7972621918,-1808129.3106079102,-7595844.745635986,-39549312.591552734,-26921253.204345703,17354459.762573242,1152644.5150375366,3435253.858566284,-173606.17220401764,-582205.8320045471,-10926383.018493652,-14134709.358215332,-20315217.971801758,-22867717.742919922,17010698.318481445,3396449.089050293,3593851.327896118,-4849806.308746338,-345070.4216957092,-19994882.583618164,-22191724.77722168,-21628940.58227539,-22042596.8170166,2455541.3722991943,3008553.981781006,-9161589.622497559,-25395.311415195465,-22266069.412231445,-23156303.40576172,-21562654.495239258,-6914603.710174561,-6439940.452575684,124890.70743322372,-22820037.841796875,-22834329.60510254
0.115,77702621.45996094,61223182.678222656,34624866.4855957,50935543.060302734,23680608.74938965,55615745.544433594,41812931.060791016,41596401.21459961,32169120.78857422,19138700.485229492,11288472.175598145,-11321699.142456055,-11525008.201599121,-13591070.175170898,12563912.391662598,44406200.40893555,28474134.44519043,22491504.669189453,16771839.141845703,8121698.379516602,-11498416.900634766,-39722251.892089844,-26866268.157958984,12927875.518798828,27839319.229125977,20448829.650878906,10726652.145385742,-557192.4448013306,-3284620.2850341797,-8906791.687011719,-39099620.8190918,-25758054.733276367,12235473.6328125,-436360.1505756378,4250319.004058838,-419329.37502861023,-763021.0518836975,-10100177.764892578,-12028302.192687988,-18733398.4375,-21335319.51904297,11883367.538452148,4230567.932128906,4377769.947052002,-2122350.6927490234,-365717.2918319702,-16325948.715209961,-20362539.291381836,-19773361.206054688,-20468070.98388672,2585272.789001465,3185240.9839630127,-7629304.4090271,1118917.9420471191,-20818933.486938477,-21736984.252929688,-20003614.42565918,-5898194.313049316,-5112891.674041748,1028102.9939651489,-21425724.029541016,-21243492.126464844
0.12,73552116.39404297,56888484.954833984,32892135.620117188,45902446.74682617,20839551.92565918,48127368.92700195,37105358.1237793,36865932.46459961,27525074.005126953,13690625.190734863,6897294.044494629,-10830270.767211914,-10955664.63470459,-12492412.567138672,8697469.711303711,37298385.62011719,24628273.010253906,18281425.47607422,13701978.68347168,5869508.266448975,-11313213.348388672,-37996368.408203125,-23788946.1517334,9102107.048034668,24313222.885131836,18270786.28540039,8591894.149780273,-739001.8105506897,-4393577.575683594,-7547859.668731689,-35945617.67578125,-22550642.013549805,8532207.489013672,-1276894.3309783936,5239137.649536133,-526399.8508453369,-815856.6355705261,-8977754.592895508,-8811792.373657227,-13921867.370605469,-16504550.93383789,7998088.836669922,5350511.55090332,5576266.765594482,567557.9905509949,-465257.1976184845,-12944160.461425781,-15453582.763671875,-14762612.342834473,-15583620.071411133,1392647.624015808,2090905.9047698975,-7919516.563415527,1073840.0220870972,-15967945.098876953,-16929061.889648438,-15146286.964416504,-6729524.612426758,-5670228.004455566,765272.4981307983,-16675174.713134766,-16340932.846069336
0.125,73216476.44042969,56693302.154541016,35595264.43481445,45694396.97265625,22433267.59338379,48321228.02734375,38361396.78955078,38166439.056396484,29048173.904418945,14608404.159545898,8037746.429443359,-8897498.13079834,-9078271.865844727,-10153308.868408203,10553415.298461914,35645671.84448242,25739166.259765625,19388134.002685547,15856999.397277832,7552171.70715332,-9802473.068237305,-37374362.94555664,-22453414.916992188,10968852.043151855,24785243.98803711,18368633.270263672,9076210.975646973,-657829.4038772583,-3660654.7832489014,-6131036.281585693,-35119647.97973633,-21278774.26147461,10354463.577270508,-465899.37806129456,4363077.640533447,-468978.3751964569,-720333.5165977478,-9125631.332397461,-8578490.257263184,-12743467.330932617,-15218057.632446289,9707790.37475586,4579780.101776123,4835487.842559814,-721932.2323799133,-578729.1526794434,-14542161.94152832,-14522633.55255127,-13770628.929138184,-14491123.19946289,-1923199.7728347778,-1107236.7429733276,-12315590.858459473,-2306153.0590057373,-14947836.875915527,-15859995.84197998,-14152378.08227539,-10321737.289428711,-9390846.252441406,-2627729.4158935547,-15662905.6930542,-15307977.676391602
0.13,73833152.7709961,56250068.66455078,36668365.478515625,49024379.73022461,24975013.732910156,57920471.19140625,42848312.37792969,42737773.89526367,33814361.572265625,19872158.05053711,12291236.877441406,-8831480.026245117,-9171175.956726074,-9859053.611755371,16431598.663330078,42612628.93676758,29266786.575317383,23653661.727905273,20277662.27722168,10689329.147338867,-9935853.958129883,-39095420.837402344,-22526710.510253906,16774103.164672852,29606597.900390625,18288013.458251953,10021707.534790039,-497867.8524494171,-2226257.32421875,-7684545.516967773,-37941135.40649414,-21691909.790039062,15983150.482177734,1104761.4812850952,1969954.7290802002,-459505.1407814026,-704872.8466033936,-10621028.900146484,-11358207.702636719,-16505268.096923828,-18799144.744873047,15373818.397521973,2287988.1858825684,2365999.698638916,-4249249.458312988,-695642.1732902527,-18685029.983520508,-18568113.327026367,-17811435.69946289,-18446779.251098633,-4248091.697692871,-3438460.5884552,-16971025.466918945,-6317938.327789307,-18959184.646606445,-19802614.212036133,-18161037.44506836,-13095422.744750977,-12526236.534118652,-6451614.856719971,-19704847.33581543,-19358882.904052734
0.135,73816993.7133789,53367492.67578125,33578781.12792969,51505226.135253906,24670515.060424805,69616409.30175781,44370735.16845703,44218170.166015625,35940654.75463867,22904169.0826416,13980924.606323242,-11429942.13104248,-11884193.420410156,-12177990.913391113,21612100.60119629,50881229.400634766,30422235.4888916,25669288.635253906,21581882.47680664,10956514.358520508,-13059679.03137207,-41360927.58178711,-24045028.686523438,21859899.520874023,34710773.46801758,16890464.782714844,9351587.295532227,-514608.2639694214,-2263325.4528045654,-11885005.950927734,-41843093.87207031,-23526611.328125,20988611.221313477,2778048.9921569824,860809.9818229675,-618671.4768409729,-914814.4721984863,-12421256.065368652,-14767492.294311523,-21530632.01904297,-23706632.614135742,20378461.837768555,1300659.5373153687,1174907.6843261719,-5351141.929626465,-831353.2471656799,-21051424.026489258,-23603466.033935547,-22838193.893432617,-23585306.16760254,-3118950.128555298,-2500521.421432495,-17667551.040649414,-8035732.269287109,-23936967.849731445,-24860874.17602539,-23172946.92993164,-12938489.91394043,-12491662.979125977,-8054693.222045898,-24871677.39868164,-24516519.54650879
0.14,73322212.21923828,50095649.71923828,28951147.079467773,50936717.98706055,21444654.46472168,74904899.59716797,41862850.189208984,41505741.119384766,34239330.29174805,20946794.509887695,11111118.31665039,-15104722.97668457,-15583945.274353027,-15647820.472717285,23647975.92163086,51971168.518066406,28882883.071899414,23751970.291137695,18754776.000976562,7717889.785766602,-17325641.632080078,-43021209.716796875,-28973909.378051758,23878946.30432129,36389957.427978516,15855577.46887207,8086240.768432617,-709824.2044448853,-4090103.1494140625,-16009183.883666992,-45186832.427978516,-28430263.51928711,23106788.635253906,4744626.045227051,2565446.8536376953,-854798.9130020142,-1224978.2085418701,-13654988.288879395,-17477090.83557129,-25023366.928100586,-27278337.478637695,22356561.6607666,3066693.067550659,2979131.4601898193,-2943660.4976654053,-969253.7784576416,-21280654.907226562,-26882049.560546875,-26149005.889892578,-27072242.736816406,-421698.09341430664,-53316.33239984512,-15347071.647644043,-8100983.619689941,-27054710.388183594,-28188962.936401367,-26407861.709594727,-11781279.563903809,-11118715.286254883,-8276609.420776367,-28187957.763671875,-27889667.510986328
0.145,72057975.76904297,48516662.59765625,26100305.557250977,48491260.52856445,18128099.44152832,72167610.16845703,38892440.79589844,38407775.87890625,32047260.284423828,17283746.71936035,6983438.968658447,-17826215.744018555,-18349559.783935547,-18371698.3795166,23712413.787841797,46994186.40136719,27521558.76159668,20802122.116088867,15446661.949157715,4293015.956878662,-19883823.39477539,-44605560.302734375,-35533016.204833984,24022872.924804688,34982757.568359375,16038597.106933594,7953918.45703125,-856166.6011810303,-5938553.810119629,-18117769.241333008,-48008457.18383789,-34706249.23706055,23352924.346923828,6726692.676544189,5434420.585632324,-1027096.6291427612,-1419199.9435424805,-14051192.283630371,-19045063.018798828,-26475149.154663086,-28917324.06616211,22539859.771728516,5899236.20223999,6013366.222381592,-186515.00344276428,-1071670.8898544312,-21073694.229125977,-28083339.69116211,-27559713.36364746,-28448646.545410156,1072016.8352127075,1299898.624420166,-13268326.759338379,-8045372.96295166,-28183614.73083496,-29423656.463623047,-27628053.665161133,-11197593.688964844,-10349301.3381958,-8477632.522583008,-29252544.403076172,-29102134.704589844
0.15,69906150.8178711,48224693.298339844,25917713.165283203,46262775.42114258,17255825.04272461,66354690.55175781,37468650.817871094,37157196.044921875,31623346.32873535,16021785.736083984,5685351.848602295,-17900856.018066406,-18529394.149780273,-18315467.834472656,23625082.01599121,44199645.99609375,27124771.118164062,19732694.625854492,14926462.173461914,3742752.79045105,-19428812.02697754,-45222240.44799805,-36358901.97753906,24027389.526367188,33615222.9309082,15698148.727416992,8418013.572692871,-787896.3947296143,-6127531.5284729,-17906482.696533203,-48644104.00390625,-35334606.1706543,23328245.162963867,7542102.813720703,7006841.659545898,-1076555.9673309326,-1435384.5119476318,-13578553.199768066,-18351402.282714844,-25204854.96520996,-27694522.857666016,22752111.434936523,7434629.440307617,7605794.906616211,486970.09682655334,-1105631.5898895264,-20273403.16772461,-26652948.3795166,-26497041.702270508,-27024377.822875977,1970385.7898712158,2210273.504257202,-12017725.944519043,-7138363.838195801,-26963861.4654541,-28049253.463745117,-26346712.112426758,-9653417.587280273,-8888486.862182617,-7629598.617553711,-27713371.27685547,-27677211.76147461
0.155,69230552.67333984,49349143.981933594,28717607.498168945,45968692.779541016,19981386.184692383,62649162.29248047,37270935.05859375,37286418.91479492,32621669.76928711,18027887.34436035,8378399.848937988,-13935859.680175781,-14600586.891174316,-13814747.81036377,23096122.74169922,47123023.986816406,26888551.712036133,21087907.791137695,17386344.90966797,6455906.391143799,-16073062.896728516,-41797504.42504883,-27697109.22241211,23497438.430786133,34156147.00317383,14096972.465515137,8322182.655334473,-564299.8218536377,-4391548.633575439,-15457726.47857666,-44315830.23071289,-26687911.987304688,22765110.01586914,6603175.163269043,6569752.216339111,-1000078.4397125244,-1356970.191001892,-12372587.203979492,-15104005.813598633,-21198068.618774414,-23536336.89880371,22553819.65637207,7026349.5445251465,7047401.905059814,-381279.3791294098,-1038884.7589492798,-18408096.313476562,-22775089.263916016,-22875747.680664062,-22871400.833129883,3345411.0622406006,3689614.2959594727,-11310916.900634766,-5043508.052825928,-23400548.934936523,-24191995.62072754,-22626230.239868164,-6908439.636230469,-6290768.623352051,-5400609.970092773,-23888084.411621094,-23833343.505859375
0.16,73178192.13867188,54687801.361083984,36042915.34423828,49175628.662109375,26665893.5546875,62019546.50878906,39625576.01928711,39749755.859375,35190563.2019043,22220809.936523438,13918406.48651123,-5795175.075531006,-6342379.570007324,-5270679.473876953,20588890.075683594,50215911.865234375,28482032.775878906,24555994.033813477,21538722.99194336,11220258.712768555,-10256799.697875977,-33381744.384765625,-16808000.564575195,20870758.056640625,35346134.185791016,14129097.938537598,8726688.385009766,-386174.85761642456,-1517652.6308059692,-11254270.553588867,-36121795.654296875,-15843575.477600098,20263727.18811035,5064475.536346436,5042879.581451416,-849759.1614723206,-1267688.8704299927,-11066637.992858887,-12030662.536621094,-17841144.561767578,-20056192.39807129,20145196.91467285,5495338.916778564,5412997.245788574,-1796646.9526290894,-888927.0424842834,-17567291.259765625,-20018436.431884766,-20020086.28845215,-19647745.13244629,2569920.539855957,3038164.6156311035,-13387597.08404541,-4807726.860046387,-20672582.626342773,-21280836.10534668,-19831039.428710938,-7216852.66494751,-6549679.279327393,-5095184.803009033,-21190292.358398438,-21031906.127929688
0.165,80379028.3203125,65072257.99560547,47493072.509765625,55588802.337646484,35795043.9453125,62711723.32763672,45971115.11230469,45868652.34375,39969024.658203125,27377500.534057617,20324018.478393555,3946160.078048706,3521776.1993408203,4028137.20703125,16455471.03881836,47707775.1159668,33923927.307128906,29372657.775878906,25924737.93029785,16274351.119995117,-3345824.956893921,-24248008.728027344,-13457995.414733887,16591903.686523438,35021060.943603516,18326044.0826416,11173770.904541016,-419022.3813056946,1237809.0620040894,-7057268.6195373535,-29643651.962280273,-12436910.629272461,16170783.996582031,4671624.660491943,3961998.701095581,-767843.0676460266,-1199870.3479766846,-10482296.94366455,-12259241.104125977,-18840341.567993164,-21127431.869506836,15777056.694030762,4270478.248596191,4281817.91305542,-3588583.7078094482,-778525.173664093,-19568984.985351562,-21843185.424804688,-21476837.158203125,-21150651.931762695,-2541331.5296173096,-2007141.351699829,-18999074.935913086,-8652885.437011719,-22133069.99206543,-22791259.765625,-21394077.30102539,-13327279.090881348,-12479057.312011719,-9036364.555358887,-22891956.329345703,-22613166.80908203
0.17,83838104.24804688,73886260.98632812,56892982.482910156,60913154.60205078,42564537.048339844,62866016.38793945,52437438.96484375,52037044.525146484,44484676.361083984,31199289.321899414,24665134.42993164,10872301.10168457,10386445.999145508,10125809.669494629,13462373.733520508,41880970.0012207,39639644.622802734,32804641.723632812,28321416.8548584,19220710.75439453,1734265.0890350342,-19674371.71936035,-16139623.641967773,13560099.601745605,32872718.811035156,23787530.89904785,14045027.732849121,-647085.3090286255,2602902.65083313,-4807487.964630127,-28327405.92956543,-15082972.526550293,13171800.61340332,5489587.306976318,4905664.443969727,-854834.6757888794,-1153964.2810821533,-10645444.869995117,-14466999.053955078,-21956342.697143555,-24353221.893310547,12473970.413208008,5009933.948516846,5152133.941650391,-4503180.503845215,-813365.5190467834,-21689104.080200195,-25387794.494628906,-24708852.767944336,-24739997.86376953,-7494758.605957031,-7022079.4677734375,-22550754.54711914,-12476335.525512695,-25211532.592773438,-26079797.744750977,-24652172.088623047,-19729267.120361328,-18774553.298950195,-12958034.51538086,-26188013.076782227,-25751401.901245117
0.175,77639617.91992188,71471519.47021484,56261005.40161133,59639507.29370117,42005775.451660156,60274204.25415039,51943775.17700195,51444286.34643555,43920482.63549805,30572296.142578125,24129600.524902344,12374143.600463867,11718544.006347656,11836254.119873047,13010173.797607422,38232204.43725586,38874149.322509766,31618633.270263672,26783491.134643555,18314050.674438477,2527050.018310547,-19518955.23071289,-14016309.73815918,13206521.987915039,29880622.86376953,24762092.59033203,13967497.825622559,-825857.400894165,2230402.4696350098,-4586521.148681641,-29061695.098876953,-13061669.34967041,12714720.726013184,5378676.414489746,7949936.866760254,-952266.3354873657,-1072864.8900985718,-10620634.078979492,-13994306.564331055,-20652076.721191406,-22973243.713378906,12003033.638000488,7956334.114074707,8099505.424499512,-2548171.043395996,-875994.622707367,-19627471.923828125,-23904321.670532227,-23150447.845458984,-23427309.036254883,-5850463.8671875,-5529794.692993164,-18255077.362060547,-10012392.9977417,-23475862.503051758,-24537353.515625,-23041707.99255371,-18224502.563476562,-17267364.501953125,-10464565.27709961,-24508312.225341797,-23880018.23425293
0.18,63515743.255615234,56334602.35595703,45031124.114990234,51343353.271484375,34811470.03173828,51173801.42211914,43926418.30444336,43509166.7175293,37409725.189208984,25088363.647460938,19100297.927856445,10209662.437438965,9542854.309082031,11394436.836242676,12194023.132324219,36014663.69628906,31713132.858276367,26430797.576904297,22409181.594848633,14746619.22454834,120115.18329381943,-18864616.39404297,-3065292.3583984375,12528745.651245117,25951652.52685547,20176176.071166992,10855459.213256836,-667343.258857727,1296755.1946640015,-4716114.044189453,-26839338.302612305,-2228301.0482788086,12017702.102661133,2335447.7882385254,10297197.341918945,-745466.8283462524,-861167.6096916199,-9630456.924438477,-9329441.07055664,-13240886.688232422,-15384821.891784668,11510737.419128418,10348208.4274292,10446856.498718262,1386198.878288269,-707596.8980789185,-14097804.069519043,-16264925.003051758,-15558130.264282227,-15674240.112304688,516240.11993408203,751700.5205154419,-9875196.45690918,-2021367.073059082,-15830973.625183105,-16903518.676757812,-15399902.34375,-9357527.732849121,-8440563.201904297,-2380747.7951049805,-16765094.757080078,-16027042.388916016
0.185,48697982.78808594,38514350.89111328,32446281.43310547,41729602.8137207,27812761.306762695,31931280.1361084,36441459.65576172,36143383.02612305,30101053.23791504,18555774.688720703,13784447.66998291,8912431.716918945,8466569.900512695,11947610.855102539,6365765.09475708,28850097.65625,26661285.400390625,21866268.157958984,18935111.99951172,12047861.099243164,-1240334.0339660645,-14726329.803466797,7769009.590148926,6817613.124847412,19452507.01904297,15231489.181518555,8323820.114135742,-204923.5850572586,1413828.3729553223,-3518786.4303588867,-21414056.7779541,8635746.002197266,6455173.969268799,-3182378.053665161,8482552.528381348,-209776.52072906494,-540016.770362854,-7820187.091827393,-4032958.984375,-5576174.736022949,-7705422.878265381,6112326.622009277,8616387.367248535,8779303.550720215,3187776.3271331787,-298978.17969322205,-10000228.881835938,-8861765.86151123,-8147768.974304199,-7883027.55355835,2893949.7470855713,3224097.728729248,-7092059.61227417,4169867.992401123,-8519175.52947998,-9384973.526000977,-7956181.049346924,-2094605.4458618164,-1317834.496498108,3894860.26763916,-9288024.90234375,-8594126.70135498
0.19,37821083.068847656,28644992.82836914,27623550.415039062,35618618.01147461,26263242.721557617,3817276.0009765625,35239929.19921875,35086723.32763672,26467725.75378418,14744204.5211792,11699668.884277344,10885377.883911133,10636844.635009766,14256148.338317871,-5058606.147766113,14122639.656066895,28773689.27001953,20639669.41833496,18223667.14477539,12112913.131713867,1077574.1338729858,-9809239.387512207,9389668.464660645,-4429491.996765137,9536485.67199707,14068540.573120117,8150855.06439209,123011.72316074371,2832802.7725219727,-477422.6248264313,-16783666.610717773,10376598.358154297,-4621576.78604126,-9126994.132995605,2798464.775085449,214583.24790000916,-332121.8192577362,-5604051.58996582,-877972.0664024353,-2255110.502243042,-4562855.7205200195,-4892021.179199219,2963632.583618164,3261313.1999969482,874125.2422332764,-22541.03682935238,-8720988.273620605,-5972404.956817627,-5214292.049407959,-4770747.184753418,-1361256.718635559,-820303.0228614807,-11535127.639770508,5206726.07421875,-5724716.663360596,-6336805.34362793,-4954107.284545898,-1185375.690460205,-695019.9604034424,5055646.896362305,-6384693.622589111,-5772195.816040039
0.195,29652370.45288086,26586879.73022461,29380216.598510742,31640556.33544922,27762664.794921875,-24025907.516479492,35971290.588378906,36050918.57910156,24900089.263916016,13310727.1194458,11866656.303405762,13888390.54107666,13560448.64654541,16178802.490234375,-17004636.764526367,-2800579.071044922,32153419.494628906,20385046.005249023,18418403.62548828,13456042.289733887,4955201.625823975,-8462428.092956543,4632019.04296875,-16086257.934570312,-1662489.2950057983,14446534.156799316,7856284.141540527,-37130.024284124374,4495082.378387451,3813346.6243743896,-15529027.938842773,5672741.889953613,-16204433.44116211,-14498121.26159668,-2484709.7396850586,109481.54330253601,-441062.9868507385,-3010049.819946289,1992132.306098938,-431297.7194786072,-2858828.30619812,-16333858.489990234,-2358792.543411255,-1996169.3286895752,-2526443.4814453125,-189311.10203266144,-6476376.533508301,-4030278.205871582,-3313810.5869293213,-3022289.991378784,-4932526.588439941,-4219615.459442139,-14745473.861694336,5605907.917022705,-3865079.879760742,-4430306.434631348,-2981909.5134735107,-1679733.5147857666,-1444939.4941329956,5645536.89956665,-4552832.60345459,-3923449.2778778076
0.2,21538520.81298828,23911556.243896484,28728658.67614746,26130916.595458984,26016973.4954834,-38542118.072509766,31772153.854370117,32103538.513183594,21830652.236938477,11908632.278442383,11059206.008911133,13531594.276428223,12930909.156799316,14869444.847106934,-23384023.666381836,-14206494.331359863,29258474.349975586,18413433.074951172,17823650.360107422,14095804.214477539,6085399.150848389,-11295221.328735352,2100271.224975586,-22242433.547973633,-9642539.978027344,12101746.559143066,5478209.018707275,-442186.8622303009,5595962.5244140625,7276649.475097656,-16760595.321655273,3148483.7532043457,-22338491.439819336,-19440889.358520508,-4311552.52456665,-368660.5989933014,-752394.7954177856,-480181.36620521545,6213946.81930542,3671739.8166656494,1344961.7624282837,-22204212.188720703,-4273878.09753418,-3941179.037094116,-3758872.2705841064,-605159.2826843262,-1997996.0918426514,755962.6698493958,1360201.0011672974,1410936.951637268,-2218107.9387664795,-1469272.7327346802,-12005603.790283203,8926150.32196045,909116.0297393799,133770.8681821823,1650422.5730895996,1564239.0251159668,1800480.7233810425,9146273.612976074,121945.73879241943,782710.2541923523
0.205,14212338.4475708,16230318.069458008,20925933.837890625,20031372.0703125,19620071.411132812,-33566516.8762207,24634342.193603516,25079723.358154297,18420188.903808594,10676809.310913086,8815586.09008789,8521411.895751953,7742051.124572754,9997253.41796875,-22804859.161376953,-17010452.270507812,22993732.452392578,16750595.092773438,18113307.95288086,14460556.030273438,3299894.5713043213,-15258169.174194336,2952865.6005859375,-21728425.979614258,-11114992.141723633,7814885.139465332,3585989.236831665,-526449.2630958557,6204163.074493408,7204519.271850586,-19146894.454956055,4084876.06048584,-21801595.68786621,-22963279.724121094,-4165909.2903137207,-688194.8709487915,-935219.1090583801,459927.38008499146,8176371.5744018555,6700588.703155518,4558027.744293213,-21458082.19909668,-4197080.135345459,-3912280.559539795,-4362056.732177734,-815386.5337371826,-575663.2685661316,4288692.951202393,4854833.602905273,4791325.092315674,2248547.5540161133,2880770.9217071533,-9684455.871582031,11210988.998413086,4595468.044281006,3585702.896118164,5014536.380767822,5344861.030578613,5783758.163452148,11551053.047180176,3781025.171279907,4307299.613952637
0.21,10536839.485168457,8402673.721313477,11331499.099731445,18099792.48046875,13830852.508544922,-17528589.248657227,22777540.20690918,23168893.814086914,18818811.416625977,11663825.988769531,7755173.206329346,2656203.031539917,1894666.6717529297,4833789.825439453,-19209850.311279297,-13653697.01385498,22178592.681884766,18898078.91845703,21244943.618774414,15933257.102966309,-189675.79305171967,-17735105.514526367,1104166.6269302368,-18371192.932128906,-7585443.97354126,6314155.101776123,5478037.8341674805,-172842.30887889862,6430200.576782227,3390012.9795074463,-22880119.32373047,2335091.8292999268,-18446058.27331543,-23086750.030517578,-4698747.634887695,-637221.9920158386,-855949.2826461792,-1274611.7115020752,3700352.668762207,2968702.0778656006,883852.3626327515,-18131891.25061035,-4689579.963684082,-4422028.541564941,-7422979.831695557,-700704.1573524475,-6357676.982879639,440684.4675540924,1082513.5707855225,1002187.8480911255,2011010.8852386475,2417929.8877716064,-13817986.488342285,7969937.801361084,1044792.890548706,4471.571650356054,1269380.807876587,4331067.5621032715,4895816.802978516,8404622.077941895,299133.9862346649,559550.4641532898
0.215,11462838.172912598,7389820.575714111,8844421.38671875,22010515.213012695,13900687.217712402,-7045050.144195557,28272472.381591797,28575912.475585938,23273750.30517578,14917146.682739258,9608437.538146973,1398463.9644622803,692785.2630615234,3928593.158721924,-17446964.263916016,-9143933.296203613,27578653.33557129,23678329.467773438,25497730.255126953,18263677.5970459,-635098.2189178467,-18171993.255615234,-4943848.609924316,-16634967.803955078,-4486799.716949463,8970888.137817383,9626374.244689941,145002.63333320618,6272573.947906494,-90737.60360479355,-27494384.765625,-3808192.9683685303,-16695125.579833984,-20355899.810791016,-5505344.390869141,-504654.3478965759,-703960.4783058167,-4255818.3670043945,-4049947.2618103027,-5145808.219909668,-7307732.582092285,-16606042.861938477,-5360040.664672852,-5057500.839233398,-11544966.697692871,-546292.1857833862,-14655464.172363281,-8015463.829040527,-7319044.589996338,-7379920.959472656,-861190.140247345,-663445.0554847717,-19288972.854614258,2718297.7199554443,-7167372.226715088,-8085551.2619018555,-6786507.606506348,717818.7370300293,1200630.9032440186,3215040.2069091797,-7861442.089080811,-7767985.820770264
0.22,15139931.678771973,13726836.204528809,16120046.615600586,27851734.161376953,19529911.041259766,-9972782.135009766,33926750.18310547,34234748.84033203,27371091.842651367,18215833.66394043,13290075.302124023,6584333.896636963,5849400.997161865,9066513.061523438,-18527488.708496094,-7787509.441375732,30669942.85583496,26436622.619628906,27670610.427856445,20269342.42248535,2403024.911880493,-16291721.34399414,-8106900.215148926,-17425710.678100586,-5374189.853668213,11510757.446289062,11469050.407409668,85114.79943990707,6434894.08493042,1228474.3785858154,-30203718.185424805,-7276095.390319824,-17341146.46911621,-18617971.420288086,-4731608.867645264,-534685.5521202087,-648315.1912689209,-5496949.195861816,-6845441.818237305,-8563538.551330566,-10784580.23071289,-17446924.209594727,-4489524.364471436,-4089282.0358276367,-12417610.168457031,-535423.8748550415,-17167402.267456055,-11469680.786132812,-10839852.333068848,-10778508.186340332,158829.65922355652,310630.4705142975,-17458087.921142578,2582784.1758728027,-10621895.790100098,-11462876.319885254,-9874839.782714844,1259647.011756897,1598625.3023147583,3038590.431213379,-11317078.590393066,-11205285.07232666
0.225,19061044.692993164,21628345.489501953,27350307.46459961,30911914.825439453,26403825.759887695,-17679964.065551758,33273025.512695312,33687183.38012695,27926317.21496582,20230022.430419922,16789394.37866211,14753812.789916992,13996009.826660156,17340761.184692383,-19285209.65576172,-10096744.537353516,26414150.23803711,25511831.283569336,27716691.970825195,21878498.077392578,6521385.669708252,-11531478.881835938,-2384015.3217315674,-17960260.39123535,-7571232.795715332,9678681.373596191,9611454.010009766,-95243.07399988174,7974627.0179748535,6703664.302825928,-28303586.959838867,-1809030.7712554932,-17651132.583618164,-20064922.332763672,-3136825.3231048584,-564574.5396614075,-587378.7999153137,-3840964.5557403564,-1750590.5628204346,-3324096.918106079,-5492225.646972656,-17735048.294067383,-2889978.6472320557,-2424151.1821746826,-9609183.311462402,-504850.92401504517,-12671885.49041748,-5999872.207641602,-5487794.876098633,-5182859.897613525,5576504.230499268,5849337.577819824,-9312947.273254395,8206687.927246094,-5356011.867523193,-6201589.107513428,-4407474.040985107,7117168.90335083,7433389.663696289,8544461.250305176,-5989535.331726074,-5836692.810058594
0.23,21770242.69104004,25674385.07080078,34532405.853271484,30580171.585083008,30918415.069580078,-17885728.83605957,28712915.420532227,29260829.92553711,26150667.190551758,21238246.91772461,18949373.245239258,20786865.234375,20123758.31604004,23771102.905273438,-17110603.33251953,-12180064.20135498,20060127.25830078,23662498.474121094,27868160.247802734,23447439.193725586,9623851.776123047,-5057594.299316406,8599951.74407959,-15968671.798706055,-5924280.643463135,4723202.228546143,6924814.224243164,-54500.512778759,10475100.51727295,11289970.397949219,-22425306.32019043,9159794.807434082,-15595802.307128906,-21565660.47668457,-3215996.9806671143,-404955.53612709045,-399001.8963813782,-1232845.5448150635,5491327.76260376,4936436.653137207,2873422.622680664,-15453461.647033691,-2926384.925842285,-2597745.656967163,-7240990.63873291,-320449.4118690491,-7102215.29006958,2442748.0697631836,2884509.0866088867,3391391.5157318115,10134657.859802246,10528024.673461914,-3205442.9054260254,13957111.358642578,2919867.992401123,2104468.1072235107,3707064.390182495,12842976.570129395,13258967.399597168,14232710.838317871,2447685.2416992188,2548997.8790283203
0.235,23525419.235229492,26321439.743041992,35489444.732666016,29850826.263427734,32659606.93359375,-11297436.714172363,27342346.19140625,27943365.0970459,24719512.939453125,21105976.104736328,19429113.388061523,22925704.956054688,22388952.255249023,26129743.576049805,-14359446.52557373,-10185165.405273438,18804811.477661133,23171842.575073242,28217256.546020508,24063234.329223633,11564709.663391113,-107964.03139829636,16161226.272583008,-13591325.759887695,-637145.1020240784,1770078.182220459,5905667.304992676,34791.32801294327,11846547.12677002,12056261.06262207,-15982448.57788086,16834310.53161621,-13390089.03503418,-19015449.52392578,-4826774.120330811,-254050.8210659027,-239451.16996765137,-67521.97444438934,8628978.729248047,9519762.992858887,7497502.326965332,-13011628.150939941,-4383001.327514648,-4365094.184875488,-7499439.716339111,-181776.85141563416,-4201926.708221436,7146697.521209717,7556707.859039307,8058890.342712402,11163076.400756836,11560458.183288574,-2812262.773513794,16401357.650756836,7648281.574249268,6901579.856872559,8101962.089538574,14405770.301818848,14913316.72668457,16709039.688110352,7257758.617401123,7335094.928741455
0.24,26211235.04638672,29210063.934326172,35832023.62060547,31534181.594848633,33788764.95361328,-8935083.389282227,31578636.169433594,32042869.567871094,24659250.259399414,19397939.682006836,18782766.342163086,23608158.111572266,23070343.017578125,26502576.82800293,-16098241.806030273,-5611738.681793213,22185552.5970459,23192020.416259766,26888967.514038086,22780796.05102539,13041682.243347168,1213891.9830322266,16722646.713256836,-15438694.953918457,2242853.1646728516,3775522.7088928223,6084231.376647949,-176227.45037078857,10937267.303466797,11150393.48602295,-11898774.147033691,17439249.03869629,-15361214.637756348,-14070564.270019531,-5242239.475250244,-407286.1075401306,-342980.3252220154,-438339.59102630615,8013026.237487793,10184774.398803711,8110826.49230957,-14949965.476989746,-4719810.962677002,-4864204.883575439,-7912136.077880859,-328557.01446533203,-2052661.1804962158,8038269.996643066,8439140.319824219,8749447.8225708,10205136.2991333,10573903.08380127,-5095172.882080078,16646127.700805664,8628156.661987305,7850722.789764404,8944369.316101074,12563708.305358887,13045481.68182373,16993232.72705078,8102177.619934082,8307025.909423828
0.245,31007719.039916992,38661483.76464844,42231449.127197266,35124149.322509766,36558837.890625,-15237254.14276123,36035964.96582031,36184654.235839844,25362216.94946289,17304471.969604492,18526695.251464844,25262397.76611328,24623989.10522461,27609785.079956055,-23201728.82080078,-4172719.0017700195,24050436.01989746,22364086.151123047,24204946.517944336,20823915.481567383,13802606.582641602,208337.2324705124,13885627.746582031,-22348285.675048828,-815764.4271850586,8074109.077453613,6127814.292907715,-520972.6691246033,9247081.756591797,11255890.846252441,-10998584.747314453,14572367.668151855,-22088153.839111328,-12766201.972961426,-4037958.6219787598,-741520.7028388977,-625298.7384796143,-890893.0420875549,7253518.104553223,9699337.005615234,7597257.137298584,-21876651.763916016,-3706508.8748931885,-3639622.926712036,-6540617.942810059,-635433.7334632874,768669.3072319031,7821786.880493164,8310913.0859375,8354488.372802734,7729623.317718506,8142321.586608887,-8075920.104980469,15171667.098999023,8331011.772155762,7413286.6859436035,8858534.812927246,8563166.618347168,8904633.522033691,15545199.394226074,7621281.147003174,7992059.230804443
0.25,34868110.65673828,50611179.35180664,52851097.106933594,36153255.462646484,39871490.478515625,-22477252.960205078,32723407.745361328,32605926.513671875,24867889.404296875,16199361.801147461,18953065.872192383,26028034.210205078,25374153.13720703,28173580.169677734,-30150876.998901367,-8725300.788879395,20248924.255371094,20528301.239013672,22531625.747680664,19896018.981933594,12181935.31036377,-1341050.9824752808,11343959.80834961,-29158861.16027832,-5632898.807525635,8608769.416809082,5527064.323425293,-500620.7823753357,8668490.409851074,10841934.204101562,-13541690.826416016,12035101.890563965,-28593175.888061523,-17306438.446044922,-4561020.851135254,-869943.8571929932,-767120.6593513489,-957933.9027404785,6565310.478210449,7642642.021179199,5663585.186004639,-28638017.654418945,-4527586.460113525,-4103205.680847168,-5586130.142211914,-762973.427772522,1611093.0442810059,5911723.613739014,6596464.63394165,6353748.321533203,2736869.0967559814,3184393.882751465,-12467492.10357666,10665051.460266113,6167829.513549805,5189132.6904296875,7037635.326385498,2284600.7347106934,2496553.1826019287,11109933.853149414,5481044.769287109,5873489.856719971
0.255,31892761.23046875,54099502.56347656,56982986.45019531,29624565.12451172,38733528.13720703,-23402072.90649414,19059577.94189453,18997739.791870117,20241073.608398438,14285997.39074707,17207939.14794922,21291627.883911133,20775905.60913086,23756103.515625,-31682739.2578125,-15600937.843322754,11565168.380737305,17129304.885864258,21586708.068847656,18749164.581298828,6596488.475799561,-4800954.818725586,7801682.949066162,-30745904.92248535,-6422308.444976807,1988073.1105804443,3745439.7678375244,-105012.64780759811,8479388.236999512,6542314.529418945,-19945819.854736328,8517539.978027344,-30147001.266479492,-22954446.79260254,-8782941.818237305,-741859.7936630249,-683651.5069007874,-1538838.267326355,3473022.937774658,2110460.7582092285,344761.461019516,-30337371.826171875,-8780095.100402832,-8260055.5419921875,-7058397.7699279785,-624265.730381012,-1039939.8803710938,527332.7231407166,1320107.6984405518,823271.1553573608,-2408978.223800659,-2072722.1965789795,-16029342.651367188,4928942.2035217285,631842.9708480835,-241929.36718463898,1611538.7678146362,-4029581.069946289,-3793702.8408050537,5409646.034240723,103681.22160434723,408650.2492427826
0.26,20758319.854736328,43240734.1003418,47364082.33642578,16152423.858642578,29930448.532104492,-20850130.081176758,1499128.5800933838,1785567.4028396606,10827898.979187012,8496515.274047852,10531312.942504883,10190442.085266113,9830406.188964844,13093564.0335083,-29408071.517944336,-19063360.2142334,1564525.7234573364,11350391.387939453,18221477.508544922,14643676.7578125,-1998860.0015640259,-12233569.145202637,756487.3695373535,-28461723.32763672,-3947970.151901245,-8221290.588378906,359125.37574768066,96774.89101886749,6586420.059204102,-946867.3467636108,-28583507.537841797,1424836.0395431519,-28147453.30810547,-24449125.289916992,-13517467.498779297,-704191.6251182556,-627372.2648620605,-2932820.5585479736,-1527305.6030273438,-4741235.256195068,-6433330.535888672,-28414815.90270996,-13201126.098632812,-12891491.889953613,-8382735.252380371,-446034.4612598419,-3423140.525817871,-5941761.9705200195,-5320597.6486206055,-5915659.427642822,-3073341.3696289062,-2927879.3334960938,-14363265.991210938,3084386.110305786,-5674041.748046875,-6467480.659484863,-4964406.490325928,-5634666.442871094,-5232165.813446045,3391502.1419525146,-6234834.671020508,-5941699.504852295
0.265,8660001.754760742,26349716.186523438,30849796.295166016,3786968.70803833,18250066.75720215,-20784738.540649414,-9340386.390686035,-8797228.813171387,1522410.8695983887,639450.9077072144,1780651.8077850342,-1078338.5038375854,-1405278.8019180298,1884869.933128357,-29249505.9967041,-17372547.149658203,-5574667.453765869,5233232.9750061035,12389844.89440918,8612252.235412598,-9381496.42944336,-20824567.794799805,-7490024.089813232,-28091510.772705078,-3445773.6015319824,-14049205.780029297,-3060774.087905884,-191517.82989501953,3351344.108581543,-6466419.219970703,-34557640.075683594,-6906231.40335083,-28024238.58642578,-22500494.0032959,-14389250.755310059,-923407.1373939514,-767584.9199295044,-3962686.538696289,-4380530.35736084,-7755867.004394531,-9625078.201293945,-28440664.291381836,-13760138.511657715,-13643565.17791748,-6156584.2628479,-390711.87376976013,-1497406.9595336914,-8473776.817321777,-8197946.548461914,-8669627.18963623,379273.08678627014,470856.60696029663,-8815858.840942383,6513441.562652588,-7879349.231719971,-8810050.010681152,-7622383.594512939,-1629662.6329421997,-1097317.5764083862,6513032.43637085,-8735470.77178955,-8351031.303405762
0.27,4318223.476409912,18287220.001220703,21953208.923339844,779422.7004051208,13185552.597045898,-22685289.38293457,-8618726.73034668,-8224156.379699707,-793303.2512664795,-2579689.0258789062,-1912826.657295227,-4771428.58505249,-5165196.895599365,-2184250.1163482666,-33433597.564697266,-13205750.465393066,-6947826.385498047,3343477.487564087,9125857.35321045,5735152.721405029,-11227471.351623535,-23885873.794555664,-11046984.672546387,-32139678.955078125,-6073790.550231934,-11268028.259277344,-3611169.0998077393,-543549.2992401123,1754256.4868927002,-6416730.4039001465,-33719215.393066406,-10444220.542907715,-32031379.69970703,-21552091.598510742,-11863192.558288574,-1108161.9262695312,-930951.0588645935,-3626709.9380493164,-3028101.682662964,-5482801.43737793,-7605293.273925781,-32645610.809326172,-11242914.199829102,-11108963.012695312,-2117675.78125,-369848.90699386597,2723442.554473877,-6020517.826080322,-5969157.2189331055,-6218553.54309082,1801389.455795288,2038203.9546966553,-6749999.523162842,9984706.87866211,-5308434.963226318,-6488692.760467529,-5355705.738067627,2337379.6939849854,2828238.9640808105,9873742.10357666,-6380337.238311768,-5963140.01083374
0.275,8061803.817749023,23479755.401611328,25836624.145507812,6629167.556762695,17778024.673461914,-22570808.41064453,-1468115.8065795898,-1465357.6612472534,4667095.184326172,1903132.0810317993,2152842.0448303223,-295625.83565711975,-749766.46900177,1875196.933746338,-38260997.7722168,-9540146.827697754,-3181955.337524414,7218708.038330078,11785128.593444824,8453087.80670166,-7749804.973602295,-19219123.84033203,-7942112.922668457,-37149242.40112305,-7073424.816131592,-4068632.6026916504,-742314.338684082,-470571.04110717773,3096468.448638916,-3125188.112258911,-28124809.26513672,-7202352.046966553,-36853652.95410156,-23001285.552978516,-10217684.745788574,-963041.1863327026,-900982.9759597778,-2794234.51423645,-582556.1285018921,-2547381.639480591,-4767602.920532227,-37526611.328125,-9868412.017822266,-9640386.581420898,-1100387.454032898,-275005.66840171814,3667003.631591797,-3286991.596221924,-3239691.972732544,-3352756.2618255615,-2105696.678161621,-1705396.6522216797,-11417521.476745605,8531736.373901367,-2817325.8304595947,-4116985.79788208,-2862983.9420318604,812588.5725021362,1161639.0943527222,8603183.74633789,-3752964.0197753906,-3437890.2912139893
0.28,12655020.713806152,31811021.80480957,33389446.258544922,13250592.231750488,24572565.07873535,-20474227.905273438,4050110.340118408,3881016.969680786,11211706.161499023,8546524.047851562,8170844.078063965,5167466.163635254,4711783.885955811,7274611.949920654,-39548355.10253906,-6560130.1193237305,1845326.4236450195,12667663.57421875,16699260.711669922,12709586.143493652,-3887500.524520874,-12967368.125915527,-3118353.1284332275,-38716781.61621094,-2752871.9902038574,-60941.95693731308,2592521.905899048,-125288.29276561737,4905607.223510742,-1760434.5083236694,-24582664.489746094,-2276208.8775634766,-38326519.01245117,-23714693.069458008,-11274877.548217773,-627965.6291007996,-747931.4208030701,-3228809.8335266113,-1285996.3178634644,-3951955.3184509277,-6118428.2302856445,-38857875.82397461,-11168111.801147461,-10918210.983276367,-3904453.0391693115,-177060.36567687988,-257013.29112052917,-4924161.434173584,-4826801.300048828,-4928458.213806152,-6928315.63949585,-6537374.496459961,-17091501.235961914,3805012.9413604736,-4785781.383514404,-6037110.805511475,-4638565.540313721,-4733451.366424561,-4476775.169372559,4014317.9893493652,-5439823.150634766,-5224048.137664795
0.285,13635416.030883789,33343395.233154297,35067916.87011719,15135755.53894043,25734214.782714844,-18617403.030395508,5966444.492340088,6026025.772094727,12938601.49383545,10239686.012268066,9402692.794799805,5953305.721282959,5548440.933227539,8372601.509094238,-36813156.12792969,-2504782.199859619,4610914.23034668,14838760.375976562,18156814.575195312,13473068.237304688,-3456624.2694854736,-11739730.834960938,-1805814.266204834,-35990390.77758789,4716795.444488525,-1687375.6647109985,3505555.6297302246,3722.703317180276,4678197.860717773,-3892382.6217651367,-26281692.504882812,-989732.8615188599,-35609382.62939453,-20943561.553955078,-12418893.814086914,-457250.2672672272,-670843.1839942932,-5075031.757354736,-4822569.847106934,-8766482.35321045,-10883489.608764648,-35986877.44140625,-12336866.37878418,-12098405.838012695,-6355489.253997803,-185999.5722770691,-5008561.134338379,-9785728.454589844,-9698114.395141602,-9817958.83178711,-7012156.009674072,-6798801.898956299,-17319684.982299805,873207.5691223145,-9694980.62133789,-10867537.498474121,-9378504.753112793,-8700350.761413574,-8458802.223205566,906049.4303703308,-10311175.346374512,-10045104.98046875
0.29,13993988.990783691,30576646.80480957,33110977.172851562,14506972.312927246,23161411.28540039,-15482663.15460205,7406603.813171387,7749422.073364258,11080401.420593262,7385188.102722168,6831707.000732422,4716566.562652588,4401627.540588379,7591442.108154297,-31620607.376098633,3473968.982696533,4358003.13949585,13739145.278930664,16098478.317260742,11501642.227172852,-4755262.37487793,-13670490.264892578,-2422815.7997131348,-30565689.086914062,10831749.91607666,-5088690.757751465,2087137.6991271973,-181352.6153564453,3664340.019226074,-6185855.865478516,-28556020.736694336,-1660998.4636306763,-30200994.49157715,-16121707.916259766,-11233067.512512207,-547489.8219108582,-678867.1016693115,-6355736.255645752,-6681161.403656006,-11282034.873962402,-13390056.610107422,-30583410.263061523,-10966114.044189453,-10736202.239990234,-5575655.460357666,-260615.0209903717,-6351923.942565918,-12376987.45727539,-12266174.31640625,-12374412.536621094,-2969949.0070343018,-2950686.9316101074,-13102312.088012695,1551218.1520462036,-12053197.860717773,-13138564.109802246,-11681392.669677734,-8542249.67956543,-8293733.596801758,1307129.3830871582,-12881246.566772461,-12465638.160705566
0.295,17439760.208129883,31789482.11669922,35250556.94580078,15540751.457214355,23916322.708129883,-8638929.36706543,9276803.016662598,9530959.129333496,10161690.711975098,5895270.824432373,6377668.857574463,7307856.559753418,7089777.946472168,10607567.78717041,-25511360.16845703,9272276.878356934,2214071.035385132,12642773.628234863,14953425.407409668,11290341.3772583,-3826141.119003296,-11888904.571533203,328909.60574150085,-24324159.622192383,13667646.408081055,-6366961.95602417,38118.984550237656,-359823.5845565796,4636240.005493164,-5499401.092529297,-25653799.057006836,1142754.077911377,-24022193.908691406,-13062376.022338867,-9168423.652648926,-700174.3316650391,-649151.2060165405,-5452450.275421143,-4152026.1764526367,-8313887.596130371,-10388783.45489502,-24486839.294433594,-8638810.157775879,-8494417.190551758,-3538669.1093444824,-280745.59569358826,-4272949.21875,-9747850.41809082,-9509582.51953125,-9605757.713317871,163855.09073734283,124330.96021413803,-9797864.91394043,3466506.4811706543,-9310273.170471191,-10197080.612182617,-8912172.317504883,-6643513.202667236,-6344195.365905762,3177383.8996887207,-10239913.940429688,-9730091.094970703
0.3,21754034.0423584,37261718.75,41199810.02807617,17687902.450561523,28418643.951416016,-1217028.9754867554,9066961.288452148,8917116.165161133,11049836.158752441,7931220.054626465,9394210.815429688,13149833.679199219,12971177.101135254,16790639.877319336,-20925708.770751953,11374163.627624512,-172535.2108478546,12994455.337524414,16342483.520507812,13837594.032287598,-731247.60389328,-5609549.045562744,6393892.288208008,-19840398.78845215,13807538.986206055,-5566672.325134277,-1679485.0826263428,-332977.89096832275,7179820.537567139,-3107869.863510132,-19422618.865966797,7329404.354095459,-19727899.5513916,-13637565.612792969,-8984606.742858887,-726392.7459716797,-575242.1617507935,-3283902.883529663,-5785.014946013689,-3535143.1369781494,-5595924.377441406,-20199302.673339844,-8308450.698852539,-8306216.239929199,-3254819.393157959,-213299.36385154724,-1658622.2648620605,-5400657.176971436,-5046891.212463379,-5166083.812713623,-453214.1387462616,-356854.8858165741,-9867145.538330078,3770958.185195923,-5264925.479888916,-5891137.599945068,-4756607.0556640625,-6534360.408782959,-6071181.774139404,3590065.2408599854,-6005873.680114746,-5509266.376495361
0.305,22530368.80493164,39863975.524902344,43380691.52832031,17899065.017700195,30221763.610839844,1076771.855354309,6438417.434692383,6035869.121551514,11363998.413085938,9840109.825134277,11374218.940734863,15817018.508911133,15587010.383605957,19646680.83190918,-20948621.74987793,8815737.7243042,-828542.947769165,13731927.871704102,17554113.388061523,15734163.284301758,779532.8497886658,-1693438.6491775513,9540550.231933594,-20016090.393066406,12095798.49243164,-4157321.9299316406,-2608081.102371216,-211683.16900730133,8231636.047363281,-2168856.143951416,-16788381.576538086,10495775.22277832,-20105470.657348633,-16309522.62878418,-10708415.985107422,-610781.192779541,-546182.6324462891,-2061012.2680664062,1123513.4601593018,-3058413.9823913574,-5215581.893920898,-20571050.6439209,-10134266.85333252,-10139657.020568848,-4678017.616271973,-124100.34984350204,-742604.2556762695,-5106707.572937012,-4767558.0978393555,-4929616.928100586,-3915666.8186187744,-3561391.1151885986,-12375105.857849121,1209253.9072036743,-5490905.76171875,-6017798.42376709,-4806148.052215576,-9957476.615905762,-9258440.017700195,980759.9186897278,-6000004.768371582,-5542294.025421143
0.31,20526510.23864746,37296947.47924805,39825088.50097656,16505939.483642578,27228309.631347656,-1194827.4374008179,4664030.5519104,4429245.948791504,10712930.679321289,9238702.774047852,10112912.17803955,13065415.382385254,12743040.084838867,16884263.99230957,-25346920.013427734,4952106.475830078,1258740.6635284424,14318222.999572754,17038003.92150879,15261707.305908203,-440305.8588504791,-4048515.3198242188,6893482.208251953,-24486215.591430664,9777061.462402344,-2272629.2610168457,-2113131.523132324,-130470.08216381073,7029753.2081604,-2579768.657684326,-19327863.693237305,7685557.3654174805,-24577527.99987793,-18292276.38244629,-12152187.34741211,-457827.47864723206,-558760.8814239502,-2342965.3644561768,-1059917.688369751,-7361017.227172852,-9619733.810424805,-25177303.314208984,-11847784.996032715,-11677465.438842773,-6101123.809814453,-97307.17539787292,-1676761.6271972656,-9300106.048583984,-9028234.481811523,-9210583.686828613,-8364532.470703125,-7804200.649261475,-16311702.728271484,-3729369.640350342,-9968631.744384766,-10619268.417358398,-9178491.592407227,-16222251.892089844,-15359712.600708008,-4143181.800842285,-10484934.80682373,-10023073.196411133
0.315,20730644.22607422,35875232.6965332,38096839.904785156,16854919.43359375,25767183.303833008,-1333011.0311508179,5371114.730834961,5469137.191772461,11375217.43774414,8952739.715576172,9582700.729370117,10725423.812866211,10353999.137878418,14491987.228393555,-28698440.551757812,4160099.983215332,4212932.586669922,15401116.371154785,16943288.803100586,15067807.1975708,-970318.2578086853,-7377639.7705078125,4234677.791595459,-27911970.138549805,9349527.359008789,-79043.25425624847,-519456.9230079651,-109731.97221755981,6306252.956390381,-1290288.4483337402,-20774097.442626953,4802668.571472168,-27824188.232421875,-17943042.755126953,-12118678.092956543,-421236.6044521332,-569387.6147270203,-2736024.856567383,-2398524.761199951,-10397801.399230957,-12562235.832214355,-28589765.548706055,-12022481.918334961,-11742919.921875,-7045427.7992248535,-208331.43591880798,-3536038.1603240967,-12211915.016174316,-11913630.485534668,-12054453.84979248,-11867062.56866455,-11271507.263183594,-20339164.73388672,-8319811.820983887,-12757625.579833984,-13523057.93762207,-12027948.379516602,-21840787.887573242,-20977416.9921875,-8720526.695251465,-13436667.442321777,-12963625.90789795
0.32,24615890.502929688,40319168.09082031,43588954.92553711,19842193.603515625,30472520.82824707,3682103.395462036,6389180.660247803,6568903.923034668,13977342.60559082,11783360.481262207,13199942.588806152,13832871.437072754,13492737.770080566,17748153.686523438,-25977058.41064453,7070888.042449951,4959520.8168029785,16786930.084228516,18894361.49597168,17293966.29333496,1415035.0093841553,-5360514.6408081055,8027319.90814209,-25323106.76574707,12485927.58178711,1013192.7728652954,430130.83934783936,-181134.61136817932,7721837.043762207,2402881.383895874,-16653430.938720703,8506663.32244873,-25137987.13684082,-15376148.223876953,-11159708.023071289,-596236.3481521606,-653897.4046707153,-2446738.2431030273,-464601.3677120209,-7714942.932128906,-9656671.524047852,-25808324.813842773,-11103967.666625977,-10962954.5211792,-7693695.068359375,-470040.58957099915,-5594225.4066467285,-9612215.995788574,-9199220.657348633,-9227969.1696167,-12044041.633605957,-11526564.598083496,-21586156.845092773,-8810916.900634766,-9848988.53302002,-10534706.115722656,-9289190.292358398,-22196601.86767578,-21470132.82775879,-8884751.319885254,-10567545.890808105,-10152036.666870117
0.325,27330785.751342773,46071407.318115234,50574378.967285156,22260030.74645996,36185260.77270508,8741051.67388916,6200820.446014404,6159242.630004883,15862043.380737305,15181668.281555176,17573160.17150879,18608579.635620117,18351705.55114746,22793361.66381836,-19378551.483154297,10117219.924926758,3336107.015609741,17175975.799560547,20755283.35571289,19614850.997924805,3786885.4999542236,-419812.47067451477,15451489.448547363,-18811878.204345703,17134237.28942871,377494.4245815277,-362102.59795188904,-346038.46073150635,9150780.67779541,5225769.519805908,-11201235.7711792,16038894.653320312,-18745718.002319336,-12039199.829101562,-9980233.192443848,-851120.114326477,-871385.0378990173,-2340791.702270508,2111917.734146118,-2540823.221206665,-4426661.491394043,-19061065.673828125,-9903327.941894531,-9936889.6484375,-7383129.119873047,-716343.879699707,-7373975.75378418,-4676845.073699951,-4175179.958343506,-4082305.908203125,-8428395.27130127,-7973567.962646484,-18840768.814086914,-4639975.070953369,-4643129.348754883,-5204539.2990112305,-4237492.561340332,-16636959.075927734,-16111484.52758789,-4361019.134521484,-5236634.731292725,-4939436.912536621
0.33,24000818.252563477,45780040.7409668,49985244.75097656,21067480.087280273,35145095.82519531,7788950.9201049805,6214056.015014648,5952601.432800293,14624639.511108398,14495897.29309082,16996152.877807617,18100889.205932617,17915185.928344727,22257472.99194336,-16581069.946289062,9579631.805419922,2138083.9347839355,16160461.42578125,19779060.36376953,18713985.443115234,2581562.042236328,234803.02095413208,17901550.29296875,-15997282.028198242,18695503.23486328,-541360.0206375122,-1893143.5346603394,-416033.71500968933,8241967.20123291,4733368.396759033,-10839231.491088867,18670200.34790039,-16076515.197753906,-10309634.2086792,-9047015.190124512,-886010.8852386475,-1023254.6329498291,-2883466.7205810547,1979211.926460266,-1150684.9527359009,-3195547.8191375732,-16172513.961791992,-8988689.422607422,-8924299.240112305,-5933063.507080078,-676067.054271698,-8032719.612121582,-3472886.562347412,-2947478.5327911377,-2818580.8658599854,-4787211.4181518555,-4369385.719299316,-15650122.64251709,-322151.89933776855,-3193371.057510376,-3834366.798400879,-2882765.054702759,-11115670.204162598,-10758623.123168945,36341.91304445267,-3729392.5285339355,-3497959.1369628906
0.335,16219646.453857422,39282161.712646484,42151588.439941406,17057588.577270508,28456993.103027344,1461454.2722702026,6870643.615722656,6614105.701446533,11154062.271118164,9707600.593566895,11844601.63116455,12901207.92388916,12705053.329467773,16565891.26586914,-21318012.237548828,5174874.782562256,2453166.0079956055,14780493.73626709,16721111.297607422,15395283.699035645,-667284.7867012024,-4200526.714324951,13066044.807434082,-20709289.55078125,15016962.051391602,-859294.2953109741,-2925378.5610198975,-206627.7265548706,6263216.495513916,2778257.6084136963,-14518209.457397461,13925772.666931152,-20736181.259155273,-12133469.581604004,-9279175.758361816,-619497.1799850464,-841046.8101501465,-2836358.7856292725,85848.74868392944,-4248415.946960449,-6341681.480407715,-20994331.35986328,-9217810.63079834,-8859489.440917969,-5073790.073394775,-311953.72343063354,-6724303.722381592,-6549642.562866211,-6011429.786682129,-5953824.996948242,-5580415.24887085,-5250989.4371032715,-16312208.17565918,-471941.7989253998,-6012397.289276123,-6889638.900756836,-5785618.305206299,-12044973.373413086,-11709517.478942871,-300351.8581390381,-6696710.586547852,-6380049.705505371
0.34,10474386.215209961,33269355.77392578,35937187.19482422,13797649.383544922,24448316.57409668,-4063740.2534484863,6119448.184967041,6014902.114868164,8461865.425109863,5809705.2574157715,8279068.946838379,10351020.812988281,10040851.593017578,13498190.879821777,-28394477.84423828,308045.8641052246,2304372.787475586,14188246.726989746,14741857.528686523,13388656.616210938,-1639007.9259872437,-7225574.016571045,7807070.255279541,-27815507.888793945,9429384.231567383,-1812895.1787948608,-3772647.3808288574,99664.46459293365,5912025.451660156,2149808.645248413,-15859249.114990234,8625755.310058594,-27672628.40270996,-16689683.91418457,-11169574.737548828,-378132.1346759796,-429269.6416378021,-1398453.2356262207,-576217.2341346741,-7063082.695007324,-8913512.229919434,-28186653.13720703,-11019546.508789062,-10527949.333190918,-6445972.442626953,19345.656037330627,-4277045.726776123,-9156695.365905762,-8578159.33227539,-8627958.297729492,-10010363.578796387,-9792455.673217773,-19822381.9732666,-4018652.91595459,-8486528.396606445,-9481578.826904297,-8344701.766967773,-17968021.392822266,-17488414.764404297,-4106656.551361084,-9368132.591247559,-8875122.0703125
0.345,10943018.913269043,32768188.4765625,36605686.18774414,14122601.509094238,26958566.665649414,-3375866.651535034,4241185.665130615,4255338.668823242,8717150.688171387,6736577.033996582,10042567.253112793,13548674.583435059,13094354.629516602,16621786.117553711,-29796541.213989258,-634551.8231391907,1043811.6788864136,14975195.88470459,15467820.167541504,14234056.47277832,350390.16604423523,-5210309.028625488,8038540.840148926,-29222663.87939453,7791148.662567139,-3771881.103515625,-4801565.647125244,121793.91831159592,6971556.663513184,2330242.395401001,-13101562.5,8761807.441711426,-29053340.911865234,-19915262.22229004,-13249126.434326172,-475824.17726516724,-206694.8413848877,-117558.82203578949,-228091.16542339325,-7073687.0765686035,-8697775.840759277,-29502765.655517578,-13023404.121398926,-12670711.517333984,-9024908.065795898,-39400.26834607124,-3419315.5765533447,-8963150.978088379,-8316843.032836914,-8455859.184265137,-12643090.24810791,-12419795.989990234,-21449651.71813965,-6118575.096130371,-8398560.523986816,-9297476.768493652,-8255550.384521484,-21261615.753173828,-20633211.135864258,-6390798.091888428,-9292614.936828613,-8723100.662231445
0.35,15382387.161254883,36323963.1652832,40122959.13696289,17834054.946899414,31019119.262695312,3857980.489730835,5731598.854064941,5750320.911407471,11772479.057312012,11263572.692871094,14289418.22052002,17138019.561767578,16627122.87902832,20339508.056640625,-24280622.482299805,3990859.9853515625,1523399.7106552124,17424797.05810547,17939987.182617188,16142915.725708008,2109245.538711548,-2283957.2429656982,11026178.359985352,-23653387.06970215,12243944.16809082,-4002105.712890625,-4685132.026672363,-130367.24925041199,7134846.210479736,1552299.0226745605,-10913202.285766602,11679408.073425293,-23661212.921142578,-18213445.66345215,-13340559.005737305,-727662.7421379089,-317550.8379936218,-712781.9061279297,-1349263.7872695923,-6802799.701690674,-8579120.635986328,-23788066.864013672,-13180437.088012695,-12976645.469665527,-10613250.732421875,-352165.5797958374,-5817904.949188232,-8692218.780517578,-7951785.564422607,-8179369.926452637,-10795686.721801758,-10413755.416870117,-20009681.701660156,-5197672.367095947,-8347884.178161621,-9129356.384277344,-8031085.968017578,-18681964.874267578,-18085603.713989258,-5527173.5191345215,-9041176.795959473,-8605625.15258789
0.355,18362108.23059082,39516513.82446289,40741989.13574219,21824769.973754883,31098476.40991211,12205327.033996582,12250812.530517578,12131786.346435547,15360185.623168945,15227747.917175293,16374410.629272461,16024642.944335938,15578535.079956055,18943098.068237305,-18565963.745117188,10671348.571777344,5303183.078765869,20850685.119628906,20571950.912475586,17495979.30908203,2260836.8396759033,-2973336.935043335,11006125.450134277,-17936117.17224121,18666580.200195312,-311802.05941200256,-2259660.243988037,-204792.8124666214,6299186.706542969,1041702.8665542603,-12044978.141784668,11621955.871582031,-18117141.723632812,-12938310.623168945,-11636278.15246582,-684385.8361244202,-418954.2531967163,-2103221.654891968,-3423907.995223999,-8265841.484069824,-10439809.799194336,-18079971.313476562,-11648900.032043457,-11377801.895141602,-11244861.602783203,-443280.33924102783,-9584087.371826172,-10366243.362426758,-9541857.719421387,-9841556.549072266,-8254385.948181152,-7711253.1661987305,-19657171.24938965,-4839091.3009643555,-10171100.616455078,-10984148.025512695,-9555176.734924316,-15833529.472351074,-15424093.246459961,-5114779.949188232,-10623248.100280762,-10408176.42211914
0.36,17301160.81237793,40031150.817871094,38910282.135009766,22531126.022338867,28323127.74658203,14074285.507202148,17497457.50427246,17073595.04699707,16459850.311279297,15939630.508422852,15503051.7578125,12872013.092041016,12526403.427124023,15182151.794433594,-18761123.657226562,13380216.598510742,8639975.547790527,22897594.451904297,22247804.641723633,18524902.34375,2843756.914138794,-5203736.305236816,8418793.678283691,-18225751.876831055,21229257.583618164,4359778.881072998,666749.9542236328,124420.23307085037,6756018.161773682,3246675.0144958496,-13126062.393188477,8988958.358764648,-18405578.61328125,-9389273.643493652,-10703202.247619629,-302341.7890071869,-214012.36951351166,-1885344.9821472168,-2954525.4707336426,-9200711.250305176,-11574909.210205078,-18503381.729125977,-10858374.59564209,-10403510.093688965,-12617605.209350586,-145675.98700523376,-11288614.273071289,-11513597.48840332,-10703808.784484863,-10963213.920593262,-9515329.360961914,-8956421.852111816,-23078931.80847168,-7874001.502990723,-11417887.687683105,-12340049.743652344,-10542325.019836426,-18523944.854736328,-18253290.1763916,-8059049.606323242,-11758107.18536377,-11621202.46887207
0.365,14529937.744140625,38816417.6940918,38750965.1184082,19361120.223999023,27059482.57446289,6797234.535217285,14648370.742797852,13858508.110046387,13779800.415039062,13694079.399108887,13921957.969665527,13254094.123840332,12954455.375671387,15521257.400512695,-23481513.97705078,10295092.582702637,6984447.479248047,21426469.802856445,22033264.16015625,19222698.211669922,4731237.888336182,-4437731.2660217285,8496444.702148438,-22997337.341308594,18928106.3079834,4592722.8927612305,844641.7450904846,492649.49560165405,8948805.809020996,6730528.354644775,-10989433.288574219,8973709.106445312,-23053920.74584961,-10718379.020690918,-11950956.344604492,-24936.094880104065,93973.87504577637,-183465.94274044037,631166.8157577515,-7408689.498901367,-9619656.562805176,-23310503.005981445,-12158869.743347168,-11615839.004516602,-14564892.768859863,189064.1152858734,-10123996.73461914,-9710947.036743164,-9039093.017578125,-9132755.279541016,-13267824.172973633,-12805308.34197998,-26796455.38330078,-11921790.12298584,-9781516.075134277,-10739505.767822266,-8827151.29852295,-24113492.965698242,-23818653.106689453,-12053684.23461914,-10179793.357849121,-9915274.620056152
0.37,13435750.007629395,38050338.74511719,41174198.150634766,15311392.784118652,28100414.276123047,-3584560.6327056885,6268489.837646484,5329038.619995117,9154087.06665039,10251226.425170898,12828841.209411621,17160757.064819336,16857513.427734375,20394283.294677734,-27083065.032958984,5851483.345031738,1570732.7127456665,17272594.451904297,19667263.03100586,18352775.57373047,5578436.851501465,-982792.1390533447,12525232.315063477,-26516704.559326172,15678154.945373535,-488738.11960220337,-2163579.4639587402,473086.6253376007,10203949.928283691,7248263.359069824,-8111018.180847168,12854570.388793945,-26442913.055419922,-14659398.078918457,-13911205.291748047,-140702.59034633636,123632.86316394806,586715.5194282532,3321996.9272613525,-5099306.106567383,-7004007.816314697,-26686904.907226562,-14122273.445129395,-13603058.815002441,-14851746.559143066,211527.92870998383,-8092170.715332031,-7137618.541717529,-6611672.401428223,-6589553.356170654,-14794731.140136719,-14395323.753356934,-25935682.29675293,-12843561.172485352,-7386303.901672363,-8291552.543640137,-6525704.860687256,-25891273.498535156,-25490129.470825195,-12967300.415039062,-7930259.227752686,-7501934.051513672
0.375,14119798.66027832,38929649.353027344,43458106.994628906,13347593.307495117,28847654.342651367,-8364332.19909668,1012905.0016403198,311542.71960258484,5659973.621368408,7242676.258087158,11716558.456420898,19986085.891723633,19679271.697998047,24354900.360107422,-27585720.06225586,4567453.861236572,-2421063.4231567383,13633465.766906738,16667821.884155273,15905662.536621094,4154664.0396118164,1337647.557258606,16110321.044921875,-26951656.341552734,14296758.651733398,-6085946.083068848,-5375903.129577637,162538.70725631714,8875951.766967773,4405911.445617676,-7895925.998687744,16309326.171875,-26747978.21044922,-17268138.885498047,-14871513.366699219,-403424.82924461365,-125584.85567569733,-189032.61423110962,2514451.9805908203,-5364758.9683532715,-7046756.744384766,-26958303.451538086,-15078827.857971191,-14563643.455505371,-12982187.271118164,15159.98039394617,-6342835.426330566,-7062006.47354126,-6578400.135040283,-6639811.5158081055,-13330960.273742676,-12873105.0491333,-21440256.118774414,-10512490.272521973,-7344012.73727417,-8175135.612487793,-6618365.76461792,-23383022.30834961,-22905715.942382812,-10665305.137634277,-7979876.99508667,-7538228.0349731445
0.38,13883059.50164795,40683517.45605469,44140567.779541016,12942210.19744873,28392251.96838379,-6818060.398101807,1761056.5423965454,1478593.111038208,4462090.015411377,5823152.542114258,10848984.718322754,20123743.057250977,19813364.028930664,24625932.693481445,-28664953.231811523,4722337.245941162,-2971280.574798584,12520586.013793945,15587083.81652832,14489904.403686523,3335816.3833618164,1789763.6890411377,16294919.967651367,-28126121.520996094,13026753.425598145,-7946167.469024658,-6273850.440979004,-50002.05710530281,7127173.42376709,3022333.6219787598,-8446596.145629883,16516700.744628906,-27766107.5592041,-18096181.869506836,-15455229.759216309,-458782.94110298157,-332526.38578414917,-300880.22351264954,846297.8601455688,-7147005.558013916,-8741840.362548828,-28071355.81970215,-15667127.60925293,-15106752.395629883,-11555578.231811523,-127311.46812438965,-4146239.757537842,-8674283.027648926,-8189888.000488281,-8403900.146484375,-13237614.631652832,-12626489.639282227,-19216415.405273438,-8798627.853393555,-8861427.307128906,-9605619.430541992,-8214651.107788086,-22924842.834472656,-22402618.408203125,-9050513.26751709,-9454177.856445312,-9138236.999511719
0.385,11449029.922485352,41576053.619384766,44535530.09033203,11654809.951782227,28686244.96459961,-6414291.3818359375,2786935.567855835,2701049.8046875,4402241.230010986,6605106.830596924,11724442.481994629,20588638.305664062,20244792.938232422,24226776.123046875,-33266914.36767578,1605117.678642273,-2951930.7613372803,13032717.70477295,17428091.049194336,16304737.091064453,5969029.903411865,3206153.8696289062,15643564.224243164,-32866695.404052734,9456998.825073242,-7067844.390869141,-5521770.000457764,-65940.22363424301,7717895.984649658,6277458.667755127,-5877478.122711182,16081295.013427734,-32386257.17163086,-19455234.52758789,-17111846.923828125,-366303.7419319153,-355494.4097995758,1429899.2156982422,1569454.6699523926,-7426840.782165527,-9096115.112304688,-32784099.578857422,-17352363.58642578,-16806779.861450195,-12561003.684997559,-217028.99038791656,-1869867.444038391,-9110915.184020996,-8716439.247131348,-8883163.452148438,-17320558.547973633,-16558343.887329102,-22441408.157348633,-10397930.145263672,-9239959.716796875,-9892668.724060059,-8655883.7890625,-28020221.710205078,-27450050.354003906,-10799432.754516602,-9745756.149291992,-9516938.209533691
0.39,8925495.147705078,41122665.40527344,45538391.11328125,9391904.830932617,30748332.977294922,-11254138.946533203,-606608.3312034607,-862531.7811965942,4396294.116973877,9077646.255493164,14493301.391601562,23080265.045166016,22696716.30859375,25962083.81652832,-38454902.64892578,-4275536.060333252,-4737671.375274658,13393255.233764648,20406623.84033203,19741750.717163086,9975617.408752441,6386328.220367432,17289569.854736328,-38039176.94091797,5300052.165985107,-6813934.326171875,-5069707.870483398,-76506.19000196457,9862748.146057129,10940711.02142334,-1463573.3366012573,17963949.20349121,-37564102.17285156,-21801267.623901367,-19268453.59802246,-422958.4336280823,-358155.5783748627,2909838.6764526367,3288683.4144592285,-6512508.392333984,-8429218.292236328,-37899852.75268555,-19567588.806152344,-19139642.7154541,-14482701.301574707,-423047.4531650543,-1890546.0834503174,-8598211.288452148,-8373039.245605469,-8260174.751281738,-22505580.90209961,-21699617.385864258,-27806999.20654297,-13858753.204345703,-8745748.519897461,-9417405.128479004,-8298645.01953125,-34298942.56591797,-33718730.92651367,-14328565.59753418,-9311761.856079102,-8992469.787597656
0.395,9055769.920349121,40878356.93359375,46105857.849121094,8908598.899841309,32788330.078125,-15571693.420410156,-5193089.008331299,-5729569.911956787,4887400.6271362305,11575251.579284668,16894420.623779297,24993207.931518555,24632423.400878906,27916370.391845703,-38846324.9206543,-6634440.4220581055,-6655683.0406188965,13391608.238220215,21995069.50378418,21135797.50061035,10903039.932250977,8399443.626403809,19648851.39465332,-38325954.43725586,4533064.365386963,-7712191.104888916,-5063560.485839844,-122450.14309883118,10567047.119140625,11966224.670410156,-147112.01190948486,20346204.75769043,-37979774.475097656,-22564662.93334961,-19873922.34802246,-636103.093624115,-463860.78000068665,1971076.0116577148,2562820.9114074707,-7238232.135772705,-9414107.322692871,-38214866.638183594,-20257005.69152832,-19915529.251098633,-14909628.868103027,-662683.367729187,-5080690.860748291,-9676542.282104492,-9548583.030700684,-9180019.37866211,-24055860.51940918,-23342937.469482422,-30392061.233520508,-16049577.713012695,-9807039.260864258,-10700718.879699707,-9535815.238952637,-35903182.98339844,-35412345.88623047,-16434595.108032227,-10613412.857055664,-10065871.238708496
0.4,11722364.42565918,42119476.318359375,45430244.44580078,11652216.911315918,32854873.657226562,-11932276.725769043,-5343237.87689209,-5956696.510314941,6460258.483886719,12503570.556640625,16766433.715820312,23746269.22607422,23497610.092163086,27082769.3939209,-33476486.206054688,-2154217.481613159,-6002057.075500488,13967820.167541504,21676874.1607666,19463546.752929688,8163442.611694336,7509310.722351074,19304229.736328125,-32997119.903564453,7892820.358276367,-7396103.858947754,-4075351.2382507324,-35789.05761241913,9063091.278076172,9312684.059143066,-2540536.1652374268,19805627.822875977,-32838317.87109375,-19855861.66381836,-18335903.16772461,-687537.0144844055,-566959.5003128052,-175115.71943759918,-263470.76892852783,-9592310.905456543,-11803120.613098145,-33112277.98461914,-18836420.0592041,-18401954.650878906,-14283333.778381348,-638771.653175354,-8674856.185913086,-12102562.90435791,-11918824.195861816,-11517738.342285156,-21562328.338623047,-20994062.423706055,-29615148.544311523,-15753229.141235352,-12155514.71710205,-13327825.546264648,-11945434.5703125,-32783683.77685547,-32437770.84350586,-16048513.412475586,-13147239.685058594,-12426904.678344727
0.405,14197810.173034668,43210964.20288086,43933662.41455078,15300595.2835083,31258871.07849121,-2364839.792251587,-1144075.1552581787,-1623180.9854507446,8322011.947631836,11738579.750061035,14556164.741516113,20627021.78955078,20517074.584960938,24048187.255859375,-26665163.040161133,4894581.317901611,-3197672.3670959473,15271451.950073242,20935106.27746582,17252939.224243164,5422441.482543945,5948014.736175537,16747770.309448242,-26393714.904785156,12219722.747802734,-4866249.561309814,-1805626.392364502,206559.09180641174,7529928.207397461,6975346.088409424,-3801532.506942749,17091411.590576172,-26423557.28149414,-15114253.044128418,-16126899.719238281,-398210.346698761,-532048.8214492798,-749097.4068641663,-1518520.8320617676,-10095500.946044922,-12117840.766906738,-26802787.78076172,-16742303.848266602,-16106826.782226562,-14617341.041564941,-301628.5002231598,-9463348.388671875,-12469297.409057617,-12146957.397460938,-11866544.723510742,-18148393.630981445,-17669404.983520508,-28104593.27697754,-13856871.604919434,-12492638.58795166,-13702213.287353516,-12173559.188842773,-28828449.249267578,-28539365.768432617,-14232696.533203125,-13374448.776245117,-12726232.528686523
0.41,14115299.224853516,41150382.99560547,41717800.14038086,16501045.227050781,29408042.907714844,4429287.433624268,2375035.524368286,1996111.273765564,8927144.050598145,10379290.580749512,12317730.903625488,18343561.17248535,18296436.309814453,21508140.563964844,-22238277.435302734,8395337.104797363,-1120378.6134719849,16150178.909301758,20804771.423339844,16671594.619750977,5029639.24407959,6143787.860870361,15720764.16015625,-22114967.346191406,15002438.54522705,-2306465.1489257812,-34512.10632920265,384425.3420829773,7617052.5550842285,6880537.986755371,-1267340.6600952148,16152606.964111328,-22261468.8873291,-11178477.28729248,-14509842.872619629,8193.960413336754,-391361.5345954895,591711.3423347473,340213.2987976074,-6931610.584259033,-8774497.032165527,-22632852.55432129,-15102104.187011719,-14412361.145019531,-15628894.805908203,13801.614753901958,-7492382.049560547,-9193630.21850586,-8746436.11907959,-8586237.907409668,-15351023.67401123,-14903476.71508789,-26558763.50402832,-11245686.531066895,-9264369.96459961,-10190079.689025879,-8813697.814941406,-25695598.602294922,-25285026.55029297,-11772440.910339355,-9819806.098937988,-9480714.797973633
0.415,11964351.654052734,36579200.744628906,38990734.1003418,15167147.636413574,28257928.8482666,4941481.113433838,2405357.1224212646,1911875.0095367432,7913644.790649414,9481552.124023438,11379229.545593262,17575714.111328125,17460191.72668457,20569660.186767578,-19619993.209838867,7855800.151824951,-1408070.8026885986,15676117.897033691,20758275.985717773,16994579.315185547,5513575.553894043,7348561.763763428,18028312.68310547,-19462953.567504883,16680273.056030273,-2094777.5840759277,-393772.155046463,336153.86486053467,8525139.808654785,7337534.9044799805,1885447.62134552,18710916.51916504,-19553102.493286133,-9221887.588500977,-13247831.344604492,168820.67918777466,-281382.67993927,1748722.6724624634,3090790.033340454,-2391231.5368652344,-4176669.5976257324,-19848302.841186523,-13591854.095458984,-13121819.496154785,-15146604.537963867,-1982.515212148428,-5047319.412231445,-4631987.09487915,-4101587.2955322266,-4033165.93170166,-12111997.604370117,-11698402.404785156,-23386381.149291992,-8072984.69543457,-4728205.680847168,-5319920.539855957,-4258594.989776611,-22194452.2857666,-21587579.72717285,-8548521.995544434,-5048472.881317139,-5001072.883605957
0.42,10602091.789245605,34976371.76513672,38407215.1184082,14265895.84350586,28827592.849731445,3765450.4776000977,961147.0699310303,218669.3251132965,6601701.259613037,9448740.005493164,12016837.120056152,18139116.287231445,17874250.411987305,21172357.5592041,-16698560.71472168,6783963.203430176,-2888236.0458374023,14479001.998901367,20305313.110351562,16865337.371826172,5421775.341033936,8127989.768981934,22103239.059448242,-16450239.181518555,17937849.044799805,-3618973.731994629,-2093330.1448822021,125826.00116729736,8995339.393615723,7232982.158660889,2664463.0432128906,22943695.068359375,-16306486.129760742,-8730232.238769531,-12016212.463378906,-38382.81333446503,-311196.2080001831,1562515.4972076416,4503506.660461426,607042.0145988464,-1127932.071685791,-16652820.587158203,-12056314.468383789,-11888910.293579102,-13276684.761047363,-302157.461643219,-3484715.9385681152,-1599714.5175933838,-1023258.9244842529,-1042970.7765579224,-8528401.374816895,-8129699.70703125,-19289333.34350586,-4929297.924041748,-1668659.0909957886,-2160432.815551758,-1200720.4294204712,-18437841.415405273,-17783466.339111328,-5120662.689208984,-1983871.2215423584,-1934353.4708023071
0.425,12620521.545410156,40783905.029296875,43363502.502441406,15868822.09777832,32282695.770263672,4886109.352111816,1049545.5265045166,151718.00553798676,6619662.284851074,10369400.024414062,14328890.800476074,21063606.26220703,20702077.865600586,24118600.845336914,-14073156.356811523,6742699.62310791,-3218129.6348571777,14202307.70111084,20357057.571411133,16937675.47607422,6287901.878356934,9491917.610168457,26181837.08190918,-13795878.410339355,17856805.8013916,-4067929.267883301,-2687527.656555176,-115115.60529470444,9209285.736083984,8093424.7970581055,3306723.3562469482,26946996.688842773,-13409029.960632324,-9183400.15411377,-11448551.177978516,-429465.74091911316,-505649.6858596802,1006779.4322967529,4766441.345214844,1754165.0533676147,121664.26330804825,-13941368.103027344,-11421338.081359863,-11349382.400512695,-12966784.477233887,-642006.2184333801,-2797442.91305542,-417011.43980026245,180185.18388271332,115182.20603466034,-6912791.2521362305,-6443947.315216064,-18022916.793823242,-3089740.037918091,-485425.2338409424,-1053424.35836792,121750.27281045914,-16588878.631591797,-16114242.553710938,-3074857.711791992,-857572.6747512817,-531319.5586204529
0.43,18113227.84423828,51490600.5859375,52530204.77294922,19057470.321655273,37852016.44897461,6544341.564178467,3151664.0186309814,2316433.6681365967,8353327.751159668,12094940.185546875,17801176.071166992,26533546.447753906,26227373.123168945,29471006.393432617,-13716743.469238281,6711575.984954834,-1225016.3555145264,15677697.18170166,21862585.067749023,18408349.990844727,9620822.90649414,12747766.494750977,30087083.81652832,-13417187.690734863,16225196.838378906,-1810060.2626800537,-951174.1995811462,-310268.67032051086,9699788.093566895,10864566.802978516,6927790.641784668,30623405.45654297,-12966540.336608887,-10131748.19946289,-11743762.969970703,-728144.8841094971,-762132.2274208069,1015065.07396698,4788037.7769470215,2314439.7735595703,723225.474357605,-13609261.512756348,-11908330.917358398,-11685085.29663086,-15344855.308532715,-861793.4584617615,-2896844.3870544434,30533.12748670578,661099.8511314392,620715.2605056763,-7848327.63671875,-7292682.647705078,-20856954.57458496,-2764661.0736846924,-47256.51815533638,-607842.743396759,757609.9634170532,-17013488.76953125,-16740945.816040039,-2878369.8081970215,-375442.9817199707,183323.83036613464
0.435,24405876.15966797,59478759.765625,58873252.868652344,21808147.430419922,41845954.89501953,6847156.524658203,6104482.173919678,5440964.221954346,10766796.112060547,13848469.734191895,20451536.178588867,31151905.059814453,30992006.301879883,33839508.056640625,-14369581.22253418,7013655.662536621,2375417.947769165,17979921.340942383,23822532.653808594,20228643.4173584,13252184.867858887,15770677.56652832,33199539.184570312,-13986809.730529785,15631721.496582031,1981459.8560333252,1809967.6370620728,-375362.0386123657,9886828.422546387,13351782.79876709,11390083.312988281,33549674.98779297,-13655891.418457031,-10067803.382873535,-11325104.713439941,-782010.3168487549,-871345.8776473999,1076655.5070877075,4652625.08392334,3136094.808578491,1512807.846069336,-14211472.511291504,-11636894.226074219,-11230211.25793457,-17156845.092773438,-897458.4341049194,-3384026.288986206,646139.919757843,1337041.8548583984,1319064.736366272,-7885377.407073975,-7401249.885559082,-23250743.865966797,-2059022.9034423828,696375.4296302795,256628.96037101746,1485376.9540786743,-16617965.698242188,-16311925.888061523,-2508111.9537353516,404233.1874370575,912170.41015625
0.44,28403430.938720703,60262599.94506836,57509422.302246094,23628717.42248535,41499423.98071289,8640821.45690918,9112746.238708496,8507846.83227539,12642381.66809082,14887200.355529785,20666704.177856445,31090864.181518555,30992475.509643555,33267566.680908203,-12084040.641784668,9603025.436401367,5804755.687713623,19648736.95373535,24438732.147216797,20396602.630615234,13853837.966918945,15160838.12713623,33876117.70629883,-11636390.686035156,18505737.3046875,4940562.725067139,3640676.975250244,-237236.3805770874,9215670.585632324,13142149.925231934,12102959.632873535,34237331.39038086,-11458443.641662598,-7522276.401519775,-8696291.92352295,-621239.6621704102,-718509.0780258179,592572.4506378174,4570645.809173584,4593495.3689575195,3054685.8310699463,-11837913.513183594,-8924202.919006348,-8453161.239624023,-15214794.158935547,-708331.6445350647,-3218596.4584350586,2098632.8125,2806559.0858459473,2763006.9255828857,-4104638.5765075684,-3865060.0910186768,-20720218.658447266,662379.9204826355,2432579.99420166,1972418.3082580566,2928770.065307617,-13105320.930480957,-12576139.450073242,14142.540283501148,1982655.40599823,2282654.7622680664
0.445,28529336.92932129,55946556.091308594,51413352.966308594,24965976.71508789,38673770.904541016,13708397.86529541,11671875.953674316,10922556.87713623,13498306.274414062,15511212.348937988,19629922.86682129,27381250.381469727,27181884.765625,28661844.25354004,-6696630.954742432,13635791.778564453,7537422.657012939,20315174.102783203,23811565.399169922,19397178.649902344,11953812.599182129,11379325.866699219,31618890.7623291,-6310409.069061279,22793312.072753906,5674953.937530518,4129347.324371338,31952.176243066788,8732960.70098877,11257040.023803711,9119721.412658691,32176029.205322266,-6203191.757202148,-3880416.6316986084,-5263670.444488525,-372459.88845825195,-441473.6032485962,146590.9332036972,5268013.477325439,6430850.028991699,5134039.402008057,-6476630.210876465,-5368137.836456299,-4897137.641906738,-11349035.263061523,-366533.0708026886,-2205175.1613616943,4226136.684417725,4833416.46194458,4793924.331665039,707273.1256484985,747461.0805511475,-15674060.821533203,3796335.6971740723,4773556.232452393,4042850.4943847656,4979281.425476074,-8993218.421936035,-8354182.243347168,3247520.923614502,4048321.7239379883,4279014.587402344
0.45,24803583.1451416,50578296.66137695,46563156.12792969,25021081.924438477,37430637.35961914,16473184.585571289,12463013.648986816,11514678.001403809,13071727.752685547,16330591.201782227,19872732.162475586,24837125.778198242,24513006.21032715,25057361.602783203,-4417537.689208984,14335347.175598145,6974853.515625,20357175.827026367,23612016.677856445,19654228.21044922,11263841.62902832,8423319.816589355,27962036.1328125,-4190653.3241271973,23272878.646850586,4084080.696105957,3968761.205673218,239564.50819969177,9810672.760009766,10707633.972167969,6735751.152038574,28696189.880371094,-4065979.00390625,-3220317.602157593,-4538533.687591553,-146342.1732187271,-273986.01174354553,538801.1336326599,6381869.316101074,6729094.0284729,5529561.996459961,-4341631.889343262,-4705991.744995117,-4237901.210784912,-10082959.175109863,-114448.63677024841,-1895210.3853225708,4799103.260040283,5239273.0712890625,5272981.643676758,603614.5091056824,650630.1760673523,-14580516.815185547,3547392.6067352295,5274331.092834473,4312373.161315918,5455504.894256592,-9228866.577148438,-8725586.891174316,3256291.8663024902,4448168.754577637,4810814.85748291
0.455,18876773.834228516,45638813.01879883,44004680.63354492,22536684.036254883,38220920.56274414,10960185.050964355,10567498.207092285,9568362.23602295,10914541.244506836,16517004.013061523,21093318.939208984,25194482.803344727,24918512.34436035,24566583.63342285,-10110164.642333984,9068808.555603027,4809247.4937438965,19625574.111938477,23950244.903564453,21149528.50341797,12760460.85357666,7839655.39932251,23937438.96484375,-10028885.841369629,18278562.545776367,1197969.7942733765,3421163.558959961,267843.3358669281,11445239.067077637,11739711.76147461,6395847.797393799,24625057.220458984,-9846827.507019043,-7366267.681121826,-7642302.989959717,-4711.403511464596,-278727.4420261383,1269267.9166793823,5884884.357452393,3103173.4943389893,1626733.5414886475,-10175337.791442871,-7948289.394378662,-7547977.924346924,-12234858.512878418,-148971.61722183228,-3492598.056793213,1189931.035041809,1516316.4138793945,1556115.8657073975,-5646811.008453369,-5499288.558959961,-19076581.954956055,-1367573.9765167236,1354951.26247406,516925.75216293335,1705733.060836792,-14987885.475158691,-14648521.423339844,-1482792.9735183716,738982.6774597168,1222664.475440979
0.46,14767922.401428223,41899265.28930664,40638816.833496094,19072450.637817383,37199703.216552734,2304924.249649048,8019554.138183594,7126719.4747924805,7603698.253631592,14358356.475830078,19780427.932739258,24365690.231323242,24314228.057861328,23074573.516845703,-18668071.746826172,2404987.573623657,3375803.9474487305,17943351.74560547,22753616.333007812,20361234.664916992,12502529.14428711,5955110.549926758,18223234.176635742,-18655748.36730957,13186950.68359375,-452062.5174045563,2671944.3798065186,141652.911901474,10630327.224731445,10944004.05883789,4325596.332550049,18698766.708374023,-18449945.4498291,-12111950.874328613,-11016201.01928711,21137.22264766693,-367233.5147857666,936715.1260375977,2327657.461166382,-3908344.030380249,-5771030.902862549,-18805961.60888672,-11302623.748779297,-11056603.43170166,-14047045.707702637,-373116.01638793945,-5876901.149749756,-5817581.1767578125,-5531722.068786621,-5668072.22366333,-12270585.060119629,-12116616.249084473,-24205001.831054688,-7571683.883666992,-5965665.340423584,-6469426.155090332,-5499411.582946777,-21857608.795166016,-21494167.32788086,-7703547.00088501,-6252002.716064453,-5807041.645050049
0.465,17228038.787841797,42044033.05053711,36047729.4921875,19014608.38317871,32095153.80859375,3699518.6805725098,9146226.88293457,8340998.649597168,5738563.060760498,10305545.806884766,14410398.483276367,18288278.579711914,18441303.253173828,16063989.639282227,-19073232.650756836,2105108.7379455566,5654496.669769287,16708757.400512695,19345806.121826172,15281971.93145752,7181238.174438477,-1129502.6540756226,9175811.767578125,-19057556.15234375,15030161.85760498,2187236.547470093,3089712.8582000732,-72825.56593418121,6134825.229644775,5837292.671203613,-2550888.0615234375,9548023.223876953,-18952051.162719727,-11090559.005737305,-10285882.949829102,-57536.39712929726,-517046.2727546692,-1062875.8668899536,-3260534.7633361816,-10543089.866638184,-12446589.469909668,-19267553.329467773,-10450174.331665039,-10305155.754089355,-13003120.422363281,-505284.1305732727,-7403123.378753662,-12099801.063537598,-11847092.628479004,-12191754.341125488,-13533203.125,-13446885.108947754,-25995843.8873291,-10815287.590026855,-12353493.690490723,-12769452.095031738,-11910191.535949707,-24980405.807495117,-24521957.397460938,-11077346.801757812,-12473680.49621582,-12129241.943359375
0.47,26276679.99267578,46912044.525146484,33015892.028808594,24314441.680908203,25719770.431518555,19733043.670654297,15877964.973449707,15024520.874023438,7739911.079406738,7574193.954467773,8569041.25213623,8744261.741638184,8926881.790161133,5095292.568206787,-7913774.490356445,10357232.093811035,12338182.44934082,17962203.979492188,16400531.768798828,9128523.826599121,-694733.2620620728,-12051314.353942871,-2280113.458633423,-7862400.054931641,24167905.807495117,9371788.024902344,6066138.744354248,-288389.2357349396,531294.2862510681,-1567522.7642059326,-11862735.748291016,-1775203.3472061157,-7993432.998657227,-3532174.825668335,-5503997.802734375,-158068.18008422852,-759532.630443573,-3879027.6050567627,-8532954.216003418,-14083277.702331543,-15663846.015930176,-8243066.787719727,-5685114.860534668,-5473084.926605225,-11071858.406066895,-423745.6023693085,-8487119.674682617,-15074698.448181152,-14830547.332763672,-15166681.289672852,-10320529.93774414,-10227155.685424805,-25937318.801879883,-10608641.624450684,-15133734.703063965,-15856217.384338379,-14757490.158081055,-24172128.677368164,-23778089.52331543,-10947805.404663086,-15328516.006469727,-15009754.180908203
0.475,34755432.12890625,51430568.69506836,31828111.64855957,30897619.247436523,22237594.604492188,39120288.84887695,24549264.907836914,23586668.014526367,12383680.34362793,8346952.438354492,6804726.600646973,1298156.976699829,1384720.0870513916,-3871918.201446533,5714423.179626465,21386148.45275879,20019828.79638672,21276094.436645508,16548772.811889648,6737843.036651611,-5366875.648498535,-21462013.244628906,-13048340.797424316,5769284.725189209,33563022.61352539,16947687.14904785,10441520.690917969,-359795.83859443665,-2514255.0468444824,-6778660.297393799,-18727773.666381836,-12383643.15032959,5392535.68649292,4430956.3636779785,-724432.4684143066,-185946.5390443802,-978404.4623374939,-6131728.172302246,-12039802.551269531,-15716220.85571289,-17024061.20300293,5142120.838165283,-1067327.1417617798,-718050.4202842712,-10779498.100280762,-287564.39685821533,-10454025.268554688,-16397136.688232422,-16046245.574951172,-16192459.106445312,-7387499.3324279785,-7206521.987915039,-26224800.10986328,-9556058.883666992,-16023574.829101562,-17095197.677612305,-15710445.404052734,-22520629.8828125,-22308437.34741211,-9837889.671325684,-16402828.216552734,-16064466.47644043
0.48,35055164.3371582,49345081.3293457,29163557.052612305,32970333.099365234,21957916.259765625,47646427.154541016,29456476.21154785,28454442.977905273,15486010.551452637,10735100.746154785,8791753.768920898,-1199159.3837738037,-1175999.0453720093,-7409204.006195068,11268141.746520996,27932500.8392334,24009712.21923828,23477191.925048828,18519729.614257812,8431460.3805542,-4679208.755493164,-25776691.436767578,-20512903.213500977,11265386.581420898,36779075.622558594,20133279.80041504,13043066.024780273,-221336.39454841614,-2268273.8304138184,-7670254.230499268,-21162694.931030273,-19900907.516479492,10760982.513427734,7203152.179718018,1435958.1470489502,-140196.0402727127,-972408.2350730896,-7154180.526733398,-13640518.188476562,-17701454.162597656,-19011663.43688965,10472357.749938965,1020570.9934234619,1410410.4042053223,-10928399.085998535,-301798.16484451294,-12746113.777160645,-18417436.599731445,-17869745.2545166,-17953233.71887207,-6155399.799346924,-5936443.328857422,-24955083.8470459,-9104274.74975586,-17615863.800048828,-18729303.35998535,-17397123.336791992,-21412958.1451416,-21256650.924682617,-9289457.321166992,-18143810.272216797,-17813955.307006836
0.485,28225730.895996094,41887805.9387207,23881370.544433594,30190916.061401367,22032520.294189453,44119224.548339844,29174524.307250977,28211709.97619629,14967764.854431152,11510593.41430664,10416579.246520996,-608138.6804580688,-539987.8025054932,-7226609.706878662,8997115.135192871,28196554.18395996,23327407.836914062,22767770.767211914,19136856.079101562,10310524.940490723,-1709873.3186721802,-25780223.846435547,-23795598.98376465,8953794.479370117,34616935.72998047,18898981.09436035,12640356.063842773,-33461.786806583405,-965034.544467926,-5852104.663848877,-20496137.619018555,-23354955.673217773,8410924.911499023,5987764.358520508,2449618.8163757324,-84947.01981544495,-754943.9668655396,-7215185.165405273,-13484756.469726562,-19390840.530395508,-20739887.237548828,8217199.325561523,2140083.074569702,2465169.4297790527,-9001233.100891113,-458306.4019680023,-13542983.055114746,-20094606.399536133,-19407857.89489746,-19710655.212402344,-3893339.6339416504,-3709499.1207122803,-19914501.190185547,-8235501.289367676,-19131822.58605957,-20076314.92614746,-19003885.26916504,-19460741.04309082,-19179191.58935547,-8435865.40222168,-19722555.16052246,-19373998.641967773
0.49,22739076.614379883,36700485.22949219,19327411.651611328,27681825.637817383,20811328.887939453,38277469.635009766,27655923.84338379,26719190.59753418,13468297.004699707,10697669.02923584,9771944.999694824,113850.98844766617,275205.9996128082,-6556418.418884277,6841508.865356445,25552858.352661133,21583890.914916992,21435226.440429688,18170173.64501953,10064409.255981445,25674.056261777878,-24184337.615966797,-23565071.10595703,6868293.285369873,32264846.801757812,17617319.107055664,11658750.534057617,2665.149513632059,-415498.822927475,-3897690.773010254,-18352394.104003906,-23122430.8013916,6284558.7730407715,5479773.52142334,4370193.004608154,-20226.167514920235,-578363.0609512329,-6879468.4410095215,-11878396.034240723,-18594711.303710938,-19770532.608032227,6352762.222290039,4186864.8529052734,4436035.15625,-5985018.730163574,-567985.2962493896,-12847532.272338867,-19023729.32434082,-18311239.24255371,-18905647.27783203,190520.4951763153,392448.0080604553,-14266057.968139648,-6462872.02835083,-18183031.08215332,-19060297.0123291,-18051849.365234375,-16338096.618652344,-15955636.024475098,-6772445.6787109375,-18772699.3560791,-18307989.1204834
0.495,23431184.768676758,37260349.27368164,17955900.192260742,28743818.283081055,19074281.692504883,36746150.970458984,28529771.80480957,27558137.893676758,14381167.4118042,10961374.282836914,8952353.477478027,-66978.17891836166,128524.51205253601,-6734495.162963867,8240947.723388672,23379850.387573242,22202760.696411133,22566999.435424805,18350376.12915039,9397041.320800781,225637.0633840561,-22873910.903930664,-21750463.485717773,8391574.85961914,31913940.4296875,19044368.743896484,12714967.727661133,-38485.27371883392,-210688.60590457916,-2933670.5207824707,-15805995.94116211,-21077032.0892334,7785116.672515869,6645073.413848877,5959464.550018311,115857.04982280731,-585493.9818382263,-6445660.591125488,-9937290.19165039,-15840775.489807129,-16790246.963500977,8019973.7548828125,5810652.256011963,5997598.648071289,-5520855.903625488,-503195.6434249878,-12631361.961364746,-16051944.732666016,-15331958.770751953,-16009391.784667969,2143906.354904175,2467889.0705108643,-13845280.647277832,-5599672.317504883,-15389572.143554688,-16353822.708129883,-15200534.82055664,-14743527.41241455,-14435728.073120117,-5914274.6925354,-15965824.127197266,-15392326.354980469
0.5,25778423.309326172,38291500.091552734,17335504.53186035,30814163.208007812,17499244.689941406,37110359.19189453,30822147.369384766,29816032.40966797,16968009.94873047,12803160.667419434,9590619.087219238,-1083236.3367080688,-969674.4084358215,-7832995.414733887,8961207.389831543,22366571.4263916,24446506.50024414,25358432.76977539,20493968.963623047,10058291.4352417,62135.86404919624,-22870628.356933594,-21172065.73486328,9134043.69354248,31311700.82092285,21060979.84313965,14971394.538879395,90991.02020263672,494095.2658653259,-2986472.3682403564,-14684817.31414795,-20296379.08935547,8590433.120727539,6306655.8837890625,4560018.062591553,297488.0635738373,-633234.7393035889,-5987806.32019043,-9180554.389953613,-14399044.036865234,-15371267.318725586,8668074.607849121,4416245.460510254,4549226.2840271,-8452808.380126953,-337147.65310287476,-13613083.839416504,-14744704.246520996,-14004515.647888184,-14552662.84942627,-1213080.883026123,-787880.7187080383,-19005210.876464844,-7101364.1357421875,-14147841.453552246,-15157592.7734375,-14017365.455627441,-16756664.276123047,-16603490.829467773,-7217728.614807129,-14754027.366638184,-14237474.44152832
