time,Fp1,Fpz,Fp2,AF3,AF4,F7,F5,F3,F1,Fz,F2,F4,F6,F8,FT7,FC5,FC3,FC1,FCz,FC2,FC4,FC6,FT8,T7,C5,C3,C1,Cz,C2,C4,C6,T8,TP7,CP5,CP3,CP1,CPz,CP2,CP4,CP6,TP8,P7,P5,P3,P1,Pz,P2,P4,P6,P8,PO7,PO5,PO3,POz,PO4,PO6,PO8,CB1,O1,Oz,O2,CB2
0.0,-559794.9624061584,-2476803.5411834717,-3769685.745239258,201487.18357086182,-1207330.7037353516,1190730.2141189575,3317021.369934082,3291281.7001342773,625102.1027565002,-177599.05755519867,-624144.1369056702,-1089947.7005004883,-1128552.1984100342,-1199161.0527038574,-464763.0453109741,1796274.5428085327,897856.4739227295,406680.8223724365,62417.76421666145,-145988.21103572845,-892406.1059951782,-1391080.379486084,7416.456937789917,-465379.7745704651,1314233.899116516,626377.4037361145,837190.0320053101,56048.16600680351,359282.523393631,-374426.4841079712,-1739499.9265670776,14292.053878307343,-453875.66089630127,-333882.9576969147,949095.5471992493,66805.96619844437,29824.871569871902,157696.54512405396,-138464.21241760254,203911.05115413666,225325.01816749573,-457581.40087127686,844818.9496994019,880408.3466529846,73759.23544168472,52825.678139925,1462635.87474823,170763.9992237091,223285.82406044006,207396.9841003418,117048.9564538002,106228.07592153549,-57833.705097436905,84989.2720580101,179229.274392128,190243.6763048172,228188.619017601,-212370.27645111084,-131136.01505756378,46829.99849319458,220741.58489704132,166804.29875850677
0.005,26165330.88684082,13693182.945251465,-11770367.622375488,24836339.950561523,12227947.235107422,37886932.373046875,36445381.16455078,33477180.48095703,18846927.642822266,14599025.72631836,12106949.806213379,2330888.509750366,1709557.6524734497,981026.7090797424,-14148745.5368042,40193538.665771484,19510351.181030273,12379713.05847168,11955570.220947266,6468904.495239258,-1086302.638053894,-12622685.432434082,11944051.742553711,-14484016.418457031,20369949.340820312,11919244.766235352,8299791.33605957,1491051.3162612915,2758153.4385681152,-4151144.027709961,-19516269.68383789,11920670.509338379,-13726892.471313477,-7925080.7762146,2537898.540496826,1677688.8370513916,1227545.8574295044,192167.11819171906,-1209551.6920089722,10421491.622924805,11163253.784179688,-13853307.723999023,1350691.0800933838,973045.289516449,812250.8525848389,1528866.2910461426,3646240.9496307373,9195426.940917969,10298751.831054688,10244778.633117676,2235786.4379882812,2124242.067337036,4222814.083099365,-325549.27468299866,9348201.751708984,9218245.506286621,9877951.622009277,1351845.622062683,2344452.381134033,-506574.21350479126,9985387.802124023,8956990.242004395
0.01,38876758.57543945,19223136.90185547,-16509183.883666992,36854351.04370117,17744329.45251465,57653247.83325195,52330123.90136719,48087207.79418945,29260416.03088379,22168806.076049805,18382761.001586914,3975009.2029571533,3011934.995651245,2033719.0628051758,-18073329.92553711,59091793.060302734,30163759.231567383,20545757.293701172,18110088.348388672,10509138.107299805,-381539.13617134094,-18036691.665649414,17016002.655029297,-18505809.783935547,30260166.16821289,18235843.658447266,12208048.820495605,1977291.7032241821,3537168.025970459,-6645637.512207031,-27787237.1673584,16981452.94189453,-17566587.448120117,-10730128.288269043,2820255.5179595947,2188366.413116455,1660747.766494751,-788595.0207710266,-3155093.6698913574,14151991.844177246,15079429.626464844,-17619533.53881836,1051366.686820984,696297.1091270447,-1031291.2464141846,2038966.6557312012,1630028.8438796997,12326090.812683105,13805496.215820312,13755707.740783691,2761572.83782959,2637833.595275879,6663222.312927246,433507.3232650757,12546458.24432373,12365369.79675293,13282215.118408203,2271460.0563049316,3706335.3061676025,62049.027532339096,13406904.220581055,12034532.54699707
0.015,36959583.2824707,14910876.274108887,-18782758.712768555,35394809.72290039,15181476.593017578,59282073.974609375,51192565.91796875,47268955.23071289,31066595.07751465,22128047.943115234,17671722.412109375,2961506.128311157,1936952.2333145142,1067166.0900115967,-13728829.383850098,58449913.024902344,32165515.899658203,23819585.8001709,18623825.073242188,11440558.433532715,672924.280166626,-18312438.96484375,14627503.395080566,-14096973.419189453,30462310.791015625,19116605.758666992,12467917.442321777,1627260.8041763306,2679195.8808898926,-7698995.590209961,-27237861.63330078,14628666.877746582,-13380178.451538086,-9442927.360534668,1674634.575843811,1705934.762954712,1349074.2444992065,-2263622.045516968,-4905791.282653809,11682600.975036621,12366044.998168945,-13278779.029846191,-153747.3499774933,-167666.4650440216,-4044570.4460144043,1648734.211921692,-2712480.7834625244,9851469.993591309,11091106.414794922,11012405.395507812,1349081.1586380005,1284163.236618042,5858640.670776367,1441318.5119628906,9979578.971862793,9902728.080749512,10743476.867675781,2390745.6398010254,3817404.03175354,886866.3311004639,10709022.521972656,9531455.993652344
0.02,30294685.36376953,9031274.795532227,-22017894.744873047,29365854.263305664,10230430.603027344,54335529.32739258,46369869.232177734,42983291.62597656,29328981.399536133,19557294.845581055,14400393.48602295,-103043.38485002518,-1052339.792251587,-1855384.7074508667,-9750231.742858887,52503223.41918945,30547660.82763672,23618495.94116211,17772480.010986328,10586387.634277344,757084.0716362,-18626302.71911621,10111841.201782227,-10100180.625915527,27357160.568237305,17585535.049438477,11473038.673400879,1305328.130722046,1394133.448600769,-8024195.671081543,-25665431.97631836,10191698.07434082,-9479591.369628906,-8261750.221252441,286064.65458869934,1200274.3482589722,930029.8690795898,-2721103.9066314697,-4640836.715698242,8772650.718688965,9289955.139160156,-9385499.000549316,-1450930.9530258179,-1227482.3188781738,-4838922.023773193,1201776.385307312,-4243392.9443359375,7108716.4878845215,8059706.687927246,7873323.440551758,-168121.21868133545,-189689.90445137024,3009943.723678589,1569537.7588272095,7000771.522521973,7109693.0503845215,7864178.657531738,2539731.740951538,3870437.6220703125,942908.0486297607,7577418.804168701,6568522.4533081055
0.025,26599523.544311523,6092592.239379883,-27140920.639038086,26297435.760498047,7080300.331115723,51919128.41796875,46662822.72338867,43152614.59350586,28501918.79272461,18586866.37878418,12474595.069885254,-3324393.2723999023,-4209401.607513428,-5211326.599121094,-10115618.705749512,50530887.603759766,29362306.594848633,21953025.817871094,18274803.161621094,9551991.46270752,-338830.828666687,-21400060.653686523,8471810.340881348,-10506856.918334961,25861656.188964844,16165426.254272461,10830171.585083008,1517433.6433410645,580512.4044418335,-8150101.661682129,-27287799.835205078,8619756.698608398,-9735223.770141602,-9098411.560058594,-93425.13233423233,1273063.3020401,902800.6196022034,-1524893.6414718628,-2433240.6520843506,9468427.658081055,10111124.038696289,-9811012.268066406,-1865044.7130203247,-1651152.6107788086,-2973549.1275787354,1262564.5399093628,-1799147.4866867065,7875359.058380127,8818016.052246094,8557063.102722168,558063.8647079468,523971.0807800293,1684879.183769226,1627544.2838668823,7578807.830810547,7752470.970153809,8590143.203735352,3583366.3940429688,4946353.912353516,1079152.9417037964,8198006.629943848,7072005.271911621
0.03,26213563.919067383,4778991.69921875,-30943086.624145508,26697713.85192871,5840174.198150635,51806472.77832031,49548210.14404297,45610679.626464844,29269243.240356445,19494977.951049805,12493476.867675781,-4854039.669036865,-5713990.688323975,-6983824.729919434,-11737017.631530762,50742717.74291992,29161798.47717285,20542306.900024414,19593093.872070312,9306716.918945312,-1367180.2282333374,-23868659.97314453,9367782.592773438,-12122996.33026123,25776372.9095459,15684605.598449707,10607091.903686523,1997254.729270935,245849.8179912567,-8143439.292907715,-29545204.162597656,9532272.338867188,-11244961.738586426,-10272122.383117676,510490.2982711792,1720488.19065094,1258313.2982254028,299217.164516449,-468036.4727973938,12086695.671081543,12894094.467163086,-11432586.669921875,-1360261.7979049683,-1226925.1346588135,-1433676.9580841064,1654013.752937317,597214.8180007935,10504770.278930664,11582200.050354004,11385670.66192627,2975950.7179260254,2920563.6978149414,3228000.8792877197,2499721.5270996094,10272476.196289062,10308641.43371582,11259998.321533203,4650385.856628418,6099153.0418396,2123102.4265289307,11010974.884033203,9726293.563842773
0.035,27321966.17126465,4197752.952575684,-30340290.069580078,28075393.676757812,5803291.797637939,51098457.33642578,50212787.62817383,46206691.74194336,30702020.6451416,21082830.42907715,13450190.544128418,-4414223.670959473,-5239351.749420166,-6564598.560333252,-11738794.326782227,50267574.310302734,29611034.393310547,20646545.41015625,20698745.727539062,10082047.462463379,-1395927.5484085083,-23179344.177246094,8745396.614074707,-12106843.948364258,25498723.98376465,16667293.548583984,11045926.094055176,2271889.4481658936,140051.49900913239,-8300089.8361206055,-29686645.5078125,8899963.37890625,-11280460.357666016,-10079805.374145508,1022098.183631897,2119097.948074341,1688205.4805755615,1185032.606124878,-574082.3745727539,12482778.549194336,13234250.06866455,-11406373.023986816,-843388.1998062134,-744213.6406898499,-2191086.769104004,1934866.3091659546,-548881.4115524292,10906668.663024902,12042246.81854248,11966544.151306152,3821583.2710266113,3802193.1648254395,4555250.16784668,2831279.993057251,10967517.852783203,10824902.534484863,11726900.100708008,3800388.813018799,5272695.541381836,2588297.128677368,11679759.979248047,10443710.327148438
0.04,29741205.2154541,5439867.4964904785,-26988613.12866211,29495943.069458008,7096037.864685059,50520759.58251953,49294570.92285156,45593948.36425781,32314659.118652344,22712457.65686035,14555638.313293457,-3590776.205062866,-4359986.782073975,-5572118.759155273,-11195601.463317871,51121063.232421875,30854879.37927246,22109443.66455078,21528505.325317383,11205477.714538574,-1245055.913925171,-21296663.284301758,4627614.974975586,-11647114.753723145,25319913.864135742,19209018.70727539,12815174.102783203,2233214.6167755127,157357.99074172974,-9335147.857666016,-29465223.31237793,4792682.647705078,-10835295.677185059,-8988002.77709961,779270.6489562988,2326003.313064575,1905896.4252471924,500208.85467529297,-2528877.4967193604,9369783.401489258,9919302.940368652,-10834375.381469727,-990727.1265983582,-916074.0971565247,-3620433.568954468,1952890.0384902954,-4254054.069519043,7750598.430633545,8839934.349060059,8810507.774353027,1838938.9514923096,1911060.3332519531,2903903.7227630615,1115121.1261749268,8086070.0607299805,7882457.733154297,8608256.340026855,1092198.371887207,2539033.889770508,826252.4604797363,8628042.221069336,7556779.861450195
0.045,32594848.6328125,7327201.366424561,-25505325.317382812,30779682.159423828,8782142.639160156,51653942.1081543,49416023.25439453,45978885.650634766,33428142.547607422,23543838.500976562,15022673.606872559,-4154770.3742980957,-4925847.053527832,-6108451.366424561,-11432824.13482666,54463359.83276367,32071422.576904297,22955825.805664062,21743391.036987305,11397958.755493164,-2328151.9412994385,-22644512.176513672,-163378.56650352478,-12028736.114501953,25852197.647094727,21678922.653198242,15277270.317077637,2077208.2805633545,94438.26973438263,-11340616.226196289,-31391653.060913086,15723.899006843567,-11109759.330749512,-8211907.386779785,65878.12304496765,2370880.365371704,1817284.5840454102,-1080261.8265151978,-4848304.271697998,5322244.167327881,5763721.942901611,-11046803.47442627,-1670792.3412322998,-1591184.9737167358,-3359786.033630371,1844036.8175506592,-7305143.356323242,3655193.567276001,4658896.923065186,4630432.12890625,-223964.67626094818,-85729.63625192642,235960.36434173584,-1249623.7754821777,4057720.66116333,3837425.2319335938,4457156.181335449,-975492.4178123474,457367.9566383362,-1779221.534729004,4476356.506347656,3487641.0961151123
0.05,33092994.689941406,6328015.8042907715,-27932130.813598633,30694652.557373047,8474083.90045166,52846549.98779297,49774559.020996094,46398044.58618164,32875484.466552734,22199262.619018555,13908685.684204102,-6121366.500854492,-7036199.09286499,-8313317.29888916,-11287332.534790039,56495166.77856445,31604757.30895996,21397989.27307129,20477191.925048828,9990027.42767334,-4504016.876220703,-28040258.407592773,-1201245.3079223633,-11940564.155578613,26191875.457763672,21884595.87097168,16359228.134155273,1978048.6822128296,-442364.57347869873,-13164077.758789062,-33951148.986816406,-1058965.4445648193,-10963882.446289062,-8024538.040161133,-701036.810874939,2272301.435470581,1578125.9536743164,-2296895.5039978027,-6222080.230712891,3640581.1309814453,4172284.1262817383,-10896084.785461426,-2503300.189971924,-2310460.090637207,-1808379.7693252563,1765910.267829895,-8022442.817687988,2072150.2304077148,3006966.8292999268,3019505.500793457,113880.11276721954,216591.86482429504,49707.91190862656,-1525430.0832748413,2391226.5300750732,2055963.0393981934,2742034.1968536377,-806542.8733825684,643391.3111686707,-2291924.7150421143,2819356.679916382,1823646.3069915771
0.055,30236465.454101562,1643825.2925872803,-32180587.768554688,28456651.68762207,5196159.839630127,51863979.33959961,48103645.32470703,44762813.568115234,30560951.232910156,18519601.821899414,11159238.815307617,-7911848.068237305,-9053205.490112305,-10334323.88305664,-9675739.288330078,54239963.53149414,29502006.53076172,18115779.876708984,17916006.088256836,7626480.1025390625,-6199106.693267822,-33476497.650146484,2412606.2393188477,-10299860.000610352,25626073.837280273,19910348.892211914,15023966.789245605,1942484.3788146973,-1680663.2280349731,-13718248.36730957,-33822597.50366211,2486572.504043579,-9401043.891906738,-8008133.888244629,-1401420.4740524292,2098622.0836639404,1441351.8905639648,-2298296.4515686035,-5958692.0738220215,5457544.326782227,6194509.506225586,-9315491.676330566,-3233229.637145996,-2876970.052719116,-976142.8236961365,1772177.815437317,-6671553.134918213,4147349.8344421387,5108726.024627686,5137348.651885986,1458730.3400039673,1448885.202407837,2023059.1297149658,568611.8006706238,4399610.996246338,3902451.515197754,4753836.154937744,527507.8415870667,2031555.414199829,-200899.83940124512,4851618.766784668,3854902.0290374756
0.06,26688596.725463867,-3649788.8565063477,-35890384.674072266,25268764.49584961,698998.5704421997,49854305.267333984,44863883.97216797,41649875.64086914,27827095.03173828,14260068.893432617,7810955.52444458,-8613929.748535156,-9855884.552001953,-10973064.422607422,-7785858.154296875,50614482.87963867,27758661.2701416,15253001.21307373,15414778.709411621,5216673.851013184,-6832096.576690674,-35360599.517822266,6935530.185699463,-8442625.045776367,25087219.23828125,17912130.35583496,12582706.451416016,1867097.6161956787,-3541085.720062256,-13764798.164367676,-31243352.89001465,7012899.398803711,-7595882.415771484,-7735467.910766602,-1676656.3653945923,1966454.029083252,1438469.5291519165,-1309090.1374816895,-4264128.2081604,9192135.81085205,10095494.270324707,-7472721.099853516,-3398566.961288452,-2988874.4354248047,-989381.0153007507,1815290.8086776733,-4040756.7024230957,8117949.485778809,9225426.67388916,9135164.260864258,1621301.1741638184,1537502.0503997803,3353950.5004882812,2969982.385635376,8354871.74987793,7815107.345581055,8803690.910339355,1873431.921005249,3465305.5667877197,2390925.407409668,8744401.931762695,7750030.994415283
0.065,24790729.522705078,-7402523.517608643,-39193286.89575195,22335191.72668457,-3181753.396987915,48876579.28466797,41861839.294433594,38776126.861572266,25287866.592407227,10942338.943481445,4553221.225738525,-9391965.866088867,-10472015.380859375,-11476028.442382812,-7288579.940795898,49648754.11987305,27150390.625,13364500.045776367,13548958.778381348,2718310.832977295,-7860537.052154541,-34905754.08935547,7801581.382751465,-8083546.6384887695,25085369.110107422,16794620.513916016,10670840.2633667,1675701.4989852905,-5815102.100372314,-15281732.559204102,-30061065.673828125,8013640.403747559,-7136023.044586182,-7008943.0809021,-1081883.9073181152,1880222.201347351,1335976.481437683,-522691.13063812256,-2738414.764404297,11658550.262451172,12572307.586669922,-7019229.412078857,-2631138.563156128,-2309103.488922119,4670.559894293547,1777341.9618606567,-1231430.172920227,10686842.918395996,11911066.055297852,11650859.832763672,1659840.2261734009,1610914.4687652588,3768580.198287964,4446943.759918213,10863999.366760254,10433275.22277832,11442244.529724121,3778083.086013794,5434078.216552734,3979494.333267212,11192024.230957031,10160820.960998535
0.07,22951379.776000977,-10857893.943786621,-42911605.83496094,18702917.098999023,-6849639.415740967,47478046.41723633,38723743.4387207,35687656.40258789,21833395.00427246,8093951.225280762,981208.4436416626,-11939748.764038086,-12740189.552307129,-13848005.294799805,-8137931.823730469,50001655.57861328,25883337.020874023,11056242.942810059,11504482.26928711,-180642.88794994354,-10538849.830627441,-35731681.82373047,4205099.105834961,-9034199.714660645,24137439.727783203,15187265.396118164,9199933.052062988,1449433.0883026123,-8016451.835632324,-18562664.031982422,-32375015.258789062,4611875.534057617,-7940605.640411377,-6158657.550811768,-114336.65454387665,1733454.8234939575,1021253.5858154297,-907571.7329978943,-3225754.976272583,10529380.798339844,11289796.829223633,-7933692.932128906,-1582248.8069534302,-1374826.3120651245,2531055.450439453,1587652.564048767,270300.09031295776,9615262.985229492,10767167.091369629,10465615.272521973,3606493.4730529785,3642853.7368774414,5308924.674987793,5426405.906677246,9659841.537475586,9402408.599853516,10271140.098571777,6269074.440002441,7900736.331939697,4877200.603485107,10067045.211791992,9011210.441589355
0.075,18654830.932617188,-15137446.403503418,-46209953.30810547,13291426.658630371,-11269433.02154541,43140510.55908203,34350166.32080078,31334205.627441406,17097860.33630371,4777750.015258789,-3046418.9052581787,-15854184.1506958,-16554264.068603516,-17823768.615722656,-9092689.514160156,47715541.83959961,22793281.55517578,7912650.585174561,8928926.467895508,-2709472.179412842,-13546917.915344238,-38456428.52783203,-5172.057542949915,-9924435.61553955,21558822.631835938,12543555.25970459,7486397.266387939,1382490.5157089233,-9210412.02545166,-21158885.955810547,-35637805.9387207,529280.0664901733,-8800907.135009766,-5987400.531768799,57210.441678762436,1516906.0230255127,745681.7030906677,-1967471.4803695679,-5264361.85836792,6966527.938842773,7528196.334838867,-8967427.253723145,-1458974.3614196777,-1319022.6554870605,4631378.173828125,1356316.328048706,-159344.6135520935,6107986.927032471,7118774.4140625,6878604.412078857,6121077.060699463,6211833.477020264,8024000.16784668,6190989.017486572,6061530.113220215,6010543.346405029,6630560.398101807,7471849.9183654785,9016614.91394043,5570159.435272217,6660956.859588623,5652272.2244262695
0.08,13483021.73614502,-18586025.23803711,-47783088.68408203,8105014.801025391,-15373823.165893555,38088317.87109375,30510204.315185547,27534456.253051758,13479473.114013672,1843953.6094665527,-6276205.062866211,-18605148.315429688,-19468046.188354492,-20727514.266967773,-8956226.348876953,43336494.44580078,20015344.619750977,5865923.4046936035,6971808.433532715,-3629537.82081604,-14339341.163635254,-39972038.26904297,-157702.5204896927,-9597758.293151855,19964319.229125977,11081520.080566406,6252644.5388793945,1540179.4910430908,-8792095.184326172,-20829572.677612305,-36028869.62890625,380758.1663131714,-8575062.75177002,-6484939.098358154,-384473.05560112,1371329.9036026,792170.3457832336,-2205798.387527466,-5954813.480377197,5124198.436737061,5581662.178039551,-8809742.92755127,-1971475.36277771,-1852218.747138977,4866627.6931762695,1295936.942100525,-1390549.0636825562,4159276.4854431152,5246989.727020264,4975189.208984375,6363770.484924316,6506185.054779053,9712991.714477539,6636795.997619629,4172359.4665527344,4338729.8583984375,4794933.319091797,6708043.098449707,8191908.836364746,6139617.919921875,4906143.665313721,3939826.250076294
0.085,11907800.674438477,-19353223.80065918,-47891742.70629883,6836052.894592285,-16886898.040771484,37967269.89746094,30447164.53552246,27483446.12121582,13801603.317260742,1178579.0920257568,-7229701.995849609,-18335748.67248535,-19377462.38708496,-20501293.182373047,-7088649.749755859,41972637.17651367,20544664.38293457,6639259.815216064,6744029.0451049805,-3067561.626434326,-12574810.981750488,-38056629.1809082,4295262.813568115,-7560025.691986084,21961095.809936523,12949549.674987793,6822093.486785889,1741243.2432174683,-7616810.7986450195,-18758174.896240234,-33125118.255615234,4749548.91204834,-6693612.098693848,-6066986.560821533,600212.1567726135,1394756.9131851196,1053730.7262420654,-1187458.9920043945,-3767198.085784912,7523096.561431885,7989695.5490112305,-6734012.603759766,-963789.165019989,-798365.9505844116,4705170.154571533,1465888.7386322021,-2046116.828918457,6189464.569091797,7572258.472442627,7154729.843139648,5144174.098968506,5394249.91607666,9895997.047424316,7459887.981414795,6375801.086425781,6615539.073944092,7168462.753295898,6568153.381347656,8045905.113220215,7156574.726104736,7084311.485290527,6041699.409484863
0.09,15059450.149536133,-18500223.15979004,-47812980.65185547,10059149.742126465,-15373862.266540527,43692535.400390625,33847614.28833008,30816843.032836914,17482904.4342041,3035787.82081604,-6021109.580993652,-15905266.761779785,-16884939.193725586,-17950613.021850586,-4072782.516479492,45955791.47338867,23888711.92932129,9116435.050964355,7804921.1502075195,-2418801.0692596436,-10590422.630310059,-34465656.28051758,9167711.25793457,-4501966.953277588,25445829.391479492,16599802.017211914,8667141.914367676,1771436.333656311,-7424272.060394287,-18117250.442504883,-29848165.51208496,9521963.119506836,-3788321.9718933105,-3407224.8935699463,4114915.370941162,1508074.9988555908,1176949.381828308,-355957.83591270447,-1051676.1541366577,11876276.969909668,12364418.029785156,-3450811.3861083984,2676189.422607422,2939769.744873047,6257742.881774902,1669881.9398880005,-2291694.6411132812,10128381.729125977,11656850.814819336,11202360.153198242,6024353.504180908,6359164.237976074,10378171.920776367,9349806.785583496,10467576.98059082,10506801.60522461,11330862.998962402,9181168.556213379,10648432.731628418,9102153.778076172,11068084.716796875,9875866.889953613
0.095,18515304.565429688,-18713689.80407715,-48205165.86303711,14015692.710876465,-13046075.820922852,48994022.369384766,36521308.89892578,33417251.586914062,20950098.037719727,5539235.591888428,-4151582.717895508,-13726722.717285156,-14473665.237426758,-15587646.484375,-2235715.389251709,51234436.03515625,26258434.295654297,10675044.059753418,8951385.498046875,-2249752.7599334717,-10141998.291015625,-32370094.299316406,10319275.856018066,-2744072.914123535,25629173.278808594,17994943.618774414,9487313.270568848,1633727.4312973022,-8570953.369140625,-19674430.84716797,-28535688.400268555,10625606.536865234,-2116605.281829834,53324.662148952484,7917410.373687744,1555585.8612060547,1033805.251121521,-1022407.8893661499,-813329.8754692078,14235148.429870605,14682241.439819336,-1524681.9257736206,6616216.18270874,6891765.117645264,8708925.247192383,1665040.135383606,-3063559.7705841064,12344217.300415039,13641134.262084961,13378054.61883545,9271524.429321289,9525081.634521484,11600931.167602539,11123796.463012695,12716819.763183594,12455789.566040039,13432286.262512207,12248943.328857422,13655132.293701172,10843400.955200195,13281447.410583496,12018599.510192871
0.1,17679292.678833008,-20850502.014160156,-48978752.13623047,15024943.351745605,-12265754.699707031,48198333.740234375,35787036.89575195,32771366.119384766,21861310.958862305,6986674.785614014,-2719225.6450653076,-13119827.270507812,-13755002.02178955,-14906498.908996582,-3962380.1708221436,52287094.11621094,25150949.478149414,10425754.54711914,9692477.226257324,-1585605.6213378906,-10211380.958557129,-32297241.2109375,8253867.149353027,-4555199.62310791,21499664.306640625,15163771.629333496,8000744.819641113,1492578.9833068848,-9172032.356262207,-20795686.721801758,-28663492.20275879,8591317.176818848,-3897616.8632507324,889312.2673034668,8388673.782348633,1477113.2469177246,835003.912448883,-2164336.2045288086,-2148351.9077301025,14231144.905090332,14615285.873413086,-3369729.518890381,7143638.610839844,7248853.68347168,9012930.870056152,1438893.6758041382,-4034277.91595459,12493665.69519043,13452788.352966309,13415803.909301758,10630871.772766113,10689929.962158203,11673131.942749023,10879928.588867188,12776126.861572266,12452196.12121582,13326280.59387207,11929489.135742188,13256427.764892578,10660752.296447754,13438070.297241211,12214426.99432373
0.105,13646580.696105957,-23027921.676635742,-49812473.29711914,13498506.546020508,-13193407.05871582,43344131.46972656,33663852.69165039,30964368.82019043,21229644.775390625,7466741.08505249,-1695652.2464752197,-13429135.3225708,-14209156.99005127,-15394437.789916992,-8815940.856933594,48570381.16455078,22194261.55090332,9724658.012390137,10170400.619506836,194762.15541362762,-8990914.344787598,-32238964.080810547,6771134.376525879,-9390783.309936523,17032005.310058594,10207894.325256348,5435505.8670043945,1460348.6061096191,-7472918.0335998535,-19387533.18786621,-28430591.583251953,7162040.233612061,-8639978.408813477,-2353690.8626556396,4949302.673339844,1369465.708732605,812615.7522201538,-1523728.2514572144,-1594787.359237671,14718665.12298584,15110260.963439941,-8337481.498718262,3672184.705734253,3572452.7835845947,6200360.298156738,1228253.6029815674,-3736629.7245025635,13199004.173278809,14123527.526855469,14097740.173339844,7581991.672515869,7585334.777832031,10162975.311279297,9249629.974365234,13338969.230651855,13247287.75024414,13946870.803833008,8637431.144714355,9945950.508117676,9148679.733276367,14132843.971252441,12945806.503295898
0.11,11634287.83416748,-22852830.88684082,-50018360.13793945,12405481.338500977,-14369755.744934082,40492870.33081055,33375228.881835938,31032903.67126465,21004995.346069336,7742641.448974609,-940898.8356590271,-13454485.893249512,-14483590.126037598,-15802533.149719238,-13501538.276672363,44406654.357910156,20762395.85876465,9753463.745117188,10280579.566955566,1925073.9812850952,-6862329.006195068,-31029069.900512695,7523866.653442383,-13996807.098388672,15511828.422546387,6747357.368469238,3811542.272567749,1548038.0058288574,-4552419.662475586,-17005435.943603516,-27390169.143676758,7883763.313293457,-13210641.860961914,-7058035.850524902,1112054.944038391,1400882.7209472656,978919.267654419,1161846.9953536987,1312044.620513916,16754220.962524414,17259635.92529297,-13012298.583984375,-213685.36353111267,-331826.74646377563,3135072.4697113037,1265859.1270446777,-1739152.431488037,15406234.741210938,16588766.098022461,16360809.326171875,3529872.417449951,3714363.3365631104,9810420.989990234,9224224.090576172,15454097.747802734,15594667.434692383,16255809.783935547,6645133.972167969,8050163.269042969,9091788.291931152,16256160.736083984,15071513.175964355
0.115,13774151.802062988,-20268375.396728516,-49041473.388671875,12834897.994995117,-15154739.379882812,41129455.56640625,34576782.2265625,32335144.04296875,21151315.689086914,7514882.0877075195,-1099418.8785552979,-13188460.350036621,-14368263.244628906,-15847716.331481934,-15117544.174194336,43332920.07446289,21733154.296875,9948139.190673828,9695309.63897705,1971266.0312652588,-6018788.3377075195,-29950941.08581543,7920992.374420166,-15607741.355895996,15879165.649414062,6397878.646850586,3707696.1994171143,1731992.3639297485,-3434101.5815734863,-16785379.40979004,-26804222.106933594,8141322.135925293,-14863845.825195312,-9083480.834960938,719067.8715705872,1629670.0239181519,1188916.4447784424,3392267.2271728516,2961202.383041382,18158210.75439453,18828281.40258789,-14631335.258483887,-619687.1399879456,-608985.8412742615,3152106.523513794,1530539.9894714355,523893.5947418213,17053688.049316406,18415405.2734375,17949180.603027344,3665377.378463745,4032123.565673828,12836319.923400879,12236259.460449219,17131944.65637207,17275793.075561523,17976469.039916992,8397973.06060791,9972977.638244629,11913870.811462402,17776046.752929688,16690818.786621094
0.12,15985258.102416992,-18348651.885986328,-48176647.1862793,12923687.934875488,-16652643.203735352,41273983.001708984,34223915.100097656,31782375.33569336,20279510.498046875,5867650.508880615,-2913988.5902404785,-13876251.220703125,-15073323.249816895,-16531606.674194336,-13724488.258361816,44440505.98144531,22793542.861938477,9243732.452392578,8578660.011291504,330904.93083000183,-7567478.656768799,-30885120.391845703,5276979.923248291,-14288157.46307373,15828825.950622559,7936473.846435547,4330793.380737305,1962809.9203109741,-5419884.204864502,-19478492.736816406,-27977293.014526367,5360139.3699646,-13562262.535095215,-6944443.702697754,4029347.4197387695,1910732.7461242676,1318800.687789917,2938668.4894561768,1024103.5223007202,17612340.927124023,18403167.724609375,-13373769.760131836,2680257.797241211,2733246.326446533,6194188.117980957,1788681.3879013062,1453962.802886963,16866922.37854004,18145853.04260254,17504478.454589844,8526986.122131348,8819508.55255127,17568241.119384766,16270442.962646484,17070001.60217285,17084022.521972656,17757204.055786133,12146713.256835938,13814270.973205566,15831744.194030762,17531015.396118164,16701978.68347168
0.125,13704839.706420898,-20044376.373291016,-49555503.845214844,11270222.663879395,-19463830.947875977,38541664.123535156,31407802.58178711,28797359.466552734,18284509.658813477,3266824.245452881,-5673814.296722412,-16146718.978881836,-17302762.985229492,-18566921.23413086,-11547825.813293457,44554931.640625,21849414.825439453,7935966.491699219,7705780.029296875,-1367729.1870117188,-10116219.520568848,-33720165.25268555,1223315.2389526367,-12115258.21685791,15525646.209716797,9188077.926635742,4975522.994995117,2171439.1708374023,-8442519.187927246,-22871290.20690918,-30675849.91455078,1278945.9228515625,-11322817.8024292,-2844807.1479797363,8068306.922912598,2068352.460861206,1386056.5423965454,537275.1355171204,-1927721.619606018,16966907.501220703,17789134.979248047,-11321001.052856445,6669549.465179443,6617900.371551514,9439646.72088623,1896728.6348342896,944401.3833999634,16496057.510375977,17636930.465698242,16879583.35876465,13832880.973815918,13880202.293395996,20629188.537597656,18559577.94189453,16799200.0579834,16715950.012207031,17374589.920043945,15087055.206298828,16645404.815673828,18192358.016967773,17211875.915527344,16604267.120361328
0.13,8928307.53326416,-23757276.53503418,-52238906.86035156,9617936.134338379,-21412885.665893555,36064559.93652344,29029308.319091797,26607069.01550293,16810558.319091797,1869072.3180770874,-7099172.592163086,-18361166.00036621,-19445436.477661133,-20618524.5513916,-10536950.11138916,42793621.06323242,19957027.435302734,7489571.571350098,7740868.091583252,-1711014.986038208,-11323545.455932617,-35865261.07788086,46952.69092917442,-11000501.63269043,16270849.227905273,9269582.748413086,5592430.591583252,2336537.3611450195,-9579280.853271484,-24438972.47314453,-32992713.928222656,147561.53523921967,-10124704.360961914,83467.5133228302,10179637.908935547,2127747.7741241455,1515391.7074203491,-1328253.6268234253,-2038867.712020874,17918142.318725586,18720563.888549805,-10232988.357543945,8746117.59185791,8617795.944213867,10977290.153503418,1967975.9740829468,-96270.80708742142,17447278.97644043,18611570.358276367,17826276.779174805,15721697.807312012,15658022.8805542,21157413.482666016,18538974.76196289,17722103.118896484,17553142.547607422,18386787.41455078,16005287.170410156,17348045.349121094,18265830.993652344,18205083.8470459,17547878.26538086
0.135,8178484.916687012,-24380788.803100586,-51917110.443115234,10870664.596557617,-19382772.44567871,37774608.61206055,30042905.807495117,28043880.462646484,17144344.329833984,3288450.4795074463,-5400708.6753845215,-17820196.1517334,-18786132.8125,-20126279.830932617,-10948211.669921875,41378559.11254883,19910640.716552734,8772486.686706543,8670407.29522705,-676673.6507415771,-10170599.937438965,-34505592.346191406,3216047.2869873047,-11353976.249694824,17697502.13623047,9044124.603271484,6249400.1388549805,2455591.917037964,-8270676.612854004,-23332729.33959961,-32937450.408935547,3340463.399887085,-10478421.211242676,776296.0195541382,10323886.87133789,2207377.9106140137,1711390.8529281616,-1449957.013130188,647951.3049125671,19105590.8203125,19880853.6529541,-10444559.097290039,8950225.830078125,8880573.272705078,11255853.652954102,2125531.4350128174,-1099991.9176101685,18446481.704711914,19702877.044677734,19025922.775268555,14196370.124816895,14259481.430053711,20888242.721557617,17326560.974121094,18567493.438720703,18280555.725097656,19383943.557739258,14663917.541503906,15948626.518249512,16999513.626098633,19109222.412109375,18178766.25061035
0.14,13346170.425415039,-20384019.85168457,-47094993.591308594,14987799.644470215,-13996672.630310059,42456954.95605469,33466228.485107422,31685157.775878906,18639760.971069336,6575149.059295654,-1552942.2760009766,-14282569.885253906,-15132143.9743042,-16715408.325195312,-11673604.011535645,41875907.89794922,22273590.087890625,11027511.596679688,10005289.077758789,797927.2603988647,-7720667.839050293,-29855100.631713867,7516654.014587402,-12113956.451416016,18431478.50036621,9460118.293762207,6704934.120178223,2424287.0807647705,-6263788.223266602,-20389455.795288086,-30602197.647094727,7666556.835174561,-11343668.937683105,291338.14573287964,9912832.260131836,2213891.7446136475,1709822.8931427002,-519925.71353912354,2962880.6114196777,18603355.407714844,19309589.385986328,-11063399.314880371,8617103.576660156,8661980.628967285,10993800.163269043,2192519.426345825,-2019624.7100830078,17797599.79248047,19025461.196899414,18525651.931762695,11586223.602294922,11811599.731445312,20602193.83239746,15707080.841064453,17733114.24255371,17435718.536376953,18599123.001098633,11338059.425354004,12825004.577636719,15239807.12890625,18304363.250732422,17172714.233398438
0.145,18500617.98095703,-17016561.50817871,-42871612.548828125,18521987.915039062,-10322051.048278809,45368034.36279297,35662212.37182617,33708930.96923828,19713966.369628906,9270432.472229004,1310980.4391860962,-11078942.29888916,-11913146.018981934,-13585191.72668457,-11649603.843688965,42725429.53491211,24422763.82446289,12815129.280090332,11496667.861938477,1923185.7061386108,-5985230.445861816,-25733129.501342773,8997022.62878418,-12014291.763305664,18406002.044677734,10040892.601013184,6672452.926635742,2156529.9034118652,-5044071.197509766,-17547615.05126953,-28503469.467163086,9254497.528076172,-11382863.04473877,-307351.9766330719,9478685.37902832,1945842.2660827637,1298248.052597046,652180.1352500916,3290372.371673584,17188066.482543945,17742740.631103516,-11035277.366638184,8090848.922729492,8239370.346069336,9550271.034240723,1901909.589767456,-2699899.911880493,16352575.302124023,17490049.362182617,17076999.66430664,9481062.889099121,9702494.621276855,18865253.448486328,13813632.96508789,16174957.275390625,16104743.957519531,17059707.641601562,7781111.717224121,9512915.61126709,13271089.553833008,16850566.864013672,15756262.77923584
0.15,18055425.6439209,-19181678.771972656,-44426677.70385742,18702405.92956543,-12006720.542907715,44653808.59375,35129791.259765625,32911060.333251953,19705219.268798828,10183176.040649414,1291122.0788955688,-11144082.069396973,-12081960.678100586,-13709012.985229492,-10806349.754333496,41740432.73925781,24141811.37084961,13619995.1171875,13397508.62121582,2677252.0542144775,-5983996.868133545,-25605319.97680664,7575866.69921875,-10901778.221130371,18700357.43713379,9748196.601867676,6201231.956481934,1880732.4171066284,-4520144.939422607,-16902248.38256836,-28870275.497436523,7953105.449676514,-10317959.785461426,-919236.1831665039,8510868.072509766,1567843.0795669556,793898.8208770752,2003166.4371490479,2935596.466064453,16760171.890258789,17184535.98022461,-10126944.541931152,6854823.589324951,7120267.868041992,6500359.058380127,1420589.566230774,-2785653.3527374268,15921127.319335938,17118883.13293457,16637817.3828125,8144348.14453125,8234760.284423828,15195533.752441406,12080172.538757324,15757546.424865723,15988232.612609863,16757011.413574219,6526465.892791748,8295664.7872924805,11544550.895690918,16592985.153198242,15624247.550964355
0.155,14987343.788146973,-23373332.977294922,-48488945.00732422,16932605.743408203,-16022998.809814453,43559516.90673828,34457992.55371094,32243698.120117188,19275371.551513672,10314638.137817383,8446.400985121727,-12629446.029663086,-13687776.565551758,-15258996.963500977,-9566696.166992188,39900188.44604492,22788391.11328125,14177539.825439453,15786611.557006836,3602666.6164398193,-6658957.481384277,-27969516.75415039,6623907.089233398,-9517196.655273438,19819902.420043945,8981013.298034668,5736965.656280518,2000079.870223999,-4138561.248779297,-18869695.66345215,-30747798.919677734,6947246.074676514,-8807240.48614502,-1317188.024520874,7255434.989929199,1567589.282989502,809013.6647224426,3210305.2139282227,3205578.565597534,17136316.299438477,17629745.483398438,-8761456.489562988,5424865.245819092,5772700.786590576,3545742.0349121094,1291242.5994873047,-2153922.3194122314,16293003.08227539,17680541.9921875,17092782.974243164,7947247.9820251465,7963109.016418457,12506433.486938477,11487314.224243164,16241817.474365234,16536067.962646484,17349365.234375,8262550.354003906,9909617.42401123,10966539.38293457,17089017.868041992,16124444.961547852
0.16,16569982.528686523,-21976318.359375,-46837921.142578125,16894960.403442383,-16154161.45324707,45546615.60058594,36624252.31933594,34675205.23071289,19201644.897460938,10919962.882995605,540826.7974853516,-11096639.633178711,-12198463.439941406,-13677682.876586914,-7597732.067108154,40065948.486328125,23208143.23425293,15162727.355957031,17782070.15991211,4936143.398284912,-6201119.899749756,-27978960.037231445,8715880.393981934,-7826354.026794434,21433332.443237305,9309659.004211426,5843116.760253906,2483713.6268615723,-4132984.6382141113,-21394283.294677734,-31258522.033691406,8812943.458557129,-6910769.939422607,-369449.7346878052,7314896.583557129,2021487.9512786865,1381196.6180801392,3274878.0250549316,3547607.183456421,16999853.134155273,17737630.84411621,-6812671.184539795,5605334.281921387,5878945.350646973,3196857.213973999,1676623.2252120972,-963196.5160369873,16233861.923217773,17658334.732055664,17063980.102539062,9823676.109313965,9916065.216064453,14364048.957824707,12990007.400512695,16301727.294921875,16362047.19543457,17303678.512573242,11380367.279052734,12966185.569763184,12479834.55657959,16921800.61340332,15873361.587524414
0.165,23671117.782592773,-14572655.67779541,-38168243.408203125,19930664.0625,-11094017.98248291,49805023.193359375,40878871.91772461,39187072.75390625,19599929.809570312,11870062.828063965,3581887.2451782227,-5981810.569763184,-7070290.088653564,-8354443.550109863,-4304281.234741211,42581394.19555664,25497968.673706055,16207250.595092773,18217226.028442383,6100010.871887207,-4484449.863433838,-24136344.90966797,12656723.976135254,-4990505.695343018,23138208.389282227,11018514.633178711,6748149.871826172,2715750.6942749023,-4976002.216339111,-22105388.641357422,-29870897.29309082,12619717.597961426,-4007212.6388549805,2370309.591293335,9573380.470275879,2302565.336227417,1760231.2564849854,1878602.8623580933,3043645.6203460693,16649021.14868164,17530431.747436523,-3769606.828689575,8110343.933105469,8200363.1591796875,5622619.152069092,2012572.0500946045,490306.3178062439,16033880.233764648,17224969.8638916,16702552.795410156,13624205.589294434,13857604.026794434,19925815.58227539,16540571.212768555,16172296.524047852,15948992.729187012,16888347.625732422,14374802.589416504,15999531.745910645,16076158.52355957,16537374.496459961,15486712.455749512
0.17,29480476.37939453,-8875198.364257812,-30481534.957885742,23825216.29333496,-5882465.362548828,53106719.970703125,43869758.60595703,42296741.4855957,20343130.111694336,12531262.397766113,6881308.078765869,-1842146.873474121,-2920604.944229126,-4026409.149169922,-627112.865447998,44620460.510253906,26918149.948120117,16570409.774780273,17320756.912231445,6435781.955718994,-3319240.3316497803,-20649238.58642578,14894570.350646973,-1444354.8917770386,24263399.124145508,12436456.680297852,8042009.353637695,2266338.586807251,-6237188.816070557,-21163883.209228516,-29451234.817504883,14990643.501281738,-591419.9948310852,5078693.389892578,12371778.48815918,1898749.2322921753,1387072.9207992554,243449.33032989502,1868264.4367218018,16814201.35498047,17553913.116455078,-384895.8909511566,10971879.005432129,10999876.976013184,8144550.323486328,1739250.0638961792,1424991.3692474365,16266225.814819336,17221763.610839844,16703927.993774414,16829290.39001465,17101160.049438477,23786890.029907227,20071046.829223633,16467250.82397461,16127048.49243164,16975784.301757812,16709287.643432617,18325206.756591797,19679525.37536621,16785985.946655273,15811335.563659668
0.175,29347879.40979004,-9333241.46270752,-29877529.14428711,26065456.39038086,-4784089.088439941,54429962.158203125,44217918.395996094,42731521.60644531,21405199.05090332,13072227.478027344,8349428.176879883,-2063224.3156433105,-3112906.4559936523,-4240189.552307129,954724.0138053894,44492355.34667969,25983848.571777344,16256546.020507812,16703577.041625977,6185205.459594727,-3955151.319503784,-21477756.50024414,13319057.46459961,377348.75082969666,23705070.49560547,12496725.082397461,8908921.241760254,1557428.7176132202,-6861163.139343262,-20822059.631347656,-32093437.19482422,13618647.575378418,1118642.9262161255,5187634.9449157715,13095203.399658203,1231326.2224197388,725939.8698806763,-269322.5145339966,549106.6575050354,15924939.155578613,16409049.987792969,1068780.0645828247,11573243.141174316,11737651.824951172,8417907.71484375,1128188.0140304565,659269.8097229004,15279978.75213623,16280735.01586914,15641946.792602539,16434694.290161133,16589540.481567383,22258934.020996094,20301797.86682129,15577240.943908691,15257260.3225708,16077873.229980469,17207546.23413086,18751247.40600586,19963943.481445312,15979428.2913208,14984383.583068848
0.18,26482656.478881836,-11535192.489624023,-33045089.721679688,26303606.033325195,-6505025.386810303,55221355.43823242,43661113.73901367,42327358.24584961,22122482.299804688,13483747.482299805,7919648.170471191,-4656428.337097168,-5595939.636230469,-6891748.428344727,-631548.1662750244,43852519.98901367,24263694.763183594,15624772.071838379,16875701.904296875,5860965.251922607,-5657720.565795898,-25073209.762573242,9289686.20300293,-1031015.7537460327,21268978.118896484,12360321.044921875,8772113.800048828,1346333.5037231445,-6657771.587371826,-22370143.89038086,-36003814.697265625,9553983.688354492,-201664.7309064865,2655319.2138671875,11566423.416137695,1135161.280632019,632882.2374343872,48672.955483198166,-844358.1461906433,12109582.901000977,12519086.837768555,-478980.06439208984,10011152.267456055,10297912.59765625,7291901.111602783,932808.8164329529,-1883364.3198013306,11349917.4118042,12550655.364990234,11804945.945739746,12610518.455505371,12653684.616088867,18332469.940185547,16286113.739013672,11705800.05645752,11414124.488830566,12259787.559509277,14438057.899475098,16037073.135375977,15970367.431640625,12078550.338745117,10928770.065307617
0.185,25864053.72619629,-10667037.010192871,-34241001.12915039,25246990.203857422,-7895575.046539307,55907180.78613281,43624382.01904297,42425441.74194336,21044780.731201172,12433295.249938965,6257672.7867126465,-6207911.491394043,-6998741.626739502,-8370414.733886719,-3065625.9059906006,44407829.28466797,23493066.787719727,14430026.054382324,16060260.772705078,5022435.665130615,-7257726.669311523,-27464429.85534668,5961000.442504883,-3559415.340423584,18646554.946899414,13174076.080322266,7818395.137786865,1708924.7703552246,-6700317.3828125,-24739898.681640625,-38069892.88330078,5979502.201080322,-2598125.93460083,311890.30408859253,10487286.567687988,1672620.5348968506,1142343.9979553223,-217293.76912117004,-2006394.386291504,7471240.997314453,8006862.640380859,-2803099.3938446045,9095537.185668945,9311367.03491211,7573426.723480225,1330546.259880066,-4131943.702697754,6754213.809967041,7969622.611999512,7301737.308502197,9197491.645812988,9331268.310546875,17877782.821655273,11734517.097473145,7043711.6622924805,6749741.554260254,7592566.967010498,9919943.809509277,11772571.563720703,11424407.005310059,7263615.608215332,6030230.522155762
0.19,27163295.74584961,-9180630.683898926,-34037124.63378906,23299753.189086914,-8691681.861877441,55217430.114746094,43392108.91723633,42133209.228515625,17866825.103759766,9297344.207763672,3846508.9797973633,-6708878.517150879,-7462354.1831970215,-8722390.174865723,-3266379.3563842773,45158439.63623047,23300125.122070312,12583710.670471191,13105560.302734375,3156610.2504730225,-8496768.951416016,-27798629.760742188,5362809.658050537,-3861404.4189453125,17867464.065551758,13701410.293579102,7013028.621673584,2041057.1098327637,-7715925.216674805,-26129199.981689453,-37838794.70825195,5251301.288604736,-2969483.1371307373,349528.81932258606,11933166.50390625,2071114.5401000977,1499120.3546524048,-1479923.8443374634,-2024457.6930999756,6556124.210357666,7194296.360015869,-2852674.961090088,10697124.481201172,10768162.727355957,10180480.003356934,1745894.6704864502,-3830348.253250122,5971146.106719971,7004917.621612549,6552300.930023193,9430103.302001953,9793402.671813965,21642644.88220215,11392359.733581543,6151433.944702148,5860112.66708374,6717452.526092529,8076125.144958496,10144204.139709473,11063154.220581055,6318861.484527588,5224840.16418457
0.195,27492290.496826172,-10933760.643005371,-35823989.86816406,21677934.646606445,-9704843.521118164,53529060.36376953,42783134.46044922,41206153.869628906,15189894.676208496,6930576.801300049,2278085.708618164,-7381702.899932861,-8280458.450317383,-9383394.241333008,-1289571.762084961,45021121.978759766,23149898.529052734,11652872.085571289,10529620.170593262,1834820.7473754883,-8819904.327392578,-27379722.595214844,7410063.743591309,-1790248.2748031616,19138906.478881836,12137275.695800781,7467964.649200439,2008004.4269561768,-8623540.878295898,-25837541.580200195,-36854743.95751953,7440284.252166748,-1084804.0580749512,1736682.1765899658,14441514.96887207,1852777.361869812,1316498.875617981,-2538550.1384735107,-742247.462272644,9766606.330871582,10367648.124694824,-708316.8625831604,13177203.178405762,13243239.402770996,12466089.248657227,1751965.880393982,-1796616.4350509644,9166790.962219238,10172900.199890137,9828436.851501465,11796344.757080078,12238565.444946289,24061277.389526367,14709954.261779785,9357609.748840332,9114964.485168457,10055113.792419434,10602124.214172363,12583615.30303955,14315276.145935059,9663847.923278809,8799522.399902344
0.2,27428855.895996094,-13065656.661987305,-37904617.30957031,22742563.247680664,-9490204.811096191,53774406.43310547,43744892.12036133,41768989.56298828,16318674.087524414,9288919.448852539,3919482.2311401367,-6716279.029846191,-7826109.409332275,-8854420.66192627,202717.46814250946,45789840.69824219,24259000.778198242,13612404.823303223,11912730.21697998,3698701.1432647705,-6878384.590148926,-25731134.41467285,11051481.246948242,-200806.09619617462,21101242.065429688,9236843.10913086,9270361.90032959,1930439.3529891968,-7694679.737091064,-24350807.189941406,-35469429.01611328,11285409.927368164,481604.8741340637,2116687.536239624,14784771.919250488,1427281.8565368652,1046166.8968200684,-2249677.4196624756,489035.2785587311,12277075.76751709,12798320.770263672,885534.1076850891,13402694.702148438,13597382.545471191,11112307.54852295,1607501.6260147095,-1311560.6307983398,11460733.413696289,12734830.856323242,12262056.350708008,11981107.711791992,12239848.136901855,20870635.986328125,16144760.131835938,11731159.210205078,11630833.625793457,12594859.12322998,13390708.923339844,15049843.788146973,15658955.574035645,12204489.707946777,11437486.64855957
0.205,29343021.392822266,-10776553.1539917,-36256160.736083984,26772102.35595703,-6983702.182769775,57015781.40258789,46805480.95703125,44664939.880371094,20565656.661987305,15296436.309814453,8195674.896240234,-3238101.2439727783,-4453786.373138428,-5453170.7763671875,97866.21481180191,49208450.31738281,27205738.067626953,17365522.384643555,16180170.059204102,8106447.219848633,-3282919.16847229,-22265527.725219727,15135595.321655273,-366640.8360004425,22636880.87463379,7338367.938995361,10756747.245788574,2100346.088409424,-5265326.023101807,-22840667.724609375,-33084808.349609375,15390346.52709961,441731.2741279602,1269194.3645477295,12346863.746643066,1357511.8780136108,1154717.6837921143,-1000286.5791320801,522268.6529159546,11250144.958496094,11729462.623596191,801762.2232437134,10916429.51965332,11202114.10522461,6637134.075164795,1684928.7748336792,-3286266.565322876,10253906.25,11752264.022827148,11084837.913513184,9043939.590454102,9094634.056091309,15341256.141662598,13179305.076599121,10437699.317932129,10586930.274963379,11388882.637023926,12192386.627197266,13634329.795837402,12661540.031433105,10972417.831420898,10160448.07434082
0.21,31767885.208129883,-6786914.825439453,-32706600.189208984,29783565.521240234,-5461744.30847168,59498714.447021484,48287181.85424805,46361392.974853516,22835807.80029297,18297025.680541992,10346824.645996094,-278858.2444190979,-1459685.206413269,-2415819.4065093994,91620.00566720963,52661075.592041016,29328874.588012695,18670001.983642578,17716554.641723633,10190670.96710205,-1927503.4666061401,-20205110.549926758,17898054.122924805,-383109.7185611725,23296983.71887207,6781876.087188721,9757617.950439453,2247084.856033325,-4040743.350982666,-22789020.538330078,-30883899.688720703,18027452.46887207,407956.15315437317,998534.7390174866,10162250.518798828,1542115.0922775269,1426031.8279266357,-47396.25379443169,-22999.627515673637,9961547.8515625,10387921.333312988,854003.0717849731,8746504.783630371,8996607.780456543,3682765.9606933594,1838864.6841049194,-4293686.389923096,9037170.41015625,10373178.482055664,9711389.541625977,7185023.307800293,7222715.377807617,14190151.21459961,10440651.893615723,8954610.824584961,9334806.442260742,9931077.003479004,9189731.59790039,10743924.140930176,10038873.672485352,9506588.93585205,8664401.054382324
0.215,30922996.520996094,-7858218.193054199,-32882987.97607422,27695518.493652344,-9049402.236938477,57022609.71069336,44792518.615722656,43222972.86987305,19722488.403320312,14242154.121398926,6951416.492462158,-2574767.1127319336,-3673566.5798187256,-4600754.261016846,1258659.0051651,51687656.40258789,27598245.62072754,15351405.143737793,13770013.809204102,6754606.246948242,-5502332.68737793,-23309970.85571289,17167331.69555664,996797.8000640869,22456724.166870117,5825858.116149902,6267709.255218506,2022397.518157959,-5777544.975280762,-24859580.993652344,-31220663.07067871,17210294.723510742,1596310.019493103,1947377.324104309,10939783.096313477,1522184.4911575317,1416062.1166229248,93443.78113746643,-161048.12920093536,11674353.59954834,12017793.655395508,2174416.5420532227,9536135.67352295,9667900.085449219,5687947.750091553,1727032.4230194092,-1502020.7166671753,10947555.541992188,11896623.611450195,11484090.805053711,9799528.121948242,9889937.400817871,18578067.779541016,12634025.573730469,10765982.627868652,11136490.821838379,11728632.926940918,9612510.681152344,11467577.934265137,12467897.415161133,11339957.237243652,10540493.965148926
0.22,27533885.955810547,-13126082.420349121,-36365882.873535156,22308837.890625,-15837867.736816406,51114143.37158203,39429664.611816406,37965267.181396484,14569100.379943848,8011002.540588379,1450648.4270095825,-8460117.34008789,-9507377.624511719,-10434084.89227295,1776338.1004333496,46803150.17700195,23529582.977294922,11025466.918945312,8916837.692260742,1472844.7198867798,-10720479.011535645,-28920387.268066406,12549539.566040039,1681449.6517181396,19863197.326660156,4267259.120941162,3280584.8121643066,1646256.3276290894,-8543398.8571167,-27653903.96118164,-33984958.64868164,12588378.90625,2251705.8849334717,2445780.9925079346,13327643.394470215,1259742.7368164062,1179610.3715896606,-61254.531145095825,-635448.4558105469,13234291.076660156,13546233.177185059,2786916.0175323486,11954928.398132324,11963316.917419434,10200611.114501953,1443426.8474578857,2255549.669265747,12503489.49432373,13270568.84765625,13161767.959594727,13805902.481079102,13804809.5703125,22374176.025390625,16360092.163085938,12632969.856262207,12692744.255065918,13444858.55102539,12853034.973144531,14844902.992248535,16347595.21484375,13119759.559631348,12353878.021240234
0.225,27093261.71875,-14122869.491577148,-36416770.935058594,19998304.36706543,-19161848.068237305,47760421.75292969,39190372.467041016,37484687.80517578,13881917.953491211,7850428.104400635,599731.5645217896,-10899609.565734863,-11927330.97076416,-12832962.989807129,-56328.32646369934,43885208.12988281,22074913.024902344,11125820.15991211,9451410.293579102,921691.7157173157,-11553965.56854248,-29895633.697509766,7160842.418670654,-344344.22850608826,17174777.98461914,4399440.765380859,3826351.4041900635,1630021.9297409058,-8716486.930847168,-28562358.856201172,-36046493.53027344,7184067.249298096,488595.75390815735,1256000.8764266968,13674674.987792969,1144692.8977966309,1126966.953277588,-25854.740291833878,-2739879.846572876,9849251.747131348,10212883.949279785,821266.1743164062,12343819.618225098,12310083.389282227,11487794.876098633,1386528.0151367188,1640481.1143875122,8823408.126831055,9712696.075439453,9784075.736999512,13118857.383728027,13003294.944763184,20012767.791748047,14294510.841369629,9400156.021118164,9096417.427062988,9899991.035461426,12608616.828918457,14387800.216674805,14154624.938964844,9625530.242919922,8861081.12335205
0.23,32047401.428222656,-7801318.168640137,-30702535.62927246,23768138.885498047,-16346672.058105469,49982482.91015625,45632488.25073242,43623851.77612305,19178833.0078125,14669340.133666992,5729078.769683838,-7100440.502166748,-8121513.366699219,-8995152.473449707,-2258366.346359253,46523746.490478516,25220602.03552246,16018966.674804688,15240224.838256836,6096833.229064941,-6992582.79800415,-24407377.243041992,5663000.583648682,-2893074.5124816895,17301347.732543945,7350943.565368652,7309206.485748291,2021189.2127990723,-5441478.252410889,-26445970.53527832,-35045127.868652344,5628119.468688965,-1868122.1008300781,-139580.45840263367,11074875.831604004,1355977.177619934,1387000.7991790771,63271.64173126221,-5374689.57901001,3957040.786743164,4382597.923278809,-1654525.1607894897,9674058.91418457,9752679.824829102,7773633.95690918,1633399.8441696167,-3617683.4106445312,2641824.245452881,3669645.7862854004,3755408.28704834,7362397.67074585,7365854.263305664,13580626.487731934,6562771.797180176,3324397.8023529053,2930866.479873657,3594616.413116455,7012706.279754639,8417811.393737793,6112838.268280029,3298551.7978668213,2596200.942993164
0.235,37350307.46459961,-2222796.4401245117,-25998611.450195312,28944519.04296875,-12429574.012756348,53921581.26831055,51889297.48535156,49794525.146484375,24784429.5501709,20689001.083374023,10768449.783325195,-2411103.4870147705,-3418716.1922454834,-4350336.55166626,-1676620.8410263062,50886745.45288086,29177742.00439453,20484090.80505371,20181377.410888672,11134894.371032715,-2380939.483642578,-18786212.921142578,9452977.180480957,-2349153.757095337,20795774.459838867,10528258.323669434,9806984.901428223,2342880.0106048584,-1771782.9942703247,-23049064.63623047,-32091358.184814453,9394495.010375977,-1511668.5628890991,295719.86198425293,8518673.89678955,1626129.5080184937,1694169.6405410767,-38912.16963529587,-5765741.348266602,2970992.8035736084,3450941.801071167,-1233055.7107925415,6906013.011932373,7201179.504394531,3426424.980163574,1865114.2120361328,-7941196.441650391,1700836.0624313354,2690387.010574341,2646847.96333313,3114806.4136505127,3371737.003326416,10051029.205322266,1806543.469429016,2081919.1932678223,1924318.4328079224,2479001.760482788,2768402.576446533,4005040.168762207,1238197.3266601562,2060843.4677124023,1499391.6749954224
0.24,36056816.10107422,-5880129.814147949,-29089893.341064453,28366062.16430664,-13709272.384643555,53137432.09838867,50865962.982177734,48901405.334472656,24345067.977905273,19124206.54296875,9701027.870178223,-2816615.104675293,-3759944.200515747,-4843828.201293945,418806.94031715393,50325561.5234375,28992982.864379883,20042158.126831055,19909183.502197266,10867550.84991455,-2494472.2652435303,-18723592.75817871,14438982.963562012,26077.058166265488,23797183.990478516,10296380.043029785,8198263.168334961,2274119.8539733887,-1089137.5541687012,-21345922.470092773,-30075094.22302246,14448706.62689209,558364.8085594177,1456007.3614120483,8330029.487609863,1674723.3867645264,1818890.2139663696,-220771.56603336334,-3719685.0776672363,8098628.997802734,8705000.877380371,916951.596736908,6588365.55480957,7012967.586517334,2854406.3568115234,1896243.4530258179,-7300278.663635254,7168725.967407227,8080318.450927734,7818204.879760742,4891550.540924072,5186543.941497803,12469113.34991455,5237163.066864014,7225440.502166748,7371350.288391113,8013586.044311523,5595358.371734619,6998172.283172607,4934591.770172119,7460369.58694458,6958538.53225708
0.245,27491222.381591797,-16723352.432250977,-38144149.78027344,20619480.13305664,-20504981.994628906,45754314.42260742,43785892.486572266,42040531.158447266,17802825.927734375,11794957.160949707,3224575.996398926,-7724403.858184814,-8532157.897949219,-9701617.240905762,-955098.569393158,43522148.13232422,24234071.731567383,15603906.631469727,15995543.479919434,6543957.233428955,-6426959.037780762,-22438497.54333496,14847887.03918457,-1185314.416885376,21608892.4407959,6143277.168273926,3294523.7159729004,2017515.6593322754,-3556553.602218628,-22781841.278076172,-30743949.89013672,14996476.173400879,-630618.2146072388,72494.66329813004,8857225.41809082,1546213.0308151245,1772531.7478179932,-375166.3565635681,-2717353.582382202,11832501.411437988,12623654.36553955,-314063.57884407043,7278460.502624512,7624270.915985107,4874290.943145752,1877893.8055038452,-3968045.949935913,11204939.842224121,12175338.745117188,11733537.673950195,8764792.442321777,8849402.42767334,16579576.49230957,11228882.789611816,11225051.879882812,11475601.196289062,12278039.932250977,11291611.671447754,12939217.567443848,11270318.031311035,11732365.608215332,11053289.413452148
0.25,18309167.861938477,-25775672.912597656,-46480010.986328125,11879038.81072998,-27874134.063720703,37240650.17700195,38361843.10913086,36826793.6706543,11031341.552734375,5837168.216705322,-3132539.2723083496,-12770758.628845215,-13458932.876586914,-14573022.842407227,-6838544.845581055,36254627.2277832,19148153.30505371,11459399.223327637,12570382.118225098,2841250.6580352783,-10456009.864807129,-25345371.24633789,9038025.856018066,-7207726.955413818,14982992.172241211,1043160.080909729,-1200187.9215240479,1884150.2666473389,-6716450.214385986,-26300432.205200195,-34027935.02807617,9342176.43737793,-6353599.548339844,-4041864.3951416016,7713505.744934082,1408835.8879089355,1606151.819229126,-821579.8139572144,-5328308.10546875,8641897.201538086,9498351.097106934,-6105066.299438477,6432348.728179932,6604001.045227051,5517434.120178223,1904717.8030014038,-2393795.4902648926,8078692.436218262,9179570.198059082,8730214.11895752,8391833.305358887,8367971.420288086,16882785.79711914,11518779.754638672,8278591.156005859,8419478.416442871,9263911.247253418,11696204.18548584,13353835.105895996,11531586.647033691,8896938.32397461,7865414.619445801
0.255,16631013.870239258,-27593187.33215332,-50740928.649902344,10134367.942810059,-31126653.67126465,36441894.53125,40204437.255859375,38694843.29223633,9691670.417785645,5626878.73840332,-5194662.094116211,-16317520.141601562,-17034496.307373047,-18150686.264038086,-10892087.936401367,35537651.06201172,18377431.869506836,10738574.028015137,11738394.737243652,1930624.24659729,-13053106.307983398,-27378955.841064453,295670.86696624756,-11392722.129821777,10963087.08190918,-1514637.3510360718,-2160165.309906006,1800973.653793335,-8615702.629089355,-29755453.10974121,-38966579.43725586,713491.9762611389,-10406197.547912598,-6295267.105102539,6320048.809051514,1243057.7278137207,1279271.960258484,-1969103.455543518,-9675178.527832031,2254488.229751587,2950507.879257202,-10147533.416748047,5102356.910705566,5200924.873352051,4267870.903015137,1770251.0356903076,-3466379.6424865723,1663867.1159744263,2777500.3910064697,2469364.881515503,4355355.262756348,4497322.559356689,13619277.000427246,6365084.648132324,2018803.1196594238,2010869.9798583984,2788682.699203491,6358973.503112793,7809370.517730713,5982708.930969238,2604371.3092803955,1284294.0092086792
0.26,25297592.163085938,-23328090.66772461,-51703880.310058594,17910022.735595703,-29138818.740844727,47562057.49511719,48167591.0949707,46268215.17944336,14172389.98413086,9839109.420776367,-3019859.3139648438,-19733863.830566406,-20630157.470703125,-22013784.408569336,-6959528.923034668,42961761.474609375,23078792.572021484,13520074.844360352,13003000.259399414,2512452.1255493164,-15059370.040893555,-31516006.469726562,-7757890.224456787,-7339259.147644043,15422995.567321777,-136641.9643163681,495405.5845737457,1481364.8462295532,-9349574.089050293,-31953058.24279785,-44341201.78222656,-7317083.835601807,-6538869.857788086,-2971636.5337371826,7903409.957885742,916405.1413536072,803212.8214836121,-3634599.208831787,-12380241.394042969,-1282773.6139297485,-832841.2771224976,-6304468.631744385,6428246.021270752,6601063.251495361,3941330.4328918457,1314846.2772369385,-5062531.471252441,-1742643.4755325317,-807593.584060669,-988150.0601768494,2541385.8890533447,2877372.7416992188,11462315.559387207,2421558.141708374,-1399462.4614715576,-1462722.3014831543,-721748.3520507812,1965426.0873794556,3284756.4220428467,1724256.3962936401,-880187.98828125,-2242655.9925079346
0.265,38893512.72583008,-16987977.981567383,-50648628.23486328,29731302.26135254,-24321739.196777344,64560569.763183594,56762279.51049805,54131980.895996094,19818763.732910156,14553543.090820312,566522.6578712463,-23397895.81298828,-24464792.251586914,-26241773.60534668,2007260.3225708008,53058685.302734375,29961997.985839844,17613000.869750977,14860552.787780762,2945762.3958587646,-16941106.79626465,-37560916.900634766,-14351313.591003418,1788458.3473205566,25400848.388671875,3643557.548522949,3990200.0427246094,963467.001914978,-9925177.574157715,-33296463.012695312,-49062011.71875,-13954420.08972168,2404957.7713012695,3011380.434036255,11579159.7366333,476926.14793777466,357906.90779685974,-4966808.319091797,-13230173.110961914,-2585369.110107422,-2260870.4566955566,2438796.7586517334,9837755.20324707,10136857.032775879,5148253.917694092,791559.7558021545,-5838970.184326172,-2733110.6662750244,-2083357.810974121,-2241101.7417907715,4331870.079040527,4669021.6064453125,12171433.448791504,2166447.162628174,-2580345.869064331,-2636742.8302764893,-1844832.181930542,1413359.6420288086,2850282.907485962,1517085.7906341553,-2077183.2466125488,-3279377.9373168945
0.27,47552177.42919922,-12559601.783752441,-48614746.09375,36823177.337646484,-20518115.997314453,75146469.11621094,61097850.79956055,57887519.83642578,21720352.172851562,17231868.743896484,2866940.73677063,-25657012.939453125,-26755195.61767578,-28706302.642822266,6890293.121337891,58056579.58984375,33907718.658447266,20437290.19165039,16003059.387207031,3188842.296600342,-17971181.869506836,-41703842.16308594,-19621307.373046875,6588008.403778076,31610315.322875977,6488484.859466553,5364877.223968506,684389.054775238,-10506875.991821289,-34507076.263427734,-52441284.1796875,-19248767.852783203,7277349.948883057,5123026.371002197,12445127.487182617,191683.00926685333,166990.33975601196,-5141129.493713379,-14360249.519348145,-5769002.437591553,-5418627.738952637,7044596.195220947,10726729.393005371,11116786.95678711,5005518.913269043,624785.4232788086,-5934682.369232178,-5621700.763702393,-5206668.853759766,-5392458.915710449,4374448.776245117,4637976.64642334,12037889.48059082,1510765.0756835938,-5744608.8790893555,-5835610.389709473,-4953043.460845947,300683.6771965027,1968320.0120925903,1083494.782447815,-5186366.081237793,-6232251.167297363
0.275,46387435.91308594,-12257271.766662598,-46902317.04711914,35562492.37060547,-19400802.612304688,72851921.08154297,60157966.61376953,56903511.04736328,19609382.62939453,18339441.299438477,3637988.328933716,-25108907.69958496,-26145366.668701172,-27985424.041748047,3945745.9449768066,55175556.18286133,32828842.163085938,21311763.763427734,16450233.459472656,4215538.97857666,-17256244.659423828,-41588470.458984375,-22350902.557373047,3435009.9563598633,29227109.909057617,6278652.667999268,4594099.521636963,921450.7341384888,-10127532.005310059,-35176155.09033203,-53972068.786621094,-21971529.006958008,4272781.848907471,1666965.0077819824,8591606.140136719,237755.53703308105,278964.2810821533,-4130341.053009033,-16084283.828735352,-10144163.131713867,-9718471.52709961,3957368.1354522705,7137455.463409424,7519428.730010986,2160799.026489258,869604.4087409973,-5570038.795471191,-9874961.853027344,-9506834.983825684,-9726275.444030762,-587314.784526825,-332208.3353996277,7813708.782196045,-2382233.142852783,-10170992.851257324,-10361747.741699219,-9410989.761352539,-4605162.620544434,-2829181.432723999,-2706057.31010437,-9547962.188720703,-10573586.463928223
0.28,41233581.54296875,-13940006.256103516,-45052024.841308594,30998884.201049805,-18478548.049926758,63907768.24951172,56997253.41796875,54039573.669433594,17605003.356933594,20157655.715942383,5061783.313751221,-21989446.64001465,-22993000.030517578,-24739208.221435547,-1044774.4131088257,49236896.51489258,29929939.27001953,22163009.643554688,17830217.361450195,6730599.403381348,-14521330.833435059,-38899055.48095703,-21847356.79626465,-1560763.955116272,23431297.302246094,4606691.360473633,4649099.826812744,1349361.538887024,-8064420.700073242,-34460311.88964844,-53319454.193115234,-21531473.15979004,-814005.6133270264,-2179130.792617798,4407915.5921936035,460420.6383228302,501758.6946487427,-2823546.886444092,-16644357.681274414,-11429666.519165039,-10945707.321166992,-967986.524105072,3218223.810195923,3424855.2322387695,-487850.21901130676,1129783.6303710938,-5286226.749420166,-11185279.846191406,-10674695.96862793,-10986308.097839355,-6070068.836212158,-5875080.108642578,2422379.970550537,-6664667.60635376,-11434638.977050781,-11699521.0647583,-10749318.12286377,-9801815.032958984,-8107598.304748535,-7013130.187988281,-10851046.562194824,-11895507.8125
0.285,41837947.845458984,-12451322.555541992,-40726318.359375,30306467.056274414,-14674050.331115723,59482894.89746094,55482631.68334961,52723640.44189453,18459392.547607422,23457038.87939453,8382161.1404418945,-17912681.579589844,-18934167.861938477,-20801898.956298828,-1341940.16456604,46930633.544921875,29602334.97619629,24595808.029174805,20935520.17211914,10041849.136352539,-10746356.964111328,-36731586.45629883,-20225147.247314453,-1641298.532485962,22214899.06311035,4976951.599121094,7517235.279083252,1381801.8436431885,-5253126.14440918,-33007236.48071289,-51110519.40917969,-20079883.575439453,-1225125.9088516235,-1723676.085472107,4575867.176055908,525857.9850196838,570516.4670944214,-2218550.205230713,-15693819.046020508,-9428427.696228027,-8932382.583618164,-1144513.0109786987,3536210.536956787,3430649.2805480957,-99125.1990199089,1042547.1067428589,-6212963.104248047,-9237959.861755371,-8585242.27142334,-9059742.92755127,-6343789.100646973,-6342267.990112305,1516273.1409072876,-7778610.2294921875,-9363838.195800781,-9585474.014282227,-8721529.960632324,-10812658.309936523,-9267163.276672363,-8145399.09362793,-8957296.371459961,-9869945.526123047
0.29,48875102.99682617,-7099893.569946289,-34692565.91796875,33463642.120361328,-9960992.813110352,62459186.55395508,56008056.640625,53304882.04956055,19502172.470092773,25499460.220336914,10974220.275878906,-15408195.495605469,-16434017.181396484,-18423706.0546875,2176515.3408050537,48989311.21826172,31513105.392456055,26643661.499023438,23341318.130493164,11894282.341003418,-8447495.460510254,-36511436.462402344,-19834333.419799805,1998073.935508728,26155937.19482422,7874536.514282227,10930868.148803711,925410.2110862732,-3772508.6212158203,-32763370.513916016,-49180545.806884766,-19813209.533691406,2141718.864440918,996137.7382278442,7529926.776885986,315617.4123287201,428020.6263065338,-2310450.315475464,-14929645.538330078,-8090319.633483887,-7670460.7009887695,2382295.3701019287,6567789.077758789,6223883.628845215,1707597.6133346558,707522.8691101074,-8017622.947692871,-7898166.179656982,-7297822.47543335,-7877360.3439331055,-2736616.373062134,-2838366.746902466,5279635.429382324,-6511751.651763916,-8076169.967651367,-8153208.7326049805,-7394407.749176025,-8734286.308288574,-7243168.354034424,-6892971.515655518,-7847069.263458252,-8483960.151672363
0.295,52217380.52368164,-5078293.323516846,-32970241.54663086,33718982.6965332,-10111862.182617188,66076553.34472656,55399726.86767578,52893402.099609375,16502208.709716797,23085838.317871094,9072454.452514648,-16458929.061889648,-17463195.80078125,-19294315.338134766,4006292.8199768066,50245536.80419922,31366600.036621094,24902742.385864258,21990003.58581543,10604826.927185059,-9732276.916503906,-37648551.94091797,-19377906.799316406,3657257.080078125,28860809.326171875,9470271.110534668,10902278.900146484,550534.4271659851,-4456812.858581543,-34325214.38598633,-48959430.69458008,-19274063.110351562,3828547.0008850098,872481.4653396606,8176627.159118652,82995.96607685089,309035.62903404236,-1962009.6683502197,-14917300.2243042,-8193535.804748535,-7912300.109863281,4146158.6952209473,7233836.650848389,6930591.583251953,1340005.1593780518,547720.5514907837,-8094203.948974609,-7922205.448150635,-7504875.183105469,-8014544.486999512,-1016404.8671722412,-924795.6275939941,7644552.230834961,-5489425.6591796875,-8322968.482971191,-8252186.7752075195,-7508833.885192871,-7140976.905822754,-5562877.655029297,-5939927.101135254,-8097850.799560547,-8564529.418945312
0.3,44547439.57519531,-12792440.414428711,-39781124.114990234,27646310.806274414,-16729383.46862793,64862266.540527344,51843582.15332031,49688785.552978516,10399339.67590332,17464115.142822266,3349764.823913574,-20255609.5123291,-21262374.877929688,-22773330.688476562,2399960.0410461426,47333263.3972168,27695568.084716797,19994136.810302734,18082771.30126953,7539026.260375977,-13473877.906799316,-38842273.7121582,-16152370.45288086,1765552.5207519531,26521732.330322266,6720059.871673584,7260448.455810547,777405.3812026978,-5763751.983642578,-36049964.904785156,-50018413.54370117,-15838540.077209473,2225507.4977874756,-2658298.4924316406,5415941.23840332,154633.95416736603,449967.02671051025,-329047.6202964783,-14208678.245544434,-6206039.4287109375,-5984120.3689575195,2549724.340438843,4386184.6923828125,4344526.767730713,-1416735.5298995972,792594.9692726135,-5038805.00793457,-5808637.1421813965,-5457205.772399902,-5788756.370544434,-2722763.5383605957,-2331382.989883423,4779563.426971436,-4696845.054626465,-6320968.151092529,-6175465.106964111,-5363059.043884277,-6003776.073455811,-4331841.945648193,-5187041.282653809,-5945434.5703125,-6518167.018890381
0.305,31881643.295288086,-25866683.959960938,-50632259.368896484,20394922.256469727,-24266763.68713379,61134052.27661133,47948055.267333984,45949409.48486328,6607132.434844971,13420760.154724121,-1389460.4444503784,-23787023.544311523,-24824420.928955078,-26220102.310180664,496460.28876304626,42862190.24658203,24305908.203125,16654811.85913086,16109169.006347656,5713902.473449707,-16312726.974487305,-39625831.604003906,-11621361.73248291,-234621.40560150146,22462516.78466797,1856514.4538879395,4100467.2050476074,1385524.9881744385,-6002745.628356934,-36874130.24902344,-51228839.87426758,-11190434.455871582,516366.183757782,-5274460.792541504,3114451.6468048096,523209.6314430237,733067.512512207,1749436.9745254517,-12358387.94708252,-1317016.4823532104,-984392.8813934326,762605.4883003235,1918402.6718139648,2096940.279006958,-3336599.588394165,1196528.7923812866,-1294032.4544906616,-824293.9114570618,-348928.302526474,-557905.375957489,-3887685.0605010986,-3421705.484390259,860486.2093925476,-2499285.2210998535,-1180597.424507141,-1041800.9757995605,-222054.79443073273,-3126764.5359039307,-1547180.5334091187,-2897663.5932922363,-702656.7459106445,-1503343.8205718994
0.31,26077201.84326172,-33175407.40966797,-56697566.986083984,18648397.44567871,-26954793.93005371,59301399.23095703,47167274.475097656,44968734.74121094,7486999.034881592,12941920.280456543,-2654688.596725464,-25365169.525146484,-26405115.127563477,-27955495.834350586,319236.01031303406,40895183.56323242,24514276.5045166,17286535.263061523,17343503.952026367,5651963.710784912,-16927087.783813477,-40600479.12597656,-10620857.238769531,-255906.8202972412,21122581.481933594,-480472.71370887756,4198858.261108398,1674847.0067977905,-5903726.100921631,-38183547.97363281,-52373840.33203125,-10230165.481567383,559306.1447143555,-4417388.439178467,3848026.752471924,839840.3525352478,794489.324092865,2552299.976348877,-11056694.984436035,2183078.0506134033,2691916.2273406982,697964.072227478,2541276.454925537,2743041.515350342,-2551927.8049468994,1311944.1270828247,234553.66492271423,2681562.662124634,3266924.6196746826,3065600.3952026367,-1992259.0255737305,-1678118.4673309326,2209051.1322021484,559443.7718391418,2567072.868347168,2650174.617767334,3318663.5971069336,411599.5168685913,1724200.2487182617,268110.1858615875,2969191.312789917,2092343.3303833008
0.315,29699758.529663086,-30547534.942626953,-55221820.83129883,21855733.87145996,-25593374.252319336,59268531.799316406,48908088.68408203,46444820.404052734,9290802.001953125,12858198.165893555,-3075352.430343628,-26095829.010009766,-27093223.571777344,-28739356.994628906,327978.55138778687,41554805.755615234,26337480.545043945,18658626.556396484,17818418.502807617,4777419.090270996,-17279243.46923828,-41943252.56347656,-14000307.083129883,-50682.6713681221,21880088.806152344,678814.5899772644,5703409.194946289,1354040.6227111816,-7453011.512756348,-41201061.2487793,-53453819.274902344,-13669512.748718262,628074.7056007385,-2405787.944793701,5563914.2990112305,822567.1052932739,531365.0369644165,1670669.9132919312,-11131738.662719727,1682907.223701477,2280042.886734009,730746.328830719,4286111.354827881,4395114.421844482,-722597.6586341858,1014134.0494155884,544132.9479217529,2131016.254425049,2658762.4549865723,2415548.56300354,543362.4386787415,727875.5903244019,7982937.812805176,2086946.964263916,2097961.902618408,2129134.8934173584,2591681.0035705566,1149269.938468933,2300432.2052001953,1724536.7765426636,2360009.4318389893,1573668.5991287231
0.32,34899265.28930664,-24322267.532348633,-50645488.73901367,24715009.689331055,-24139314.651489258,59282772.064208984,50306907.653808594,47823181.15234375,8447503.089904785,10712363.243103027,-4857339.382171631,-26725669.860839844,-27686012.268066406,-29147813.79699707,-515477.9553413391,42773345.947265625,26360343.93310547,17424703.59802246,14799593.925476074,2011630.0582885742,-18578678.131103516,-42001064.30053711,-16145559.310913086,-889933.3477020264,21799644.470214844,2368474.9603271484,5942443.84765625,866955.3399085999,-10400948.524475098,-43991352.08129883,-53306919.09790039,-15799161.911010742,-297647.8636264801,-2046659.231185913,5505785.942077637,571223.4973907471,291232.4666976929,514710.54553985596,-11002612.113952637,305496.87147140503,915992.3195838928,-170177.10208892822,4323391.437530518,4363411.426544189,-80645.77728509903,657951.9510269165,2312605.381011963,724409.1033935547,1161127.8057098389,878693.9978599548,905773.8184928894,1062430.3817749023,10955069.541931152,1336784.839630127,606864.5119667053,644394.57654953,1047790.1697158813,-1013682.6038360596,282487.27321624756,780684.9479675293,879713.4160995483,115553.58022451401
0.325,36122985.83984375,-20773540.496826172,-46405162.8112793,25803243.63708496,-22652549.743652344,60778999.32861328,51445281.982421875,49118675.231933594,7130172.7294921875,9498584.747314453,-5166971.683502197,-25396213.53149414,-26344432.830810547,-27546455.38330078,-304061.3532066345,44315025.329589844,25428760.528564453,15745105.743408203,11764734.268188477,320744.8422908783,-18711116.790771484,-38931259.15527344,-12366288.185119629,-890079.3194770813,21245468.139648438,2766944.408416748,5832160.949707031,776470.8995819092,-12021478.652954102,-43688049.31640625,-51062660.217285156,-11999513.626098633,-188450.58977603912,-2456136.703491211,4320055.4847717285,412886.44075393677,419975.4595756531,278684.3776702881,-9702965.73638916,1275931.1199188232,1929158.6875915527,-83434.74566936493,3178172.5883483887,3209981.679916382,-472515.4638290405,664047.4200248718,4651966.571807861,1681518.0778503418,2187899.8279571533,1860583.6629867554,150348.54412078857,261844.84362602234,7506639.9574279785,-34079.67463135719,1459646.1057662964,1560636.1627578735,2135653.7342071533,-2287803.1730651855,-730950.9515762329,-654765.784740448,1943075.180053711,1011687.9940032959
0.33,36685813.903808594,-18465744.018554688,-41120506.286621094,28309135.43701172,-18255655.28869629,65073120.1171875,54798034.66796875,52561519.622802734,9242238.04473877,13064939.498901367,-525867.6409721375,-20531112.670898438,-21449258.80432129,-22598711.013793945,2079785.1085662842,46534198.76098633,26557609.55810547,17715093.6126709,13595422.744750977,2566045.045852661,-15679160.118103027,-33792007.44628906,-5297892.093658447,1250789.8807525635,22555929.18395996,3188450.813293457,7745673.656463623,1088657.1407318115,-10898906.707763672,-40910533.9050293,-48241165.16113281,-4980522.632598877,2068542.48046875,-1525960.8030319214,4189864.158630371,501043.6177253723,790613.9492988586,429885.05959510803,-9024629.592895508,2702710.3900909424,3414021.4920043945,2109444.3798065186,3022630.453109741,3097887.7544403076,-410678.8635253906,1025800.8241653442,4027617.931365967,3024297.4758148193,3707688.808441162,3335193.395614624,598994.4934844971,629993.0810928345,2430621.862411499,-669842.8988456726,2756950.3784179688,2892407.8941345215,3756316.4234161377,-895958.4832191467,700626.015663147,-1159988.4033203125,3461215.7344818115,2335219.383239746
0.335,40360607.1472168,-14395555.49621582,-34138813.01879883,32530380.249023438,-11844931.602478027,68011215.20996094,59422088.623046875,57126373.291015625,13416199.684143066,19066270.82824707,6599316.596984863,-14130356.788635254,-14995299.339294434,-16229465.48461914,3731769.08493042,47230030.05981445,28893198.013305664,22173252.10571289,19121276.85546875,6890414.237976074,-11353063.583374023,-29792991.638183594,-717995.7628250122,2842804.6703338623,24583631.51550293,4483712.196350098,10781271.934509277,1368094.563484192,-8914249.420166016,-39003490.44799805,-46997879.02832031,-472168.892621994,3500495.195388794,-225304.7078847885,5049003.124237061,669831.9315910339,987529.5162200928,57469.29347515106,-10484554.290771484,1753896.1172103882,2436966.896057129,3594864.1300201416,3873559.9517822266,4065786.361694336,397602.8263568878,1335916.3999557495,257442.6233768463,1904086.947441101,2661066.5321350098,2295006.9904327393,1646319.2701339722,1668506.7415237427,1949709.415435791,-870242.3572540283,1659487.7243041992,1735620.617866516,2783353.328704834,382793.27750205994,1814276.933670044,-1246790.051460266,2369142.2939300537,1229271.7695236206
0.34,43277336.12060547,-11789590.835571289,-29544475.555419922,33557895.66040039,-8770062.446594238,63828674.31640625,60166614.5324707,57707389.83154297,14396042.823791504,21026041.03088379,9925669.67010498,-9803280.8303833,-10659809.112548828,-11852849.960327148,1294418.6925888062,43927337.646484375,28319705.963134766,23630582.809448242,22398035.049438477,9011769.29473877,-9189456.939697266,-28103672.02758789,589812.0999336243,604873.8360404968,23377983.09326172,4719050.407409668,11630723.95324707,1362558.0072402954,-8337565.4220581055,-39008621.21582031,-46663021.087646484,811761.5580558777,879382.0142745972,-1315774.7983932495,5201306.8199157715,697800.6958961487,872591.1974906921,-238848.61171245575,-12103816.986083984,535824.2988586426,1113081.8128585815,1198924.8991012573,4069387.912750244,4437561.03515625,1029994.010925293,1301158.7858200073,-2319689.7506713867,533210.6947898865,1202313.780784607,926477.1938323975,1243619.5611953735,1323987.7223968506,5613529.205322266,-726649.2247581482,397617.54870414734,394576.87735557556,1360641.2410736084,-575507.7600479126,825241.9829368591,-1145966.649055481,885874.5098114014,-92337.31776475906
0.345,39487434.38720703,-15895401.000976562,-31302251.8157959,28553243.63708496,-12014797.21069336,53773315.4296875,54597000.12207031,51874752.044677734,10517644.882202148,16896688.46130371,7315703.392028809,-8619448.6618042,-9528344.15435791,-10539129.257202148,-3668684.482574463,38420104.98046875,23831815.719604492,20003240.58532715,20471317.291259766,7816776.752471924,-9665831.565856934,-26744575.50048828,2872134.4470977783,-3999296.188354492,18612876.892089844,2128698.5874176025,9559269.905090332,1254081.9644927979,-8768949.508666992,-38501373.291015625,-44661094.665527344,3097559.928894043,-3952070.951461792,-4621231.555938721,4614495.754241943,615085.3633880615,741804.6593666077,794440.8059120178,-10821038.246154785,3282784.7003936768,3797437.906265259,-3432071.6857910156,3521795.5112457275,4014736.6523742676,1299790.9784317017,1089065.7901763916,-473620.11671066284,3220999.9561309814,3793700.933456421,3649704.694747925,294013.3512020111,389444.2319869995,8548708.91571045,1265592.4558639526,3257025.718688965,3270103.931427002,3946219.4442749023,-680706.5606117249,931891.3221359253,801385.5218887329,3521975.7556915283,2707381.4868927
0.35,30983871.459960938,-24699810.028076172,-37183330.53588867,21832839.965820312,-18408790.588378906,45712356.56738281,47202835.08300781,44186782.83691406,5526557.922363281,11278964.042663574,2744977.4742126465,-8943016.052246094,-9852460.861206055,-10746115.684509277,-6101812.839508057,35077239.990234375,19112064.361572266,15148457.527160645,16140205.383300781,5789536.476135254,-10516636.848449707,-24268049.240112305,8406240.463256836,-6124639.511108398,14966024.398803711,-1851748.8241195679,7170524.120330811,1308438.1818771362,-8623627.662658691,-35999732.971191406,-40719184.87548828,8602337.837219238,-5917616.367340088,-6746284.008026123,5044253.349304199,656254.8875808716,905129.7903060913,2807281.494140625,-6916464.805603027,9664226.531982422,10210417.747497559,-5435998.439788818,3949265.241622925,4406529.426574707,2259085.4167938232,1076282.9780578613,4324709.892272949,9566240.310668945,10183898.92578125,10125725.746154785,2164282.5603485107,2239888.1912231445,9341949.462890625,6260599.136352539,9732793.807983398,9816569.328308105,10261118.88885498,4367826.461791992,6122754.5738220215,5936145.782470703,9991006.851196289,9203400.611877441
0.355,25808002.471923828,-30290334.701538086,-41092224.12109375,19100688.934326172,-23259445.190429688,44411266.3269043,43854846.9543457,40769580.84106445,2513959.1693878174,8379804.611206055,76542.73509979248,-9467740.058898926,-10227927.207946777,-11089057.922363281,-4139348.030090332,34580570.220947266,16932245.2545166,12878634.452819824,12997184.753417969,4564046.859741211,-10564178.466796875,-21981781.005859375,14492538.452148438,-4099966.049194336,15465097.427368164,-4638560.771942139,6007899.761199951,1498138.0701065063,-8140645.980834961,-33475456.23779297,-37437911.98730469,14610567.092895508,-3541419.9829101562,-5963590.145111084,6893347.263336182,914191.9612884521,1277342.7963256836,4083852.767944336,-3477695.4650878906,15185622.215270996,15806478.500366211,-3302276.372909546,5800577.163696289,6087607.383728027,4390187.740325928,1340191.7219161987,8867009.162902832,14993097.305297852,15789340.019226074,15712491.989135742,7265765.190124512,7388854.98046875,11049573.89831543,12246404.647827148,15185278.89251709,15241953.84979248,15723120.68939209,12588191.986083984,14178548.812866211,12140983.581542969,15615260.124206543,14717830.657958984
0.36,27241722.106933594,-29160253.524780273,-40160781.86035156,19744863.510131836,-25759729.385375977,46611091.61376953,44579437.255859375,41853195.19042969,262068.53985786438,6929643.154144287,-1289566.7552947998,-10007606.506347656,-10550870.895385742,-11246183.395385742,-1295034.0509414673,33348972.32055664,15796470.642089844,12358840.942382812,11373448.371887207,3292893.409729004,-10520578.384399414,-20986547.470092773,17728092.193603516,-1457002.9973983765,17155097.96142578,-6046992.778778076,4675098.896026611,1572059.5121383667,-8629609.107971191,-32951602.935791016,-36075286.865234375,17736988.067626953,-698091.447353363,-4615226.268768311,8153325.080871582,1143251.2998580933,1465333.4617614746,4081077.5756835938,-2214281.3205718994,17192338.943481445,17900358.200073242,-707186.1028671265,7112108.23059082,7229243.755340576,6238581.657409668,1551178.216934204,11684881.210327148,16914710.998535156,17890110.01586914,17721702.575683594,11082626.342773438,11290000.915527344,14684576.034545898,14910815.238952637,17079952.239990234,17009965.896606445,17692977.905273438,16262895.584106445,17597673.416137695,14838924.407958984,17616765.97595215,16578680.038452148
0.365,30843824.38659668,-25500659.942626953,-36641834.2590332,19287160.873413086,-27608777.99987793,47267517.08984375,45438636.779785156,43318592.0715332,-2490605.592727661,4275804.9964904785,-3163318.157196045,-9833065.032958984,-10268220.901489258,-10635873.794555664,-959556.6391944885,30138931.274414062,13971017.837524414,11389197.34954834,10274725.914001465,1695332.646369934,-10426699.6383667,-19699319.83947754,18116756.439208984,-1373915.433883667,16261075.973510742,-7436716.556549072,2411487.579345703,1388392.448425293,-9507143.9743042,-33276153.564453125,-34815383.91113281,18009113.311767578,-656487.1072769165,-5231857.776641846,7315549.850463867,1009783.3871841431,1196500.4205703735,4086897.373199463,-2328581.0947418213,16725772.857666016,17529455.184936523,-801059.3056678772,6333416.938781738,6388792.037963867,5789059.162139893,1387840.986251831,12270113.945007324,16482492.446899414,17492519.37866211,17270130.157470703,9667654.991149902,9864845.275878906,16577056.884765625,12211894.989013672,16627151.489257812,16525220.87097168,17290237.426757812,11477033.615112305,12784517.288208008,11951675.415039062,17060840.606689453,15980796.813964844
0.37,32496845.245361328,-23474800.10986328,-33700218.200683594,17461118.698120117,-28767961.502075195,46202228.54614258,45562973.02246094,43842502.59399414,-2943610.906600952,2098493.3376312256,-4284860.134124756,-7917509.55581665,-8393739.700317383,-8603421.211242676,-1518344.1638946533,28850442.88635254,13396730.422973633,10921541.213989258,10349728.58428955,1649191.7371749878,-9173949.241638184,-16809762.954711914,17657081.604003906,-1981413.48361969,14542374.610900879,-8390387.535095215,1488541.0070419312,1080269.3367004395,-8609990.119934082,-32498317.71850586,-32529247.283935547,17487485.885620117,-1379516.7207717896,-6492922.782897949,5713430.881500244,535501.5397071838,627057.9099655151,4827357.292175293,-3280495.8820343018,14843620.300292969,15682533.264160156,-1539353.9667129517,4731116.29486084,4838948.2498168945,2930881.2618255615,947323.7991333008,9804378.509521484,14697680.473327637,15562765.121459961,15404452.323913574,5272321.2242126465,5380143.165588379,13945581.436157227,7180607.795715332,14813620.567321777,14861048.698425293,15514686.584472656,4144724.8458862305,5583856.582641602,6767292.022705078,15057953.834533691,14083159.446716309
0.375,33449714.66064453,-21961624.145507812,-32302124.0234375,18405452.728271484,-27761461.25793457,45705066.6809082,47552745.8190918,45785243.98803711,1884347.3196029663,4231661.796569824,-2168393.37348938,-5202328.681945801,-5732046.604156494,-6202553.272247314,566782.8321456909,32367256.16455078,16472213.745117188,13001546.859741211,12663836.479187012,4315249.443054199,-6994874.477386475,-14623881.340026855,17083782.196044922,267343.6105251312,16320096.969604492,-7089951.038360596,3833714.485168457,898481.3690185547,-5594267.36831665,-31477729.79736328,-31404558.181762695,16989982.60498047,836752.712726593,-5479958.534240723,5605307.579040527,153551.8318414688,229385.19716262817,5115090.370178223,-5816173.076629639,11245739.936828613,11992666.244506836,786610.3649139404,4574703.693389893,4788639.068603516,-292632.3115825653,647997.9157447815,5038875.102996826,11098227.500915527,11779553.413391113,11749011.993408203,3665896.8925476074,3754755.0201416016,9517058.372497559,4818761.348724365,11186386.108398438,11371198.654174805,11944942.474365234,3264158.4873199463,4699398.517608643,4477357.387542725,11368153.57208252,10563375.473022461
0.38,35524021.14868164,-19075984.954833984,-31997535.705566406,22928474.42626953,-25018556.594848633,45117019.65332031,51371021.27075195,49334590.911865234,9153475.761413574,10206112.8616333,2472112.1788024902,-4154137.134552002,-4638275.623321533,-5551223.7548828125,4657189.36920166,37201419.830322266,21152135.848999023,16190340.042114258,16054384.231567383,7813074.111938477,-5825112.819671631,-16101736.068725586,15736730.575561523,4485866.546630859,20884632.110595703,-3935999.1550445557,7432587.623596191,949927.806854248,-2785708.9042663574,-32351345.06225586,-33442096.710205078,15840559.005737305,5119230.270385742,-2582838.296890259,6896917.343139648,211307.0785999298,315264.40382003784,3952016.830444336,-9615871.42944336,7032968.521118164,7637005.805969238,5263865.947723389,5843092.441558838,6143807.888031006,-2039680.7193756104,740822.7920532227,1345581.0546875,6781543.731689453,7429359.912872314,7459062.576293945,6397799.491882324,6567080.020904541,7828264.236450195,6335346.698760986,6901302.337646484,7021739.0060424805,7709281.921386719,9363389.015197754,10644572.257995605,6148547.649383545,7181902.885437012,6489157.199859619
0.385,36739986.419677734,-16648778.915405273,-31850448.608398438,25989274.978637695,-22844816.207885742,42062957.763671875,52864589.69116211,50740386.962890625,12225210.189819336,14715797.424316406,6005844.593048096,-5168859.481811523,-5564544.677734375,-6636313.438415527,6351020.336151123,37954078.674316406,22817377.0904541,16651214.599609375,17797990.798950195,9406513.214111328,-6230479.717254639,-19406873.70300293,13593850.135803223,6097117.4240112305,22735198.974609375,-2076894.2832946777,8542400.360107422,1095552.4444580078,-1937770.3666687012,-34416446.685791016,-36415081.02416992,13858248.710632324,6821456.432342529,-1251008.5105895996,7341238.021850586,511269.9270248413,660439.0740394592,2636429.3098449707,-12226447.105407715,5265481.472015381,5811487.674713135,7077775.478363037,6319909.09576416,6631958.0078125,-2446047.067642212,1006892.9195404053,1485844.373703003,4990626.335144043,5752498.626708984,5739480.972290039,8904403.686523438,9137063.980102539,9216567.039489746,8185626.029968262,5161410.808563232,5131759.166717529,5979413.986206055,13834434.509277344,15075556.755065918,7964373.1117248535,5556146.621704102,4892351.6273498535
0.39,35273769.37866211,-16332683.563232422,-30048593.521118164,24033464.431762695,-21958114.624023438,37336975.09765625,49981426.23901367,48070560.455322266,8871715.545654297,14028626.441955566,6423765.182495117,-5353106.97555542,-5741073.131561279,-6543535.7093811035,4060249.8054504395,34788791.65649414,20381280.89904785,13547907.829284668,16673748.016357422,8839830.39855957,-6043922.424316406,-18977741.241455078,12339046.478271484,3637392.997741699,19629434.58557129,-3385190.725326538,6468276.9775390625,1098017.930984497,-1940047.5025177002,-34320323.9440918,-35962539.67285156,12577919.006347656,4397265.911102295,-2858655.6911468506,5847868.4425354,527647.3760604858,724919.7363853455,3217614.17388916,-11533585.548400879,7392254.829406738,7950452.80456543,4540003.776550293,4883346.080780029,5112467.7658081055,-2630787.3725891113,1002165.7943725586,4446701.526641846,7259991.645812988,8070221.900939941,8007369.041442871,7295676.231384277,7536994.457244873,10626348.495483398,7484130.382537842,7344000.816345215,7314272.403717041,8156927.108764648,10808858.871459961,12199544.906616211,7021127.700805664,7755417.346954346,7096139.907836914
0.395,34012538.90991211,-15189804.077148438,-24948196.411132812,20729782.104492188,-20480430.603027344,34628620.14770508,46595767.974853516,44926979.064941406,4233183.860778809,10352021.217346191,5540841.579437256,-2162480.115890503,-2643198.4901428223,-3016013.6222839355,1716275.3343582153,32582042.694091797,17528001.78527832,10385866.165161133,14193657.875061035,8108653.0685424805,-3353682.518005371,-12562284.469604492,14410244.941711426,1253493.4282302856,15958462.715148926,-5881482.124328613,3903562.7841949463,869806.3492774963,-839489.5195960999,-30473943.71032715,-30907629.013061523,14473659.51538086,1935095.9062576294,-4652911.66305542,4049314.022064209,81094.38419342041,310238.1229400635,5580343.246459961,-8059211.730957031,11488740.921020508,12011729.24041748,1854754.8055648804,3141299.9629974365,3229873.8956451416,-2809973.955154419,570360.4221343994,7298103.809356689,11494046.211242676,12166317.9397583,12105206.489562988,4016822.338104248,4285000.324249268,11000760.078430176,6281383.991241455,11339555.740356445,11431847.57232666,12145037.651062012,5354821.681976318,6836673.736572266,5637767.791748047,11694570.541381836,11030002.59399414
0.4,36662425.99487305,-10227046.012878418,-18087497.71118164,21890220.642089844,-17272384.643554688,35483276.3671875,47334960.9375,45612724.30419922,4375632.762908936,8572278.97644043,6124279.022216797,2942566.6332244873,2364122.3907470703,2279218.4352874756,3296513.795852661,33754867.55371094,17737764.358520508,10362658.500671387,12835703.84979248,8635390.281677246,551423.8476753235,-4501308.917999268,20455730.438232422,2924404.3827056885,16435956.954956055,-6399062.156677246,3232676.2676239014,568012.6547813416,1199562.907218933,-25220455.169677734,-24394086.837768555,20376775.74157715,3442773.8189697266,-3763756.9904327393,4080732.822418213,-410283.4463119507,-168932.39319324493,7596171.3790893555,-4033235.0730895996,15050631.523132324,15507553.100585938,3295436.8591308594,3230389.8334503174,3199420.213699341,-2403763.0558013916,31474.85852241516,8968131.065368652,14996074.676513672,15505372.047424316,15416992.1875,4177289.4859313965,4475136.280059814,12282015.800476074,8316765.785217285,14692672.729492188,14786955.833435059,15426504.135131836,6160248.756408691,7510574.817657471,7753094.19631958,14985646.24786377,14269236.56463623
0.405,41441692.35229492,-4864882.469177246,-14265484.809875488,27130504.608154297,-14345564.842224121,37596027.37426758,51136791.22924805,49080574.03564453,9189008.712768555,10329611.778259277,8258670.806884766,5894195.079803467,5299078.464508057,5292440.414428711,7311079.025268555,35968990.325927734,20554698.944091797,12612288.475036621,13660816.192626953,9922063.827514648,2654822.587966919,-906644.1655158997,27327281.951904297,7018551.826477051,19980978.01208496,-4437826.156616211,4587163.44833374,435995.04232406616,2298087.3584747314,-22200073.2421875,-20291030.883789062,27262363.43383789,7404198.64654541,-900079.2503356934,5902236.461639404,-458459.88392829895,-227609.66420173645,7823815.34576416,-1383118.1526184082,17331876.754760742,17816366.19567871,7405963.897705078,5103070.7359313965,5031090.259552002,-1516374.7072219849,-172096.3567495346,10123941.421508789,17079635.620117188,17603929.51965332,17379047.393798828,8206768.989562988,8422988.891601562,15190128.326416016,12825993.537902832,16891508.102416992,16818635.940551758,17455516.815185547,13031672.477722168,14209753.036499023,12480581.283569336,17140256.881713867,16362077.713012695
0.41,42968925.47607422,-5406974.792480469,-16832685.470581055,30452005.38635254,-14558952.331542969,38273693.0847168,52958335.876464844,50631393.43261719,13364947.319030762,12866076.469421387,9512108.80279541,4582747.459411621,4039983.7493896484,4000438.690185547,9297474.86114502,36628486.63330078,23261234.283447266,14079197.883605957,15562180.519104004,10680826.187133789,1791848.4210968018,-3345262.289047241,29898315.4296875,9057628.631591797,22320466.995239258,-2141513.8244628906,7045700.0732421875,549129.3668746948,1569666.9816970825,-22915561.67602539,-20122503.28063965,29943920.135498047,9412805.557250977,1453291.5353775024,7646868.705749512,-106208.23502540588,45195.12504339218,6724760.055541992,-1078489.3035888672,18146160.125732422,18702644.34814453,9563637.733459473,6876446.723937988,6824908.73336792,-1107294.4402694702,46089.7833108902,10609386.444091797,17777818.67980957,18421226.501464844,18028629.302978516,11452460.289001465,11489010.81085205,17173513.412475586,14884842.872619629,17783798.217773438,17614871.978759766,18193605.422973633,17242633.819580078,18444417.95349121,14640399.932861328,18019405.364990234,17273479.461669922
0.415,39255371.09375,-12132537.841796875,-23912763.595581055,28040288.9251709,-18150289.53552246,36812999.7253418,50385196.685791016,48117195.12939453,12893610.954284668,12810572.624206543,7918483.734130859,574828.2670974731,72303.10142040253,11869.28991228342,7901571.750640869,35794914.24560547,24046760.55908203,13321944.236755371,16359386.444091797,10171225.547790527,-686056.1966896057,-8677802.085876465,26358921.05102539,7775415.897369385,21888877.868652344,-1434839.9639129639,9539805.41229248,740465.5814170837,62073.60327243805,-26251201.629638672,-23042598.724365234,26467224.12109375,8143376.350402832,2468564.987182617,7909981.250762939,195387.3336315155,169438.06409835815,5394613.265991211,-3035909.414291382,16771432.876586914,17229536.056518555,8279959.678649902,7142708.301544189,7108431.816101074,-1582613.5873794556,379427.9098510742,9681741.714477539,16455257.415771484,17074621.200561523,16642601.013183594,10543082.237243652,10465215.682983398,15782272.338867188,12170057.29675293,16428918.838500977,16392087.936401367,16858392.7154541,13816143.989562988,15183210.372924805,11857830.047607422,16719411.849975586,16097909.927368164
0.42,33675247.19238281,-18806634.9029541,-30574670.791625977,22321722.03063965,-22576110.83984375,33269016.26586914,45814350.12817383,43813575.744628906,8908072.471618652,9739423.751831055,4095575.8094787598,-3305154.323577881,-3843441.7247772217,-3824374.198913574,5548787.593841553,34104640.96069336,22742406.845092773,11299969.673156738,14811507.225036621,8535019.874572754,-3166681.2896728516,-13579677.58178711,20631717.681884766,5554440.498352051,20293563.842773438,-2415942.430496216,10605373.38256836,784908.0562591553,-859077.0959854126,-29972013.473510742,-27009468.07861328,20705297.470092773,5889124.393463135,2657627.582550049,6808494.567871094,196606.17411136627,5734.873004257679,4501832.008361816,-5742755.41305542,13542313.575744629,13730525.970458984,5954738.616943359,6000267.505645752,5961811.542510986,-2260485.1722717285,525981.9030761719,8325143.814086914,13342152.59552002,13731634.140014648,13437396.049499512,6968682.289123535,6899246.2158203125,11869273.18572998,8196583.7478637695,13067209.243774414,13222366.333007812,13670972.82409668,7744613.6474609375,9193133.354187012,7813557.147979736,13482335.090637207,12930150.032043457
0.425,30597681.045532227,-20910476.684570312,-33715324.40185547,18378433.227539062,-24994483.947753906,27957637.786865234,42907733.91723633,41026645.66040039,5741570.472717285,6166447.639465332,669576.3468742371,-5618943.214416504,-6257509.708404541,-6076812.267303467,4117889.404296875,31500921.24938965,20284313.201904297,9637902.25982666,11921442.031860352,6649410.247802734,-5161424.63684082,-17271755.21850586,17833127.975463867,4132114.887237549,18892671.585083008,-3929715.394973755,9377420.425415039,643515.2888298035,-967814.8031234741,-32078861.236572266,-29895965.576171875,17863151.55029297,4398579.5974731445,1804931.1637878418,5313240.528106689,71652.81474590302,-80909.81096029282,4519191.741943359,-7064150.810241699,10770133.972167969,10840813.636779785,4503254.8904418945,4368168.830871582,4369587.421417236,-2470516.9200897217,486817.3599243164,8595273.0178833,10652838.706970215,10801026.344299316,10728099.822998047,3960641.860961914,3905522.108078003,8230442.047119141,7243782.997131348,10199667.930603027,10374431.610107422,10944841.384887695,5965585.708618164,7355278.491973877,6897886.276245117,10737940.788269043,10112858.772277832
0.43,32010169.982910156,-19379766.4642334,-33129478.454589844,19079631.805419922,-23873968.12438965,23081138.610839844,43270252.2277832,41190315.24658203,6660128.593444824,5025528.430938721,114473.19388389587,-6132518.768310547,-6857860.565185547,-6589257.24029541,3266810.894012451,29355119.705200195,18606874.465942383,9453307.151794434,10075235.366821289,5716570.854187012,-6463459.014892578,-20049230.575561523,18380424.49951172,3188022.8519439697,18004503.25012207,-4504593.849182129,7275846.004486084,502737.6413345337,-866877.4366378784,-31783826.82800293,-30777431.48803711,18443162.91809082,3424939.1555786133,-240638.65840435028,4547092.914581299,44798.18046092987,153806.6565990448,5579208.850860596,-6440718.650817871,10342123.031616211,10665553.092956543,3639772.653579712,3375103.9505004883,3506871.223449707,-2313621.5209960938,440732.1512699127,10304069.519042969,10303236.961364746,10376775.741577148,10487278.938293457,2755757.5702667236,2669387.5789642334,6606687.068939209,8774583.81652832,9882248.878479004,9938575.744628906,10629426.956176758,8209265.70892334,9539351.463317871,8510149.002075195,10466114.044189453,9731618.881225586
0.435,37527271.27075195,-15905430.793762207,-29083614.349365234,23907432.556152344,-19327560.424804688,21951414.108276367,46219089.50805664,43808303.83300781,11319654.46472168,7182734.966278076,2776861.4292144775,-4692547.32131958,-5417129.5166015625,-5267354.965209961,3100397.5868225098,30373170.852661133,19623802.185058594,11074849.128723145,10575923.919677734,6309768.199920654,-6539268.970489502,-21303113.93737793,19026346.20666504,2983880.2814483643,18435125.35095215,-3076711.893081665,6877622.604370117,555910.9449386597,-1099145.2932357788,-30095863.342285156,-30396795.27282715,19140491.485595703,3254429.1019439697,-1587318.8972473145,5446940.898895264,69727.71137952805,418676.0485172272,6690574.645996094,-5618548.87008667,11417931.55670166,12140665.054321289,3486310.9588623047,4114225.8644104004,4374944.686889648,-1989342.3318862915,456737.4289035797,10687032.699584961,11497549.057006836,11644310.95123291,11822992.324829102,3073804.1400909424,3023145.6756591797,7271694.183349609,9424439.430236816,11184657.096862793,11191568.374633789,11877050.399780273,9586002.349853516,10941440.58227539,9211246.490478516,11730163.57421875,10979555.130004883
0.44,44747867.584228516,-10198845.863342285,-22106311.798095703,30296302.795410156,-13364991.188049316,24998491.287231445,49769958.49609375,47202308.654785156,16502107.620239258,10818214.416503906,6527595.043182373,-1745169.997215271,-2377116.6801452637,-2466079.9503326416,4967940.330505371,34568885.803222656,23070354.461669922,13682853.698730469,12285269.737243652,7672618.865966797,-5482261.180877686,-20337354.66003418,18493116.37878418,4842201.709747314,20747732.162475586,86126.9012093544,8594846.725463867,776285.4695320129,-1821412.9209518433,-29018020.629882812,-29962652.2064209,18534980.77392578,5196785.926818848,-40379.94146347046,7966160.774230957,14774.052426218987,339241.8324947357,6421015.739440918,-6333290.100097656,11892467.498779297,12792254.447937012,5310332.775115967,6722555.637359619,6958399.772644043,-1272346.9734191895,469621.6285228729,8366690.635681152,12081556.32019043,12340469.360351562,12454659.461975098,4694975.852966309,4791886.806488037,9936054.229736328,8600623.13079834,11834741.592407227,11924021.72088623,12504732.131958008,8801984.786987305,10191866.874694824,8432404.518127441,12309631.34765625,11591575.622558594
0.445,50153675.0793457,-3352594.1371917725,-14727070.808410645,35451038.3605957,-8745192.527770996,28614450.454711914,51918636.322021484,49474941.25366211,19417823.791503906,13399661.06414795,8927226.066589355,1104267.3587799072,591658.5922241211,376488.8644218445,8670868.873596191,38157562.255859375,26403944.01550293,15750494.003295898,13209980.010986328,8602812.767028809,-4308896.064758301,-18020622.25341797,18823394.775390625,8348156.929016113,23455863.95263672,3358807.08694458,10270396.23260498,953759.9682807922,-2690598.726272583,-29375158.309936523,-29530633.9263916,18652894.973754883,8855527.877807617,3433619.976043701,10652964.59197998,-48877.79802083969,51468.06687116623,4897209.167480469,-7921989.917755127,11272229.194641113,12078692.436218262,8813819.885253906,9722894.668579102,9779851.913452148,-165077.3286819458,471064.031124115,5626017.5704956055,11480876.922607422,11823649.406433105,11818505.28717041,6936094.284057617,7143418.788909912,13481498.718261719,8770576.477050781,11314736.366271973,11484745.025634766,11937561.988830566,8927274.703979492,10266478.538513184,8645545.959472656,11735106.468200684,10981897.354125977
0.45,52543235.778808594,1165493.6075210571,-10231667.518615723,38467338.56201172,-5942022.800445557,29901933.670043945,52667884.826660156,50484672.54638672,20631683.349609375,14582711.219787598,10161536.21673584,2779621.124267578,2332392.2157287598,2205022.3350524902,11695569.99206543,38832733.154296875,27988210.678100586,16883417.1295166,13196211.814880371,9173729.89654541,-3333274.8413085938,-16001899.719238281,21159515.380859375,10998003.959655762,24575763.702392578,5451941.967010498,10724840.16418457,950054.4667243958,-2773038.864135742,-29750576.01928711,-28175243.377685547,20815673.828125,11717814.445495605,5670230.388641357,11965636.253356934,39305.26226758957,9117.635898292065,3912924.05128479,-8294410.705566406,10805066.108703613,11470487.594604492,11561688.423156738,11331727.981567383,11244693.756103516,600575.7451057434,554397.5830078125,5246395.587921143,10924252.5100708,11296744.346618652,11263614.654541016,8269371.032714844,8435446.739196777,15706201.553344727,10680129.051208496,10904562.950134277,11047677.993774414,11384814.262390137,11251195.907592773,12467732.429504395,10518091.201782227,11307030.67779541,10477515.22064209
0.455,54768093.10913086,2637573.003768921,-8723145.484924316,40971019.74487305,-2223726.272583008,30450300.216674805,54350868.225097656,52345302.58178711,23094463.348388672,16534206.39038086,12931793.212890625,4514814.376831055,4038302.8984069824,4088306.427001953,12670392.036437988,39221466.064453125,29093086.24267578,18541143.4173584,14158647.537231445,10809479.713439941,-1309190.9885406494,-14494562.149047852,23810169.219970703,11773097.99194336,24616525.650024414,6608403.68270874,11561347.961425781,829032.0634841919,-1241323.1134414673,-28253728.86657715,-25598300.93383789,23503179.5501709,12636290.550231934,5795805.931091309,11915740.013122559,215171.53084278107,305871.75488471985,4401641.845703125,-6824691.295623779,11404268.264770508,11989573.47869873,12423149.108886719,11368607.521057129,11320705.41381836,300241.1723136902,730845.8685874939,6665423.87008667,11349874.496459961,11702856.063842773,11792819.97680664,8100535.3927612305,8186408.042907715,15109454.154968262,11771335.60180664,11473251.342773438,11520137.786865234,11804587.364196777,13173549.65209961,14281437.873840332,11500025.749206543,11891368.865966797,11063794.136047363
0.46,59352062.2253418,4694994.926452637,-7220175.743103027,44336269.37866211,4149215.2214050293,32930198.669433594,58182590.48461914,56158035.27832031,27742631.912231445,20510072.708129883,18307897.567749023,7983188.629150391,7413013.458251953,7586337.566375732,13247290.61126709,42037719.7265625,31241115.57006836,21648300.170898438,17186407.0892334,14022424.697875977,2352840.6620025635,-12380922.317504883,25438755.03540039,12532609.939575195,25480684.280395508,7296812.534332275,13977984.428405762,697178.4234046936,1294690.0129318237,-25206195.831298828,-22836555.48095703,25317728.04260254,13321736.335754395,6041275.501251221,11635890.007019043,217612.71357536316,531570.2557563782,5042848.110198975,-5072959.899902344,12699547.76763916,13192974.090576172,13150889.39666748,11001727.104187012,11097190.856933594,-804637.4917030334,833230.6742668152,7280001.640319824,12424796.104431152,12773516.654968262,13023012.161254883,7780066.967010498,7903641.700744629,12899535.179138184,10254248.61907959,12645541.191101074,12598617.553710938,12969835.28137207,12695601.463317871,13794521.33178711,9979825.019836426,13088783.264160156,12339718.81866455
0.465,63549995.42236328,8768254.280090332,-4892925.73928833,46801826.47705078,9794623.374938965,36105472.564697266,61528266.90673828,59345626.83105469,31519805.908203125,24119575.50048828,22779991.149902344,11588111.877441406,10950870.513916016,11196462.631225586,15054397.583007812,44767246.24633789,33148735.04638672,24436359.405517578,20408821.10595703,16827035.903930664,5231226.444244385,-9988176.345825195,26885156.631469727,14624192.237854004,27028896.33178711,6808885.097503662,16005365.371704102,530857.0265769958,2765025.854110718,-23249967.575073242,-21537075.04272461,26889255.52368164,15155241.012573242,7720431.804656982,11728031.158447266,-45949.93591308594,338011.80124282837,4323036.670684814,-4602450.370788574,13804659.843444824,14197771.072387695,15162291.526794434,10974514.961242676,11132570.266723633,-1662338.6144638062,695243.1797981262,6528836.250305176,13347820.281982422,13767238.61694336,14078556.060791016,8651881.217956543,8887847.900390625,11963003.158569336,8044641.494750977,13676892.280578613,13547603.607177734,14113735.19897461,11466835.021972656,12692412.376403809,7967265.605926514,14122499.465942383,13412959.098815918
0.47,62907043.45703125,10587031.364440918,-4703289.985656738,45640560.150146484,9740627.28881836,36628402.70996094,61172290.80200195,58866741.18041992,31335021.97265625,23909055.709838867,21862421.0357666,11279687.881469727,10673290.252685547,10996877.670288086,16832027.435302734,43422336.57836914,32720943.450927734,24677940.368652344,21043603.897094727,16744466.781616211,4065408.706665039,-9967522.621154785,28179035.186767578,16426876.068115234,27557506.561279297,4766871.929168701,15377371.788024902,280926.1977672577,1934072.9713439941,-24321008.682250977,-22837644.577026367,28172657.012939453,16726264.953613281,9140047.073364258,11936189.651489258,-335840.64245224,-113629.91482019424,2885171.890258789,-5144168.376922607,13766654.968261719,14176477.432250977,16951164.24560547,11094248.77166748,11178104.400634766,-1606911.540031433,366717.6365852356,6182990.550994873,13283385.276794434,13785509.10949707,14089879.989624023,9822396.278381348,10093670.845031738,13241889.953613281,7433091.163635254,13719859.12322998,13514027.59552002,14206806.182861328,11453010.559082031,12850357.055664062,7547062.397003174,14124535.56060791,13402812.004089355
0.475,58776840.20996094,7095924.377441406,-8107677.459716797,41896522.521972656,4906793.594360352,34894950.86669922,58740291.595458984,56487079.62036133,28735382.080078125,20375593.185424805,16418443.67980957,6021555.423736572,5503824.710845947,5865553.855895996,16344274.520874023,39837314.60571289,31109981.536865234,23494258.880615234,19229784.01184082,14256695.747375488,-506826.34115219116,-14005816.459655762,26354734.420776367,15791332.244873047,27257417.678833008,3132340.908050537,13808090.209960938,85050.67974328995,334643.1255340576,-27157234.19189453,-26663721.084594727,26335512.161254883,16041643.142700195,8489071.8460083,12045069.694519043,-361468.8515663147,-385917.0079231262,2436395.8835601807,-5448403.835296631,11547555.923461914,12095545.768737793,16333158.493041992,11139223.098754883,11096602.439880371,-1221924.7817993164,73704.39916849136,6638550.758361816,11220415.115356445,11684856.414794922,12015439.0335083,9038228.034973145,9240132.331848145,14028769.493103027,6728405.475616455,11637022.018432617,11384192.46673584,12005674.362182617,11087797.164916992,12491496.086120605,6775976.657867432,11952858.924865723,11278176.307678223
0.48,56929004.66918945,2396932.363510132,-11792675.971984863,39568271.63696289,1847717.28515625,34696174.62158203,59028549.19433594,56972511.291503906,27837951.66015625,17685314.178466797,12216981.887817383,-222614.03501033783,-724146.1873054504,-475402.8618335724,13536341.667175293,39648155.212402344,31362504.959106445,24043428.421020508,17906843.185424805,12519653.3203125,-3982844.114303589,-20097665.786743164,18986663.818359375,12995166.778564453,27707811.35559082,4157396.7933654785,15089562.41607666,181512.05778121948,565427.6609420776,-28818700.790405273,-31701457.977294922,19059095.38269043,13345172.882080078,6211799.144744873,11714162.826538086,-119256.51133060455,-267715.7521247864,3066323.2803344727,-5292505.741119385,6866777.8968811035,7506987.09487915,13480548.858642578,10789553.64227295,10629961.013793945,-1917248.4874725342,3611.822845414281,5772542.476654053,6766827.583312988,7068223.95324707,7419261.932373047,5201253.414154053,5317354.679107666,10776719.093322754,2338744.878768921,7030523.777008057,6769559.860229492,7187976.360321045,7251672.744750977,8372253.41796875,2153246.4027404785,7219363.212585449,6668559.551239014
0.485,58409786.224365234,1714582.920074463,-12811662.673950195,39483150.482177734,3761091.709136963,36630199.43237305,62391838.07373047,60505596.16088867,29036010.7421875,17682870.864868164,12188529.014587402,-3805791.6164398193,-4424119.472503662,-4469764.232635498,10014446.258544922,43208187.103271484,32943790.435791016,26143745.42236328,18343479.15649414,12965167.045593262,-4002362.2512817383,-24965503.692626953,8196967.124938965,9646679.878234863,27895032.88269043,6424855.2322387695,19050436.01989746,571301.5794754028,2557396.411895752,-28607679.36706543,-36412754.05883789,8366210.9375,10130064.964294434,3284710.40725708,9932643.89038086,149364.6651506424,86642.5633430481,3230357.885360718,-5861003.398895264,1147025.465965271,1750780.1055908203,10037914.276123047,9072909.355163574,8797158.241271973,-4234559.535980225,179613.53063583374,2720804.452896118,1244636.2972259521,1403297.6627349854,1645230.0548553467,-502626.29985809326,-458058.4168434143,3826469.4213867188,-5188869.953155518,1417793.2739257812,1170161.9625091553,1402626.0375976562,152580.79767227173,890752.1963119507,-5464834.213256836,1485728.7406921387,1011436.4624023438
0.49,57615871.42944336,2972913.2652282715,-13781934.73815918,37695644.37866211,6103662.014007568,36156494.140625,62907554.626464844,61052822.11303711,28198322.296142578,17163356.78100586,12571347.2366333,-6175779.819488525,-6937692.165374756,-7359130.859375,6791718.482971191,44060989.37988281,31375133.514404297,25579526.901245117,17985527.03857422,13085412.979125977,-3779486.894607544,-28346385.955810547,-1158526.062965393,6449046.1349487305,24700632.095336914,5799962.043762207,20890052.795410156,929388.9999389648,3146842.4797058105,-29063947.677612305,-40335205.078125,-1042504.7874450684,7033108.234405518,-293413.4900569916,6471943.378448486,275091.35007858276,398210.5553150177,2194351.1962890625,-8020625.114440918,-3261144.3996429443,-2700484.037399292,6854589.939117432,5747752.1896362305,5369414.806365967,-6545171.26083374,488288.67077827454,415564.5966529846,-2946829.319000244,-2820908.308029175,-2781561.1362457275,-5399236.20223999,-5448215.007781982,-1809235.5728149414,-10442393.30291748,-2709554.433822632,-2916764.736175537,-2790944.3378448486,-6102190.017700195,-5485427.8564453125,-10624931.335449219,-2677085.3996276855,-3159171.8196868896
0.495,51880954.74243164,880433.201789856,-18196657.180786133,32208259.58251953,4209534.168243408,30651603.69873047,56619697.57080078,54748256.68334961,23294057.846069336,13248323.440551758,9353769.302368164,-10236886.024475098,-11029634.475708008,-11747809.410095215,4363886.35635376,38487323.76098633,25158903.121948242,20567598.342895508,14541107.177734375,10353286.743164062,-6960558.4144592285,-32272888.18359375,-6160727.977752686,3828048.7060546875,18637268.06640625,1392550.9452819824,17832529.067993164,960325.2410888672,431695.1334476471,-32026107.788085938,-43715515.13671875,-6214985.370635986,4450069.427490234,-3645191.9078826904,3694700.4795074463,314520.4782485962,507134.67597961426,1048364.4008636475,-10657777.786254883,-4919152.736663818,-4305717.468261719,4378858.0894470215,3124358.654022217,2705407.14263916,-6344281.6734313965,759947.7767944336,1977079.7491073608,-4303503.513336182,-4175283.432006836,-4240933.895111084,-7056212.425231934,-7188402.6527404785,-1616311.4309310913,-9792772.29309082,-4051060.676574707,-4170252.799987793,-4068882.942199707,-8139164.924621582,-7296778.202056885,-9969969.749450684,-3928442.2397613525,-4375128.746032715
0.5,47102832.79418945,-3167557.0011138916,-23076532.3638916,27674463.272094727,1108868.5989379883,24926599.502563477,48197566.986083984,46424575.80566406,18440090.17944336,8785259.246826172,5260955.333709717,-14133799.55291748,-14866133.689880371,-15669468.879699707,3986866.235733032,31710367.20275879,19680789.947509766,15761899.948120117,10381030.082702637,6756414.890289307,-11224873.542785645,-36504592.89550781,-6710373.878479004,3352107.524871826,15248237.609863281,-2166465.0440216064,13533242.225646973,760068.2377815247,-2924164.056777954,-35046512.603759766,-45829368.591308594,-6868873.119354248,3909035.9210968018,-4026208.8775634766,4780476.093292236,389548.27189445496,448638.31996917725,1089114.5467758179,-11292674.06463623,-3846120.3575134277,-3176122.6654052734,4013836.38381958,4322776.794433594,3934599.8764038086,-3405963.659286499,880995.0947761536,5974358.558654785,-2983203.887939453,-2895383.358001709,-2904822.34954834,-5011734.485626221,-5111283.302307129,3118263.9598846436,-6146275.997161865,-2957018.6138153076,-2987225.05569458,-2780553.3409118652,-6654932.022094727,-5581780.910491943,-6486303.806304932,-2679291.7251586914,-3017916.9178009033
0.505,49476139.068603516,-2769694.0898895264,-22337661.743164062,29561300.27770996,2785521.0304260254,25985092.163085938,45518188.4765625,43938446.044921875,18574106.216430664,8725790.023803711,5845197.2007751465,-13201498.031616211,-13921539.306640625,-14578849.792480469,6537545.680999756,31161928.176879883,20856586.456298828,16517515.182495117,9869093.894958496,6542331.695556641,-11008795.738220215,-37738292.6940918,-3413164.6156311035,6088244.438171387,18173513.412475586,-570233.2854270935,13363359.451293945,696681.2014579773,-2699436.4261627197,-33957660.67504883,-44975612.64038086,-3537293.4341430664,6480629.444122314,-313427.80590057373,9482074.737548828,487863.36183547974,400759.7863674164,2313529.9682617188,-8649344.444274902,-607651.2932777405,-6688.836961984634,6698594.570159912,9010248.184204102,8696887.969970703,-717798.3522415161,899823.784828186,8081561.088562012,216379.73189353943,273137.09259033203,331982.43379592896,-1224039.7930145264,-1152794.8379516602,6837536.811828613,-4645111.083984375,-58639.030903577805,-100301.77980661392,352266.19243621826,-4252541.065216064,-3287626.028060913,-5016417.503356934,325809.0913295746,-30727.922916412354
