time,Fp1,Fpz,Fp2,AF3,AF4,F7,F5,F3,F1,Fz,F2,F4,F6,F8,FT7,FC5,FC3,FC1,FCz,FC2,FC4,FC6,FT8,T7,C5,C3,C1,Cz,C2,C4,C6,T8,TP7,CP5,CP3,CP1,CPz,CP2,CP4,CP6,TP8,P7,P5,P3,P1,Pz,P2,P4,P6,P8,PO7,PO5,PO3,POz,PO4,PO6,PO8,CB1,O1,Oz,O2,CB2
0.0,1021219.1343307495,464337.14032173157,-1140148.9973068237,639358.5205078125,-743088.6030197144,1677572.7272033691,1998850.8224487305,917168.2000160217,-63702.210783958435,-23722.81812131405,-1467272.2816467285,-521108.62731933594,-513940.2747154236,-727319.598197937,1653570.4135894775,640450.8352279663,-482996.8214035034,38009.80746746063,553674.1018295288,-311794.2810058594,86723.14882278442,-156883.96990299225,-554599.8811721802,381023.01955223083,284209.4302177429,131621.89722061157,-350447.6249217987,136617.2730922699,-460620.85032463074,86234.09271240234,-116662.09250688553,-349562.04891204834,752231.9555282593,310769.4685459137,-174785.36069393158,154524.0581035614,-65519.27328109741,-189543.60485076904,-134624.95803833008,135470.6585407257,206185.07266044617,531123.8765716553,452437.4306201935,45490.03392457962,-123276.41248703003,-30028.16066145897,313989.43066596985,331406.26549720764,325537.8305912018,744929.3732643127,444676.9058704376,197223.5143184662,482946.2468624115,-54537.95939683914,347909.92736816406,394879.22191619873,439403.9809703827,498620.2120780945,464887.6488208771,-484648.31709861755,463379.05526161194,19610.682502388954
0.005,31900331.497192383,24145111.083984375,2480332.851409912,24328006.744384766,5808735.370635986,21365264.892578125,46511951.4465332,16397695.541381836,13827730.178833008,12343572.616577148,4433716.297149658,2893455.743789673,3131631.61277771,-14066267.013549805,20894741.05834961,568907.4993133545,-15570912.36114502,9274546.62322998,12922546.38671875,9520431.518554688,9239662.170410156,3731101.5129089355,-7198581.218719482,-15410081.86340332,-16733062.744140625,-8516427.040100098,716150.164604187,7873674.8695373535,7030401.229858398,7344430.446624756,2281566.381454468,-12648049.354553223,-10309702.87322998,-15473841.667175293,-15625043.869018555,-6600614.070892334,-1698300.2424240112,6648060.321807861,6299850.4638671875,5091168.403625488,-7316168.308258057,-15377197.265625,-16052127.838134766,-17587312.698364258,-15530176.162719727,-956155.3001403809,4728663.921356201,7345267.295837402,7155802.249908447,1165153.0265808105,-15840123.176574707,-17637641.90673828,-12458027.839660645,-2037918.3292388916,-2315318.1076049805,-2012748.7182617188,-3086663.4845733643,-12303997.993469238,-12930244.445800781,-12828598.022460938,-7145508.766174316,-20600751.876831055
0.01,43058063.50708008,32151256.561279297,2689366.8174743652,34393512.72583008,7608976.364135742,33167732.23876953,68725738.52539062,25092174.530029297,20768072.1282959,17788076.400756836,6101533.41293335,1844471.4546203613,2166644.811630249,-18932424.545288086,32477397.918701172,5087030.88760376,-19554615.020751953,14817825.317382812,18597166.061401367,13290516.85333252,12533885.955810547,4626945.495605469,-9854472.160339355,-16087036.1328125,-19999027.252197266,-9221279.14428711,3249068.49861145,11596941.947937012,9481979.370117188,8813983.917236328,2273452.2819519043,-18201339.721679688,-10381669.044494629,-17633283.615112305,-18047431.94580078,-7114476.203918457,-2162986.2785339355,7788144.588470459,6633214.950561523,5314736.843109131,-10947012.901306152,-17320386.88659668,-18213340.759277344,-20762510.299682617,-19892688.751220703,-1220856.3089370728,3557189.94140625,7129560.947418213,7140812.397003174,1208714.3659591675,-17986888.885498047,-20534147.262573242,-15197207.4508667,-2644909.381866455,-3792550.563812256,-3906780.242919922,-4960422.515869141,-15016961.097717285,-15990907.669067383,-16899887.084960938,-10241655.349731445,-28781417.846679688
0.015,31459720.611572266,20802124.0234375,-6000041.484832764,27418926.239013672,700824.499130249,33358055.114746094,64914009.09423828,23727767.944335938,17683319.091796875,13776766.777038574,501119.1964149475,-5043750.762939453,-4744241.714477539,-18687404.63256836,32679485.321044922,9734397.888183594,-16286813.735961914,13851348.876953125,16459589.004516602,9405332.565307617,9181455.612182617,2232484.3406677246,-9129173.278808594,-6573662.281036377,-12787623.405456543,-4757556.438446045,3928622.7226257324,10363623.61907959,6338033.676147461,5630160.808563232,571337.878704071,-16448717.11730957,-2029466.3906097412,-9246743.202209473,-10720463.752746582,-3434964.656829834,-1671096.4441299438,4078229.9041748047,3080487.012863159,3193418.025970459,-8990247.72644043,-7697796.821594238,-8641638.75579834,-12329868.31665039,-14675758.361816406,-901894.748210907,-244713.36603164673,3291252.374649048,3690324.068069458,3189826.9653320312,-8151418.685913086,-11016113.28125,-7859394.073486328,-2001847.267150879,-2662935.256958008,-2983951.3301849365,-2889943.1228637695,-7637381.553649902,-8759764.671325684,-12542899.131774902,-7441456.317901611,-22493375.778198242
0.02,13369908.332824707,2739713.430404663,-21406539.916992188,13069346.42791748,-12309967.994689941,26716371.536254883,50709632.873535156,15688125.610351562,8646894.454956055,4622175.693511963,-9438663.482666016,-14018376.350402832,-13713114.738464355,-21088846.20666504,26064496.994018555,7864378.929138184,-16903627.395629883,7955934.047698975,10820513.725280762,2407999.5155334473,3510865.6883239746,-1136706.5906524658,-8562421.798706055,-2529529.094696045,-8245489.120483398,-3206656.4559936523,225631.80327415466,6678843.4982299805,1725860.7149124146,3055957.078933716,-539556.086063385,-12816860.19897461,3655207.633972168,-3714310.1692199707,-6418541.431427002,-2003459.9304199219,-1340091.347694397,504964.35165405273,1825051.3076782227,3682420.253753662,-4075642.1089172363,-273261.04044914246,-1497524.4998931885,-6182448.863983154,-9921724.319458008,-637788.9513969421,-224541.26179218292,3743355.9894561768,4199633.598327637,7745077.610015869,-187693.2680606842,-3591623.306274414,80304.98027801514,-1363864.4218444824,434432.9833984375,1179450.8695602417,2348763.942718506,505623.81744384766,-762803.9717674255,-6967089.653015137,-2113291.2635803223,-11238409.042358398
0.025,9545928.955078125,-2844861.5074157715,-28684471.130371094,5952385.425567627,-20370565.41442871,24218755.7220459,44422573.08959961,9412364.00604248,2736795.18699646,-1275695.80078125,-14391414.642333984,-18250087.73803711,-17894159.3170166,-24484794.61669922,23421651.84020996,2268652.4391174316,-22678342.819213867,3670829.0576934814,6689521.789550781,-714275.7773399353,444823.0564594269,-2913577.5566101074,-9451820.373535156,-7207681.655883789,-10560966.491699219,-5891088.962554932,-3324747.5624084473,3959575.414657593,142700.15060901642,2975447.416305542,-592629.0154457092,-12496409.41619873,2291362.2856140137,-6217282.295227051,-9285183.906555176,-4318139.553070068,-1665840.983390808,-614994.5855140686,3572966.5756225586,6075164.794921875,-1523202.7769088745,-2061941.6236877441,-3687382.459640503,-8292946.815490723,-10849408.149719238,-819188.2967948914,3537072.8969573975,8092435.836791992,8159332.275390625,10484723.091125488,-1606790.4233932495,-5366514.682769775,839850.8429527283,-1501612.4248504639,2171655.1780700684,4461538.314819336,5497895.240783691,1478614.4495010376,60320.354998111725,-6168738.842010498,348200.11258125305,-6246603.488922119
0.03,24863716.12548828,10603315.353393555,-17136514.66369629,11947708.129882812,-14921466.827392578,32058128.356933594,50684242.248535156,10725269.317626953,5399117.946624756,931901.2761116028,-8619270.324707031,-14445734.977722168,-14094255.447387695,-21518234.252929688,31032272.338867188,2094834.327697754,-24933965.6829834,5873008.728027344,5996387.004852295,2497712.6121520996,1233497.142791748,-2445681.33354187,-9922051.429748535,-8968144.416809082,-12114647.86529541,-7139684.677124023,-852593.3623313904,3671643.9723968506,2005087.3756408691,2803485.155105591,-920735.3591918945,-15293281.555175781,264751.22570991516,-9468007.08770752,-12000555.038452148,-6181977.74887085,-2104986.4292144775,-952758.4314346313,3773273.706436157,5786999.702453613,-3586413.1450653076,-6608287.811279297,-8340167.999267578,-11962927.81829834,-13613924.980163574,-1207971.8112945557,5315445.899963379,9282069.206237793,8948698.997497559,7962180.137634277,-6206079.959869385,-9360752.10571289,-3315043.4494018555,-1999427.7954101562,652481.3175201416,3244453.4301757812,3178603.8875579834,-2731986.2842559814,-4116117.000579834,-8623389.24407959,-1579643.6071395874,-9289879.79888916
0.035,42714580.53588867,28145196.91467285,951001.1672973633,22431838.989257812,-2751889.944076538,44573467.25463867,60393737.79296875,16826826.095581055,12277969.360351562,7219337.463378906,759682.7149391174,-7951405.5252075195,-7684321.403503418,-14132092.475891113,43518196.10595703,9712530.136108398,-19991012.573242188,11493502.616882324,7362140.655517578,7039257.049560547,2975593.090057373,-1464040.2793884277,-9206935.88256836,-61011.92906498909,-7113870.620727539,-4069175.2433776855,5119437.694549561,4661247.253417969,3649101.0189056396,746056.5567016602,-2131240.8447265625,-17291225.43334961,4512018.68057251,-6298576.831817627,-9029611.587524414,-5020045.757293701,-2108496.66595459,-2114319.5629119873,682640.8505439758,2396513.4620666504,-6646000.385284424,-4774005.889892578,-6317143.440246582,-10208684.921264648,-13320128.440856934,-1375069.499015808,2945490.3602600098,5549251.556396484,5206750.869750977,4305685.520172119,-4540706.634521484,-6672095.29876709,-3792711.9731903076,-2133606.433868408,-1268309.9508285522,379202.3956775665,-342413.63406181335,-3504450.798034668,-4631802.558898926,-8244071.006774902,-3349576.950073242,-12165789.604187012
0.04,42664966.58325195,28588933.94470215,1385442.0185089111,24036853.790283203,-812647.9387283325,51120159.14916992,63793041.22924805,19811069.48852539,14102204.322814941,8623785.972595215,287123.7099170685,-8394575.119018555,-8183742.523193359,-13988161.087036133,50346961.975097656,17525955.200195312,-14879801.750183105,12922681.80847168,7822974.20501709,5785492.420196533,1622376.2035369873,-2729074.239730835,-9899789.810180664,12829554.557800293,579775.6314277649,-383689.13531303406,6117948.055267334,4661857.128143311,1538885.8318328857,-1904951.9300460815,-3699872.9705810547,-16536325.454711914,13835607.528686523,1215957.9992294312,-4038687.7059936523,-3207512.140274048,-1899648.7855911255,-3774197.578430176,-2357292.413711548,197863.6234998703,-6093388.080596924,3825207.9486846924,2347269.296646118,-4687174.320220947,-10483923.91204834,-1252294.3019866943,306062.4897480011,2843490.8390045166,2782508.611679077,6329612.255096436,4123616.2185668945,1939129.114151001,3595459.222793579,-1851440.3104782104,576898.8728523254,1837102.4131774902,1806694.8652267456,3695418.119430542,2788746.118545532,-2271318.197250366,251027.6734828949,-7392943.859100342
0.045,23718544.006347656,9223904.609680176,-20557641.983032227,13808466.911315918,-15517039.29901123,48204498.291015625,60137317.6574707,15786315.91796875,7433549.880981445,1113445.0435638428,-13426915.168762207,-18728322.982788086,-18473628.997802734,-25301130.294799805,47770080.56640625,18364845.275878906,-16735002.517700195,7191325.1876831055,4968465.805053711,-2556172.3709106445,-4214190.483093262,-7377410.888671875,-13977498.054504395,18996002.197265625,4200294.971466064,-382741.0340309143,-680665.4334068298,2216639.0419006348,-4036782.2647094727,-3914209.1274261475,-5584163.188934326,-15026678.085327148,21655376.434326172,6504012.584686279,-2797816.038131714,-3667601.8238067627,-1958760.0231170654,-5565275.6690979,-2855379.104614258,1160685.658454895,-2340348.0052948,12338599.20501709,10650385.856628418,-799665.1530265808,-8100625.991821289,-1077711.582183838,625866.4131164551,5224527.359008789,5357542.514801025,13638880.729675293,13055261.611938477,9496212.95928955,14086779.594421387,-1560692.9063796997,5963570.594787598,8320755.958557129,9571443.557739258,14309189.796447754,13341782.569885254,5802630.90133667,8452227.592468262,2986518.621444702
0.05,6431372.165679932,-9804450.988769531,-41835235.595703125,2607478.8570404053,-32913944.244384766,42022830.963134766,55716888.427734375,9134657.859802246,-1359137.5350952148,-9354379.653930664,-28521125.79345703,-30329435.348510742,-30011388.778686523,-36708408.35571289,41641197.204589844,14070930.480957031,-23021602.630615234,-560440.3018951416,-439529.3891429901,-11746400.833129883,-11257746.696472168,-12802540.77911377,-18555032.73010254,17165756.225585938,2703145.2655792236,-3459454.7748565674,-8637977.600097656,-1855640.7690048218,-9191055.297851562,-5574868.679046631,-7804860.1150512695,-14888536.45324707,23865634.91821289,6953191.757202148,-5119278.907775879,-5702752.113342285,-2213018.6557769775,-7577302.4559021,-2266182.6610565186,2735663.890838623,562993.1092262268,15564635.276794434,13714370.727539062,-87277.41241455078,-6819896.221160889,-980722.3081588745,2392321.825027466,9600014.686584473,9681766.510009766,19197082.51953125,16975294.11315918,12309882.164001465,19974695.205688477,-1387821.3167190552,10594262.12310791,14301102.638244629,15967504.501342773,20447046.279907227,19241760.25390625,10562070.846557617,15105398.178100586,10606269.836425781
0.055,9321310.043334961,-8951129.913330078,-40529457.092285156,2611627.1018981934,-35031539.91699219,40526149.74975586,56402423.85864258,7529374.599456787,-3241148.2334136963,-12862017.631530762,-31447336.196899414,-32266422.271728516,-31978719.71130371,-36020183.56323242,39910194.396972656,12063876.152038574,-25586246.490478516,-2891848.32572937,-3912694.4541931152,-14377200.12664795,-13903006.553649902,-14434200.286865234,-18942777.633666992,14566408.157348633,474031.7463874817,-5515543.9376831055,-10127277.374267578,-4425415.515899658,-9966029.167175293,-6211623.668670654,-8754689.21661377,-15291960.716247559,22020631.790161133,5108251.094818115,-6862129.688262939,-6555824.756622314,-2200935.6021881104,-8659980.773925781,-2003241.777420044,3127395.1530456543,683924.0789413452,14054809.5703125,12323827.743530273,-621392.9057121277,-5794329.643249512,-884423.3155250549,3069894.552230835,11517924.308776855,11465606.689453125,19053350.4486084,15854585.647583008,11619849.20501709,18564268.112182617,-1169883.4896087646,11386675.834655762,15271818.161010742,16135009.765625,19124551.77307129,17828702.926635742,9707441.329956055,15395508.766174316,10432263.374328613
0.06,26065738.677978516,6727286.338806152,-24172176.361083984,12686642.64678955,-22872442.2454834,45027187.34741211,62152267.45605469,12904060.363769531,3179332.0178985596,-6858076.572418213,-22756132.125854492,-24847032.54699707,-24670688.62915039,-27099060.05859375,44218524.93286133,15793597.221374512,-21377540.588378906,1884693.98021698,-1710389.1372680664,-9604720.115661621,-10258739.471435547,-11229202.270507812,-15606645.584106445,16447671.890258789,1326337.5759124756,-3812901.496887207,-5146594.047546387,-2737833.4999084473,-6145958.90045166,-4068823.81439209,-6846935.272216797,-14714841.842651367,20277425.76599121,4318264.007568359,-6180791.854858398,-5085281.3720703125,-1849932.6705932617,-7171034.812927246,-842774.2719650269,3815164.089202881,-390824.01990890503,11266492.84362793,9716448.783874512,-1160759.687423706,-5461269.378662109,-765368.5808181763,2937943.22013855,11012451.171875,10921277.046203613,16338104.248046875,12175027.847290039,9097942.352294922,13359630.584716797,-984005.331993103,9193627.35748291,12544549.942016602,12377016.067504883,13820055.961608887,12696501.731872559,4930269.241333008,10484271.049499512,5074879.169464111
0.065,34167606.353759766,15179711.34185791,-17586862.564086914,20148281.09741211,-14175876.61743164,49489288.330078125,67142593.38378906,18850292.205810547,10282992.362976074,999326.9443511963,-14882669.448852539,-19197231.29272461,-19121019.36340332,-23677001.953125,48733135.22338867,20886825.561523438,-15650782.585144043,8286164.283752441,4007700.9201049805,-3596658.945083618,-5032315.254211426,-7788185.119628906,-14048838.61541748,20525012.969970703,4595029.354095459,156420.7226037979,45267.76447892189,2044696.8078613281,-1663099.0505218506,-188128.93331050873,-3964015.9606933594,-14094816.207885742,20590547.561645508,5408551.6929626465,-4689366.340637207,-2624469.041824341,-1601004.2428970337,-4064759.2544555664,1733308.6729049683,5474502.5634765625,-1254696.7267990112,9518772.12524414,7940888.88168335,-1728396.5349197388,-6469281.196594238,-729153.3350944519,3423044.6815490723,10389179.229736328,10333535.194396973,15000980.377197266,8369962.692260742,5589417.457580566,9222369.194030762,-1130608.320236206,6501363.277435303,10032673.835754395,9381243.705749512,9589797.973632812,8686789.512634277,-229980.61776161194,5354386.806488037,225086.40587329865
0.07,26159254.07409668,8379793.167114258,-26937429.428100586,17771888.732910156,-17894798.278808594,47561576.84326172,66006080.627441406,18593606.94885254,11153050.422668457,3096219.778060913,-15161550.521850586,-21734140.396118164,-21712562.561035156,-29077356.338500977,46929313.65966797,21039106.369018555,-14722576.141357422,10323146.82006836,7564597.129821777,-1788254.4994354248,-3727938.652038574,-8259848.594665527,-16358797.073364258,21316843.032836914,6526441.57409668,2242009.401321411,657445.6691741943,5543373.584747314,-268919.85535621643,1558104.2766571045,-3721464.6339416504,-14915728.569030762,21101932.525634766,6721961.02142334,-4153283.11920166,-1145747.5423812866,-1717239.8567199707,-2470367.670059204,3528165.102005005,6102723.121643066,-2374632.5969696045,8763584.13696289,7055274.963378906,-2025009.3936920166,-7525589.466094971,-786868.8702583313,4415512.0849609375,10191161.155700684,10121798.515319824,14670056.343078613,6312111.377716064,2891657.829284668,7897545.81451416,-1558613.896369934,4613420.9632873535,9224540.710449219,8224738.121032715,8294020.652770996,7434129.71496582,-2984714.5080566406,3333162.307739258,-1774550.5571365356
0.075,19755920.41015625,3218852.0431518555,-32009449.005126953,13351512.908935547,-21993787.76550293,40314506.53076172,60821949.00512695,14226845.741271973,8414645.195007324,1958039.7605895996,-17069675.44555664,-24887912.75024414,-24897891.998291016,-31823991.775512695,39632946.0144043,16483745.574951172,-17895629.8828125,8639562.606811523,7783139.228820801,-2223865.9858703613,-4738386.154174805,-9604155.540466309,-17126358.032226562,17652076.721191406,5199200.15335083,659273.2667922974,-1943841.2189483643,5640977.382659912,-841012.2990608215,598527.3122787476,-5381350.994110107,-15435571.670532227,19416938.78173828,6514626.979827881,-4430003.643035889,-1341784.0003967285,-1883985.7578277588,-3208639.621734619,3522678.3752441406,5401102.542877197,-3615181.4460754395,7920591.831207275,6234898.567199707,-1706910.1333618164,-7033305.644989014,-795211.9708061218,5115441.799163818,10044213.29498291,9880156.517028809,13737103.462219238,6318496.7041015625,2584161.2815856934,7787918.567657471,-1793458.4617614746,3565261.6024017334,8984620.094299316,7224189.758300781,8253278.732299805,7296967.029571533,-3195085.048675537,3554374.4564056396,-2915529.251098633
0.08,29124376.29699707,14025611.877441406,-19385078.43017578,17001926.42211914,-13701802.253723145,34984497.0703125,58812206.26831055,13691284.1796875,9661277.770996094,5181163.787841797,-11737494.468688965,-18972019.19555664,-18964195.251464844,-23852277.755737305,34142551.42211914,13764142.990112305,-18943922.04284668,8869233.131408691,9232972.145080566,701465.3086662292,-1795061.707496643,-5735336.3037109375,-11581447.60131836,14174735.069274902,3298240.4232025146,-1311144.471168518,-2961519.0029144287,5172923.0880737305,946714.6396636963,1584393.1436538696,-3879073.6198425293,-12589649.200439453,16663305.282592773,5271764.755249023,-4422259.80758667,-2212579.4887542725,-1714403.0332565308,-3502714.8723602295,4252732.753753662,6590158.462524414,-3261512.7563476562,6774800.3005981445,5251029.968261719,-1304120.421409607,-5806774.139404297,-721575.0813484192,5737102.508544922,10664270.401000977,10434333.801269531,13339713.096618652,6562132.358551025,3297047.6150512695,6862287.998199463,-1607833.3854675293,3171249.6280670166,8435116.7678833,6099892.139434814,7302345.752716064,6280693.054199219,-3144007.2059631348,3339709.758758545,-5346192.836761475
0.085,37908264.16015625,25560884.475708008,-7792765.140533447,23051408.767700195,-2636092.4243927,33735805.51147461,60397533.41674805,17579030.990600586,14473786.354064941,11476038.932800293,-3520089.864730835,-8856788.635253906,-8722377.77709961,-14402770.042419434,32852832.794189453,15284396.171569824,-15865685.46295166,12342904.090881348,13545345.306396484,6294702.529907227,4929506.778717041,1520390.1529312134,-4776114.463806152,14370690.34576416,3788831.949234009,-127752.4083852768,-908489.7041320801,6968459.129333496,5456885.33782959,6586419.105529785,1557892.6801681519,-7869863.510131836,15961443.901062012,4780119.4190979,-3979565.382003784,-2436613.7981414795,-1374117.136001587,-1611449.7184753418,7099921.703338623,10649902.34375,-995199.44190979,6331456.661224365,4900066.85256958,-1430392.861366272,-5650029.182434082,-749384.1052055359,6809876.441955566,12438476.5625,12285973.54888916,15216511.726379395,5505781.650543213,2519351.4823913574,5436424.732208252,-1360288.9776229858,3451199.769973755,8190443.03894043,6494451.04598999,5725191.116333008,4701127.052307129,-4443804.740905762,2116708.278656006,-7796098.232269287
0.09,20886232.376098633,12594828.605651855,-22483959.197998047,16297058.10546875,-8529926.300048828,28812181.47277832,55949150.08544922,16145998.001098633,13066969.871520996,10243781.089782715,-5516770.839691162,-8555199.62310791,-8221461.296081543,-17521181.106567383,28006999.969482422,13936089.515686035,-14989128.112792969,12711977.9586792,14979164.123535156,6613692.283630371,6693115.234375,2525177.001953125,-5972107.887268066,14599778.175354004,4124326.229095459,1731864.8099899292,7822.615094482899,8677465.438842773,6983916.282653809,9751273.155212402,3830703.2585144043,-6939609.050750732,16983200.073242188,4890800.952911377,-4293245.792388916,-2027205.228805542,-1354239.7022247314,71308.1955909729,8489977.836608887,12837675.094604492,590870.3207969666,7077407.360076904,5627583.026885986,-1814894.199371338,-6046610.355377197,-967737.7343177795,7932643.890380859,13830687.522888184,13858060.836791992,18005159.378051758,4231622.219085693,685143.4111595154,5583852.767944336,-1430491.328239441,4519909.858703613,9032419.204711914,8889520.645141602,5666258.811950684,4607874.393463135,-5918786.04888916,1806809.3061447144,-7329282.283782959
0.095,-9743077.278137207,-15249683.380126953,-50425395.96557617,-1497388.1244659424,-27772825.241088867,16379592.895507812,42119827.27050781,5321391.1056518555,2148064.374923706,-1272029.2806625366,-18992198.944091797,-18730491.638183594,-18267992.01965332,-29665580.74951172,15561385.154724121,4741629.600524902,-21062551.498413086,5840384.006500244,9530128.479003906,-1604155.18283844,-607375.5025863647,-5585851.192474365,-14070723.533630371,9905883.7890625,63093.192875385284,-605357.2297096252,-3912185.9073638916,6458745.002746582,1807489.514350891,5516311.168670654,-1907255.8879852295,-11335615.158081055,16049972.534179688,3838703.6323547363,-5788689.136505127,-1870029.8070907593,-1712813.0197525024,-1131896.3766098022,5146247.386932373,9434391.021728516,-543943.4051513672,7945502.758026123,6531235.694885254,-1712814.6886825562,-4906555.17578125,-1134778.2611846924,8379822.731018066,13467988.014221191,13587115.287780762,18781875.610351562,4579145.431518555,473896.89087867737,7766508.57925415,-1649770.0214385986,6162568.56918335,10495131.492614746,11221351.623535156,7677761.554718018,6545509.338378906,-5955421.924591064,3307125.0915527344,-4160228.729248047
0.1,-5360545.1583862305,-12388520.240783691,-45371540.06958008,-4645514.965057373,-30421136.8560791,10961926.460266113,35744640.3503418,-897425.8899688721,-4658330.917358398,-8641676.902770996,-26728647.232055664,-21594921.112060547,-21162500.381469727,-30915283.203125,10034408.569335938,-1721753.9548873901,-26584095.001220703,-592662.5728607178,3987486.1240386963,-9009543.418884277,-7162579.05960083,-11363412.857055664,-16539619.445800781,4927818.298339844,-4495840.072631836,-4546110.153198242,-8676209.449768066,2383022.5467681885,-4511341.094970703,-1090932.4884414673,-8744032.859802246,-14836955.070495605,13097208.023071289,2699417.3526763916,-6073687.553405762,-1619641.1848068237,-1932329.6546936035,-3547941.6847229004,634830.117225647,4677798.748016357,-2873773.5748291016,8014231.6818237305,6785269.260406494,-549790.8592224121,-2367515.5639648438,-980719.9239730835,8022777.557373047,12316023.826599121,12308952.331542969,16975246.42944336,5813138.008117676,2172792.673110962,9234949.111938477,-1624324.083328247,7164672.374725342,10911133.766174316,10950134.27734375,9066174.507141113,7933875.08392334,-5955636.978149414,4135780.3344726562,-2774305.820465088
0.105,56837039.947509766,44079277.03857422,11167411.804199219,25014911.651611328,-103040.911257267,32073673.248291016,57097942.35229492,14119043.350219727,7661282.539367676,2425235.0330352783,-14465250.968933105,-5530874.729156494,-5222296.714782715,-12476540.565490723,31213817.596435547,10795664.78729248,-19566225.051879883,4663251.876831055,8027662.27722168,-4626916.885375977,-1430645.46585083,-3960841.8941497803,-7103961.944580078,11348295.211791992,773375.0939369202,-1276805.7584762573,-6542020.320892334,2597982.406616211,-3390376.091003418,-218869.3732023239,-6523373.126983643,-12163654.327392578,14229504.585266113,5981987.476348877,-2088305.950164795,203163.47479820251,-1649519.443511963,-3585730.55267334,1116408.348083496,5264724.254608154,-3889708.5189819336,8644844.055175781,7642301.082611084,2094240.665435791,-1043601.9897460938,-631099.4029045105,6947620.391845703,11888195.037841797,11641941.07055664,14531765.937805176,6034453.392028809,3417416.81098938,7663819.313049316,-1372551.679611206,6074252.128601074,9163224.220275879,7966453.552246094,7528244.972229004,6502660.274505615,-8254620.552062988,1733504.5337677002,-6219524.86038208
0.11,131844741.82128906,112208938.59863281,73493072.50976562,67820266.72363281,37179313.65966797,74211837.76855469,98620132.44628906,43544525.146484375,32278190.61279297,23905538.55895996,7393828.868865967,14359445.571899414,14562539.100646973,6523120.403289795,73686119.07958984,39376617.431640625,-2128786.087036133,19371114.73083496,19072017.669677734,7735805.034637451,11590020.179748535,8669459.342956543,2055083.2748413086,31027601.24206543,17293859.481811523,10392046.928405762,2533712.863922119,7750934.12399292,4271824.836730957,7489127.635955811,1728220.820426941,-8358611.106872559,23456420.8984375,14896908.7600708,5047170.639038086,3374401.092529297,-1190992.2361373901,-1483190.2980804443,5360506.534576416,9475452.423095703,-4475390.434265137,12035356.521606445,11119274.139404297,6008758.544921875,-2011811.9716644287,-475097.2092151642,4989103.317260742,11344448.08959961,10966535.568237305,12740509.033203125,6204887.390136719,3857967.6151275635,5277182.579040527,-1256868.7200546265,3266196.7277526855,6241753.101348877,4748712.062835693,5279078.483581543,4335845.470428467,-11168134.689331055,-1944048.4046936035,-11004617.691040039
0.115,150223419.18945312,124720146.17919922,76972625.73242188,82878005.98144531,39716354.37011719,104485153.19824219,125413772.58300781,59585010.52856445,44215362.548828125,31691909.790039062,13516328.811645508,12099754.333496094,12231260.299682617,-881653.4876823425,104214851.37939453,59307739.2578125,8143343.925476074,27525074.005126953,23438642.501831055,12053490.63873291,14212596.893310547,7102776.527404785,-6140723.22845459,49269844.05517578,31409799.575805664,18940431.594848633,8663414.001464844,10721472.74017334,7909732.341766357,10009261.131286621,1536172.2707748413,-13180104.25567627,35478729.248046875,23302066.802978516,9768725.395202637,5083571.434020996,-1129576.9214630127,-1089391.4699554443,5198918.342590332,8586118.698120117,-7459362.506866455,17936536.78894043,16858600.616455078,9647803.30657959,-3055532.932281494,-645707.4284553528,2479068.7561035156,8764062.881469727,8428024.291992188,11424477.577209473,9599405.288696289,6483381.748199463,6880211.353302002,-1387932.4197769165,1468563.5566711426,4736875.534057617,4040238.857269287,7083156.585693359,6082246.30355835,-9787971.496582031,-1752798.5572814941,-10310441.017150879
0.12,98094360.3515625,67334144.59228516,13941921.23413086,55663963.317871094,871352.3745536804,99343513.48876953,114894935.60791016,46678649.90234375,30371608.73413086,15160810.470581055,-5376120.567321777,-15748770.713806152,-15707990.646362305,-35306804.65698242,98919822.6928711,53422130.5847168,61898.46992492676,19366378.784179688,14195611.000061035,546393.1560516357,-555567.2645568848,-13380848.88458252,-30276374.81689453,51755687.71362305,30566917.419433594,14798648.834228516,4473281.383514404,6426153.659820557,1372612.714767456,930228.2929420471,-12449248.313903809,-26496419.90661621,41695762.634277344,24597404.47998047,8479550.3616333,3420750.379562378,-1512022.0184326172,-3942891.5977478027,-2525889.8735046387,3678.753273561597,-12045143.127441406,23547433.853149414,22092788.696289062,11132205.00946045,-2117210.626602173,-877679.3479919434,763439.5956993103,4912822.723388672,4663959.02633667,11068058.967590332,16677284.240722656,12758502.006530762,13497873.306274414,-1497551.441192627,2930880.069732666,6323593.1396484375,6577871.322631836,13906497.00164795,12767310.14251709,-2810914.5164489746,4161681.1752319336,-2291516.5424346924
0.125,30588472.366333008,-4995002.269744873,-57557163.23852539,14820446.968078613,-43171096.80175781,72626586.9140625,83975402.83203125,20885257.720947266,5787652.969360352,-9693267.822265625,-31344957.35168457,-44895530.700683594,-44964317.321777344,-67934288.02490234,71818199.15771484,33741138.45825195,-16217844.009399414,4082363.1286621094,301740.70596694946,-16077919.006347656,-19078138.35144043,-34698055.267333984,-50049060.8215332,42496006.01196289,19906484.603881836,3956009.62638855,-4930843.353271484,-825136.6019248962,-8615271.56829834,-10795201.301574707,-27054243.087768555,-36320079.8034668,40999645.2331543,20342256.546020508,4063130.3787231445,216938.70425224304,-1855549.8123168945,-6965378.761291504,-10363436.698913574,-7750111.5798950195,-13341377.258300781,26656978.607177734,24799161.911010742,10250258.445739746,-413156.4497947693,-908268.392086029,1125635.5047225952,3330410.957336426,3123381.6146850586,13247866.6305542,23368471.145629883,19401084.899902344,20500097.274780273,-1404402.3752212524,6566717.624664307,10065642.356872559,10869866.371154785,21073816.299438477,19848817.825317383,4738396.167755127,11583469.39086914,7520052.909851074
0.13,3639538.288116455,-34306758.880615234,-82477081.29882812,-3527672.529220581,-57452301.025390625,55518146.51489258,65754249.572753906,8304673.194885254,-6067460.060119629,-20813262.939453125,-41852504.73022461,-53114692.68798828,-53240261.07788086,-74064994.81201172,54526599.8840332,23876420.974731445,-23247955.322265625,-2883491.277694702,-5710071.086883545,-22683189.392089844,-24951358.795166016,-38736995.697021484,-50919017.79174805,36405479.431152344,14192434.310913086,-631311.1782073975,-9077416.41998291,-3590313.9114379883,-11779631.614685059,-13320240.97442627,-27863740.921020508,-34214805.603027344,39062862.396240234,17297327.041625977,1727771.282196045,-1342537.760734558,-1829701.6620635986,-7102735.0425720215,-10225620.26977539,-6635887.622833252,-9215352.058410645,27134527.2064209,25076410.2935791,8499097.82409668,-296626.7764568329,-772206.6640853882,3379189.0144348145,5854932.78503418,5703135.013580322,17689767.837524414,25535652.16064453,22018838.88244629,22946613.311767578,-1253610.372543335,9147747.039794922,13395144.46258545,14440418.243408203,23624830.24597168,22392267.22717285,7370287.895202637,15041692.733764648,12539461.135864258
0.135,15719032.287597656,-20940029.14428711,-65531555.17578125,4430854.797363281,-44910766.6015625,57382331.84814453,68805198.6694336,13403531.074523926,-1117379.5461654663,-15370348.930358887,-34977474.212646484,-44144470.21484375,-44228172.302246094,-60449741.36352539,56474811.55395508,28179012.298583984,-18763786.31591797,807025.8498191833,-2959293.842315674,-17914754.86755371,-18932161.331176758,-29341854.095458984,-40648422.24121094,38165050.5065918,17267749.786376953,3160544.6338653564,-5850230.693817139,-1364756.70337677,-7600245.475769043,-7812428.4744262695,-18511861.80114746,-26565073.013305664,38503486.63330078,17579763.412475586,2343700.885772705,-745898.425579071,-1604193.925857544,-5465868.4730529785,-4434885.501861572,-248180.76193332672,-4614912.509918213,25457775.115966797,23448310.85205078,7079805.374145508,-1510263.9198303223,-630989.4919395447,5947244.644165039,9773663.520812988,9731365.203857422,20721635.818481445,23121570.587158203,20050283.432006836,20731218.338012695,-1215730.1902770996,9100995.063781738,14426896.095275879,15229297.637939453,21431465.14892578,20203210.830688477,5073668.479919434,13551991.46270752,11476734.161376953
0.14,27124029.1595459,-6956985.950469971,-49887615.20385742,15061786.651611328,-32938175.201416016,61360454.55932617,74251335.14404297,19715091.705322266,5720415.115356445,-7872323.036193848,-26394556.045532227,-36937355.041503906,-36909008.02612305,-52343124.38964844,60490165.71044922,31522331.23779297,-14867392.539978027,4854478.359222412,51531.24779462814,-12657299.041748047,-14199019.432067871,-23771917.34313965,-36298469.54345703,39126750.94604492,19703720.092773438,6170106.410980225,-2472668.6477661133,282673.98476600647,-4130384.922027588,-4702681.541442871,-13928524.9710083,-25130517.959594727,36472545.6237793,17332956.314086914,2747970.5810546875,29744.2264854908,-1475325.584411621,-5041488.170623779,-1707238.1973266602,1983926.8922805786,-5682396.88873291,22190332.412719727,20290044.7845459,5990147.590637207,-1783110.0225448608,-522187.0541572571,7279938.697814941,10967655.181884766,10990008.354187012,19012712.478637695,19153957.36694336,16480747.22290039,17476848.602294922,-1223599.3146896362,7991325.855255127,13338827.133178711,12992523.193359375,18095594.40612793,16867067.337036133,1717078.3281326294,10427437.782287598,7818652.153015137
0.145,16578863.143920898,-16184890.747070312,-58127315.521240234,12062110.900878906,-36381221.771240234,54280178.07006836,68039390.56396484,16196456.909179688,3456207.036972046,-8879386.901855469,-27445806.5032959,-40410591.12548828,-40250217.43774414,-59966182.708740234,53293621.06323242,25243499.755859375,-18570014.95361328,2449709.65385437,-1428591.012954712,-14204058.647155762,-17095733.642578125,-28398860.931396484,-41602878.57055664,34083427.42919922,15628526.68762207,3194024.3244171143,-4395453.929901123,-1396626.7108917236,-5993057.2509765625,-7812543.869018555,-18657730.102539062,-30556425.094604492,32329116.821289062,14761335.372924805,1214954.8530578613,-308268.07022094727,-1460188.1504058838,-6178726.1962890625,-4637950.420379639,-1552169.919013977,-10900750.160217285,19402532.57751465,17504758.834838867,5100937.843322754,-558459.222316742,-415972.2328186035,7147464.752197266,9232837.677001953,9178420.066833496,14619795.799255371,16711774.826049805,14376247.40600586,16291212.08190918,-1130081.6535949707,8283450.126647949,12219156.265258789,10311415.672302246,16776254.653930664,15584014.892578125,130959.6598148346,9171380.996704102,5559302.806854248
0.15,-1840474.1287231445,-32860458.374023438,-74083541.87011719,2070442.1997070312,-46204223.6328125,43573451.99584961,58077156.06689453,9238625.526428223,-3248675.82321167,-14487535.47668457,-34310070.0378418,-47417217.25463867,-47143783.56933594,-69021240.234375,42610054.01611328,17925706.86340332,-23909053.802490234,-2360076.427459717,-3968997.001647949,-18889671.325683594,-21395460.12878418,-33408538.818359375,-45702766.41845703,29541828.155517578,10919472.694396973,-735052.1683692932,-9050858.497619629,-3401227.4742126465,-9455426.216125488,-10718484.878540039,-22659851.07421875,-32799797.05810547,30825395.584106445,13394837.379455566,-685760.4384422302,-1335997.462272644,-1405351.5195846558,-6683299.0646362305,-7331213.95111084,-3532245.15914917,-12368711.471557617,19962432.861328125,18018140.79284668,4786822.319030762,242922.42527008057,-359053.8799762726,6587606.906890869,8453574.180603027,8240084.648132324,13734084.129333496,17557439.80407715,15165783.882141113,17880538.940429688,-931226.6707420349,10523055.076599121,13452893.257141113,11033258.438110352,18322700.50048828,17195917.1295166,846287.9061698914,10962576.866149902,6593688.011169434
0.155,-9633780.479431152,-35931106.56738281,-77033088.68408203,-2604661.9415283203,-49654392.24243164,41249355.31616211,56324008.94165039,8037724.494934082,-5497299.1943359375,-16314622.87902832,-37855407.71484375,-49228397.369384766,-48915725.70800781,-64486244.201660156,40617065.4296875,18749364.852905273,-23940591.81213379,-3500022.6497650146,-3363491.5351867676,-20210651.397705078,-20453979.4921875,-30218585.968017578,-41342544.55566406,31987014.770507812,12083623.886108398,-221824.0052461624,-11476930.618286133,-2831124.782562256,-9688925.743103027,-8444759.368896484,-18476577.758789062,-26709589.0045166,34914638.51928711,15800830.841064453,-1243312.3588562012,-2389594.793319702,-1286113.7390136719,-5612112.998962402,-5303199.768066406,501026.6304016113,-6263003.349304199,24090816.497802734,22167943.954467773,5210953.235626221,-508616.3282394409,-397638.11230659485,6586187.362670898,11217744.827270508,10874255.180358887,19398372.650146484,21659873.962402344,18740797.04284668,21377801.8951416,-705571.4130401611,13120075.225830078,17451076.50756836,16279245.376586914,21947320.93811035,20852884.29260254,3573769.3309783936,14950755.11932373,10534956.932067871
0.16,-7643628.5972595215,-29754604.33959961,-70392021.17919922,-1842731.237411499,-47051273.345947266,45994026.18408203,60202529.90722656,10818132.400512695,-3333283.4243774414,-13703514.099121094,-36237182.6171875,-45968276.97753906,-45732254.02832031,-51739986.419677734,45679519.65332031,23897560.119628906,-20802541.732788086,-1652622.6997375488,-714290.976524353,-17977569.580078125,-16451951.98059082,-23254592.895507812,-34175239.56298828,37691070.556640625,16369365.692138672,2697190.046310425,-11144104.957580566,-1167641.4012908936,-7576958.656311035,-4650113.105773926,-11770482.063293457,-18961399.07836914,40683528.900146484,19266948.699951172,-609323.9188194275,-3166513.442993164,-1202679.8725128174,-4688962.936401367,-1725327.0149230957,5989430.4275512695,2047484.3978881836,28541681.28967285,26652736.66381836,6062463.760375977,-1282021.9993591309,-455540.56763648987,6958474.636077881,15219450.950622559,14789475.440979004,27349449.157714844,26741226.196289062,23346378.326416016,25223106.384277344,-493268.4898376465,14413527.488708496,21874715.80505371,22556623.458862305,25944910.049438477,24840427.39868164,7222894.191741943,19178833.0078125,15221573.829650879
0.165,-4448791.980743408,-29725307.46459961,-68158630.37109375,-1958040.9526824951,-44892444.6105957,49084102.630615234,61082611.083984375,11301299.095153809,-2499186.7542266846,-12012785.911560059,-34037345.88623047,-41660854.33959961,-41549888.610839844,-46432090.759277344,48694919.58618164,25452810.287475586,-20004852.294921875,-1136494.0404891968,297291.100025177,-16527462.005615234,-14811569.213867188,-20639743.80493164,-31559455.87158203,39820293.42651367,17899719.23828125,3714977.502822876,-10756142.616271973,-1247846.245765686,-6777489.185333252,-4480096.340179443,-10528576.850891113,-16939212.799072266,42998794.55566406,20365455.627441406,418126.9109249115,-3227984.666824341,-1190539.2408370972,-5640989.780426025,-1485532.522201538,7124923.7060546875,5501331.806182861,30530910.49194336,28581584.930419922,7146222.5914001465,-409472.88274765015,-432377.99406051636,6907111.644744873,16483814.239501953,15999022.483825684,31029718.39904785,29744796.752929688,26278825.759887695,27792322.158813477,-346697.92652130127,14477107.048034668,23978027.34375,25438796.997070312,28450153.350830078,27360183.715820312,9679459.571838379,21709754.943847656,18315942.764282227
0.17,823189.5565986633,-33254882.8125,-68868789.67285156,-1977829.4563293457,-42423728.942871094,48066261.291503906,60016471.86279297,10195205.688476562,-4007774.829864502,-13144757.270812988,-33384719.848632812,-36655437.46948242,-36548271.17919922,-50539234.16137695,47334403.99169922,23738243.103027344,-21496217.727661133,-2745786.428451538,-1283549.427986145,-17551759.719848633,-15432559.967041016,-21289705.276489258,-30612867.35534668,38628189.08691406,16830627.44140625,3002378.463745117,-11551791.191101074,-3100314.140319824,-7638687.610626221,-6412842.750549316,-12279493.33190918,-17732366.56188965,42216739.654541016,19854112.62512207,1291330.6951522827,-2559291.8395996094,-1212510.347366333,-7766054.153442383,-3590530.6339263916,5383547.782897949,4641966.342926025,30814050.674438477,28791007.99560547,8392567.63458252,1202023.6253738403,-362799.7040748596,6604969.9783325195,14954335.21270752,14523495.6741333,29654916.763305664,29970476.150512695,26451963.424682617,28630493.1640625,-354039.7882461548,14880920.41015625,23878145.217895508,24828918.45703125,29017238.61694336,27983438.49182129,10071467.399597168,22298578.2623291,19701936.721801758
0.175,13364019.393920898,-22353303.909301758,-57743171.69189453,4828126.907348633,-32826148.986816406,45949531.55517578,63601791.38183594,12765868.186950684,-3095952.033996582,-12571923.25592041,-30754436.492919922,-28638786.31591797,-28339334.48791504,-49884494.78149414,45043743.13354492,23320362.091064453,-21417209.62524414,-3356988.1916046143,-2780096.7693328857,-18062742.233276367,-13752677.917480469,-17864946.365356445,-23701421.7376709,37793601.989746094,16422645.568847656,2898829.698562622,-12391438.484191895,-4491865.634918213,-7274229.049682617,-5552480.697631836,-9282028.198242188,-13875043.869018555,41165157.318115234,19767812.728881836,1188206.5534591675,-2238168.0011749268,-1281332.015991211,-8872087.478637695,-3435837.745666504,6148525.714874268,5368489.742279053,31065437.31689453,29114173.889160156,9099952.697753906,1442856.4310073853,-353101.13430023193,7269530.773162842,14266159.057617188,14048845.291137695,28212810.516357422,29111810.6842041,25223253.25012207,28368463.51623535,-518235.9218597412,16446290.969848633,23920186.99645996,24175287.2467041,28594043.731689453,27567846.298217773,9879215.240478516,22262657.165527344,20895887.37487793
0.18,30163385.39123535,8928716.659545898,-29751161.575317383,19000854.4921875,-14299371.719360352,42978481.29272461,70025527.95410156,19335721.969604492,3194962.739944458,-5505459.785461426,-22334299.087524414,-17363603.591918945,-16842807.76977539,-35041580.20019531,42189598.083496094,23552829.74243164,-18688480.377197266,-607113.3613586426,-747807.9199790955,-14565818.786621094,-7660579.204559326,-8530826.568603516,-11200609.20715332,35753681.18286133,15781528.47290039,3290591.4783477783,-11932332.992553711,-3660182.7144622803,-4127976.894378662,-1319374.0844726562,-1520022.7499008179,-5745944.499969482,38762809.75341797,18825387.954711914,-343369.9905872345,-2968993.902206421,-1434124.5889663696,-7760465.621948242,-198783.30826759338,9988204.956054688,9153253.555297852,30012723.922729492,28234310.150146484,8200200.080871582,5889.3789537251,-421795.63641548157,9095777.51159668,15891695.976257324,15910224.914550781,29421981.811523438,27438909.53063965,23416116.71447754,26676488.876342773,-739212.2149467468,17460699.0814209,24484409.33227539,24429870.60546875,27056070.32775879,25939502.716064453,9621517.181396484,21796419.143676758,21290761.947631836
0.185,43146240.234375,44160152.435302734,2060745.9545135498,32311630.249023438,6169178.485870361,37435188.29345703,70372337.3413086,24841314.3157959,11929076.194763184,6640835.762023926,-9746603.012084961,-5337905.406951904,-4816719.532012939,-14343210.220336914,36770210.26611328,20852380.752563477,-15411039.352416992,4636097.431182861,5753570.079803467,-7218137.264251709,278542.4590110779,844896.3165283203,-1549798.2501983643,28404951.095581055,11868970.87097168,3095194.3397521973,-9907962.799072266,-273875.32591819763,298224.92599487305,2620883.2263946533,3486127.3765563965,-1171821.95186615,31908481.59790039,14629979.133605957,-2122457.981109619,-3535348.415374756,-1607856.5120697021,-5160352.2300720215,2292279.2434692383,12171946.52557373,10758775.71105957,25113817.21496582,23426069.259643555,5561884.880065918,-1772415.7571792603,-526579.4992446899,10207150.45928955,16426235.19897461,16492835.998535156,29588615.41748047,22726821.899414062,19448551.177978516,21908687.591552734,-980102.8370857239,15159706.115722656,22745090.48461914,22186004.638671875,22508975.982666016,21335994.720458984,6482391.834259033,18932033.53881836,17519903.1829834
0.19,49390975.95214844,63206958.77075195,21498043.060302734,36992023.46801758,19444658.279418945,31075134.27734375,61968627.9296875,25897830.963134766,17704021.453857422,16902391.43371582,696800.6491661072,4209418.773651123,4498416.423797607,-2024644.6132659912,30355663.299560547,16121368.408203125,-13344608.306884766,9423900.604248047,13558801.651000977,193916.78273677826,6328784.465789795,5227820.873260498,262084.7225189209,17658842.086791992,5879212.379455566,3026080.1315307617,-7247161.388397217,4642259.120941162,3875634.6702575684,4279175.281524658,2343695.878982544,-3714636.80267334,22130575.18005371,8394812.58392334,-2770473.003387451,-2591746.0918426514,-1675687.9091262817,-2664000.5111694336,1627764.2250061035,10084764.48059082,6607809.066772461,17260099.411010742,15568553.924560547,2015988.826751709,-3487589.8361206055,-675831.4967155457,9001373.291015625,12546159.744262695,12446796.417236328,24715524.673461914,14688503.26538086,12471159.934997559,14239260.67352295,-1301237.1063232422,9498023.03314209,17181787.490844727,15538075.44708252,14726800.918579102,13711825.370788574,-1460145.115852356,12886177.062988281,8657472.610473633
0.195,48999469.75708008,60410457.611083984,22851633.071899414,31738887.786865234,20492744.44580078,26678031.92138672,50943119.049072266,22877019.88220215,16981687.545776367,18629964.82849121,3040656.328201294,7930388.450622559,8034303.665161133,-1243154.1681289673,25886461.25793457,12861973.762512207,-13569109.916687012,10461578.369140625,16906129.837036133,3125194.549560547,8362331.390380859,5505377.769470215,-2120108.127593994,10367654.800415039,1973812.1032714844,3543541.669845581,-6199383.735656738,8389053.344726562,5612917.423248291,4984758.377075195,-56959.55827832222,-7883120.536804199,15426987.648010254,3985989.0937805176,-3088548.421859741,-1394994.854927063,-1628454.4467926025,-1398475.5277633667,123648.96386861801,6959350.5859375,1062653.4223556519,11191454.887390137,9545622.825622559,-1589685.320854187,-5757551.670074463,-856932.5804710388,7036059.379577637,6943236.351013184,6638563.15612793,18018968.58215332,8156554.222106934,6048175.33493042,7961036.205291748,-1629991.6505813599,4640502.9296875,11685210.227966309,9123562.812805176,8042429.9240112305,7348513.603210449,-9804971.694946289,7299970.1499938965,231582.55219459534
0.2,39808998.107910156,43780677.795410156,10690326.690673828,20021169.662475586,10476922.035217285,22941127.77709961,42502117.15698242,16962387.084960938,9912253.379821777,11235242.84362793,-3518838.882446289,4109385.9672546387,4308558.940887451,-4679202.556610107,22226112.365722656,10820600.509643555,-17169906.616210938,6273198.127746582,12763524.055480957,-110920.77195644379,6267269.611358643,4837107.181549072,-3220572.2332000732,9268967.628479004,1126883.625984192,2854344.367980957,-8861498.832702637,8054531.097412109,5297528.7437438965,5930343.6279296875,1238676.905632019,-7489406.108856201,14949586.868286133,3119134.9029541016,-4652539.253234863,-2284942.388534546,-1615747.570991516,-1471359.8489761353,1259958.8632583618,7375880.718231201,1073896.050453186,10473811.149597168,8935672.760009766,-4163976.6693115234,-7611425.399780273,-922849.8935699463,7729670.04776001,6313280.5824279785,5920943.737030029,17033779.14428711,8304337.501525879,5227756.023406982,7826184.7496032715,-1708504.4384002686,5210787.296295166,12142148.971557617,9605969.429016113,7690128.803253174,7181394.100189209,-11315241.813659668,7099791.526794434,-770786.1065864563
0.205,28304851.531982422,30029695.510864258,-968662.8580093384,10313494.682312012,-451955.646276474,19395572.662353516,38662948.60839844,11594031.33392334,2110537.528991699,2388447.2846984863,-11967551.231384277,-2167514.8010253906,-1701549.2916107178,-5159989.833831787,18782155.990600586,8830636.024475098,-22055976.86767578,331157.71412849426,5634052.276611328,-5564580.44052124,3024294.61479187,5349118.709564209,-1379097.1040725708,11191152.572631836,1570644.2594528198,681943.0589675903,-13559659.004211426,4270411.014556885,3976831.6745758057,7061564.4454956055,5310733.318328857,-3281276.226043701,17703132.62939453,4574742.317199707,-5979644.775390625,-4367562.770843506,-1755031.3472747803,-2078680.9921264648,5424227.714538574,11927560.806274414,6842799.186706543,13722607.612609863,12252368.927001953,-3648761.034011841,-6399950.5043029785,-762067.437171936,11713732.719421387,13077322.959899902,12732389.450073242,23322242.736816406,13356004.71496582,9655943.870544434,12647625.923156738,-1474295.6161499023,10641189.575195312,18644556.045532227,16488489.151000977,12741431.23626709,12084402.084350586,-5848328.113555908,11641684.532165527,4654492.378234863
0.21,39129539.489746094,42078594.20776367,10944853.782653809,16609502.792358398,5248275.7568359375,23422130.584716797,45053573.60839844,15163335.800170898,3798153.1620025635,3820879.4593811035,-10289933.204650879,1273734.9271774292,1877608.299255371,1811632.0371627808,22756065.368652344,11600320.816040039,-21289871.215820312,541690.9456253052,4937892.436981201,-5215646.743774414,4842238.903045654,9862802.505493164,4371498.584747314,14161554.336547852,4278470.516204834,1479225.516319275,-14297391.891479492,2169771.432876587,4872639.179229736,9554179.191589355,9882523.536682129,844096.4818000793,19590232.849121094,7473655.700683594,-3126447.6776123047,-3541486.2632751465,-1975430.3693771362,-2113888.740539551,10463135.719299316,17666435.24169922,11837624.549865723,16719345.092773438,15365187.644958496,1326293.706893921,-1660664.2007827759,-574919.1641807556,15164415.35949707,21603340.14892578,21373933.792114258,29480417.251586914,15812775.611877441,12944437.980651855,15348728.17993164,-1317949.0566253662,14691470.1461792,24000701.904296875,21339429.85534668,15769930.839538574,14805036.544799805,-2269867.181777954,14130768.775939941,7144898.891448975
0.215,92539955.13916016,93712860.10742188,61886932.373046875,47331996.91772461,37706897.7355957,42663917.541503906,67576446.53320312,33912658.69140625,21216056.82373047,21065053.939819336,8293320.655822754,22380519.86694336,22892177.58178711,20670261.38305664,41881385.803222656,25027845.38269043,-9970602.035522461,11776556.015014648,15314899.444580078,5704474.449157715,16132465.362548828,21688476.5625,16835258.48388672,19943393.70727539,11953545.570373535,9212732.315063477,-6855574.131011963,6108091.831207275,10882376.670837402,15475741.386413574,16199951.171875,4930347.442626953,20189949.03564453,11858760.833740234,4563978.672027588,1949896.5740203857,-2111373.9013671875,-1104034.9006652832,14481300.354003906,21748018.264770508,11573908.805847168,16911130.905151367,15937959.671020508,8416055.679321289,2865640.40184021,-727108.7765693665,14061342.239379883,24030679.70275879,23896619.79675293,28215982.43713379,11535231.590270996,10246624.946594238,10903017.9977417,-1670956.015586853,11813140.869140625,21570371.627807617,17529941.55883789,11282487.869262695,10196631.43157959,-7784243.106842041,9553747.177124023,3615.1541862636805
0.22,166643325.80566406,163727249.1455078,131821517.94433594,88242683.41064453,81726844.78759766,69127883.91113281,97259590.14892578,59498935.69946289,45950775.146484375,44930732.72705078,34668876.64794922,51894184.11254883,52269836.42578125,49236370.08666992,68387527.46582031,43731395.72143555,5992420.673370361,28039350.509643555,30165334.701538086,21561288.833618164,32446033.477783203,38439228.05786133,34579711.9140625,27676530.838012695,21822370.529174805,19851882.934570312,4352476.596832275,13703819.274902344,19618766.78466797,23374364.852905273,24957134.246826172,11327653.884887695,20768278.121948242,15928074.836730957,11813767.433166504,8172441.482543945,-2103235.4831695557,238575.7714509964,16464647.29309082,22969261.169433594,8630747.79510498,15000083.923339844,14562451.362609863,12357176.780700684,3165936.7084503174,-1234171.2713241577,9279844.284057617,18776451.110839844,18644126.892089844,21452060.69946289,4684690.952301025,4119300.8422851562,2716067.5525665283,-2381515.9797668457,3750723.123550415,13229365.348815918,8360880.8517456055,2775299.072265625,1838097.333908081,-18337551.11694336,1301646.4710235596,-11764670.372009277
0.225,203278808.59375,199933258.05664062,168678924.56054688,106972885.13183594,103291648.8647461,80921119.6899414,109955604.55322266,71510292.05322266,58297954.55932617,56692283.630371094,47862693.786621094,67813102.72216797,68172683.71582031,71113517.76123047,80384498.5961914,51845012.66479492,13254439.353942871,35865108.489990234,37280933.38012695,29369810.104370117,41771038.05541992,49563217.16308594,47366298.67553711,31055379.86755371,25444925.30822754,23961212.158203125,8891987.800598145,17656387.329101562,23639352.798461914,27442358.016967773,31136619.567871094,18164838.790893555,20765926.361083984,16299938.201904297,12759375.57220459,9672423.362731934,-2030574.083328247,584273.5171318054,15582690.238952637,21284646.98791504,7972311.496734619,13310394.287109375,13079690.933227539,10425903.3203125,-121628.7910938263,-1615144.2527770996,5734491.348266602,11763977.05078125,11558082.580566406,17545755.38635254,2366629.3621063232,1126886.9638442993,-875743.6871528625,-2791700.1247406006,-1628944.0393447876,7531906.604766846,3285628.5572052,-898062.8848075867,-1686462.163925171,-23277751.922607422,-2443370.580673218,-16468626.022338867
0.23,168936264.03808594,169981613.1591797,139662017.82226562,86050323.48632812,84074295.04394531,66143333.435058594,91922531.12792969,58990165.71044922,47399711.60888672,46710205.078125,36161964.416503906,57753417.96875,58132835.388183594,67921882.62939453,65751174.92675781,41050872.802734375,5723531.723022461,28609285.354614258,31775394.439697266,22346725.463867188,36663448.333740234,46065544.12841797,45088443.756103516,25917364.1204834,18868814.46838379,17914762.496948242,1945374.9656677246,14319186.210632324,18686218.26171875,23987436.294555664,28808271.408081055,20061094.284057617,19064554.21447754,12445833.206176758,7684591.770172119,5902895.927429199,-1954293.966293335,-617940.4854774475,11999876.976013184,17810676.57470703,10328434.944152832,13522717.475891113,12926767.349243164,5679570.67489624,-2927566.5283203125,-1457057.8336715698,6366129.398345947,9386348.724365234,9143296.241760254,20827680.587768555,6359268.665313721,3953591.823577881,3771459.5794677734,-2512838.125228882,1017985.463142395,9957801.818847656,6947258.472442627,4102735.0425720215,3219464.7789001465,-18377773.28491211,1675272.7031707764,-9229716.300964355
0.235,96600448.60839844,101964958.19091797,72578369.140625,45458862.3046875,43898967.74291992,38512222.29003906,59122604.37011719,34559604.64477539,24723424.911499023,25819688.79699707,11732004.165649414,33158424.377441406,33449920.654296875,42828590.393066406,38086280.822753906,21983198.165893555,-8105682.373046875,14585620.880126953,21011653.900146484,8397397.0413208,23338335.037231445,32020160.675048828,30939077.377319336,16920082.092285156,8729663.848876953,8528367.042541504,-9356885.91003418,8019489.288330078,9829928.398132324,16844261.169433594,20069831.84814453,15973641.395568848,17073869.705200195,8272167.205810547,2196558.713912964,1437762.8564834595,-1822580.5759429932,-2485083.3415985107,7954166.412353516,14853462.219238281,12704290.390014648,15569220.542907715,14412223.815917969,3073484.8976135254,-3251694.2024230957,-963574.230670929,8786232.948303223,11950609.20715332,11748033.52355957,27446586.60888672,12267377.853393555,9196847.915649414,11788507.461547852,-1876382.3509216309,8467990.87524414,17168180.465698242,14702362.060546875,12506417.274475098,11387227.058410645,-10054616.928100586,8890391.34979248,2816881.8950653076
0.24,48625770.568847656,55024719.23828125,26790575.02746582,20942974.090576172,18806856.155395508,21929527.282714844,40034950.256347656,20198356.62841797,11263876.914978027,13405874.252319336,-2371504.545211792,16311120.986938477,16470417.022705078,20931333.541870117,21412694.931030273,11903649.33013916,-15564893.72253418,7459427.833557129,15470968.246459961,1394189.5961761475,14959610.939025879,21215530.395507812,19500381.469726562,12162693.977355957,4297849.655151367,4486815.929412842,-14170298.57635498,5437622.0703125,5932640.075683594,13253650.665283203,13907978.057861328,11852753.639221191,17300491.333007812,7367473.602294922,299328.476190567,136980.77201843262,-1579817.771911621,-3618007.183074951,6178365.230560303,14291522.979736328,13601771.354675293,17737026.21459961,16346145.629882812,3413706.5410614014,-3034226.417541504,-681202.0540237427,8904944.41986084,14741428.37524414,14537137.031555176,31494770.050048828,15470152.854919434,12249710.083007812,16047777.17590332,-1483625.1735687256,13068186.75994873,21799835.205078125,19167890.548706055,16753103.256225586,15544430.73272705,-6377397.060394287,12801250.457763672,9424117.088317871
0.245,46889297.48535156,52707813.26293945,25995389.938354492,23605916.97692871,20654514.31274414,23540260.314941406,42838245.3918457,22237371.44470215,13588861.465454102,15737181.663513184,1611783.2660675049,15844395.637512207,16005384.44519043,20024339.67590332,23029785.15625,14758601.188659668,-14168332.09991455,10624081.6116333,17204809.188842773,5276808.261871338,16666469.57397461,21393239.974975586,19923881.53076172,13045671.463012695,6236328.125,6373232.364654541,-10500916.481018066,7760540.48538208,8965567.588806152,15170211.791992188,15080065.727233887,12913237.571716309,19007366.180419922,8377295.49407959,634945.273399353,1220273.6139297485,-1305892.2290802002,-3476861.9537353516,6950755.1193237305,15467796.325683594,14130649.56665039,17703205.108642578,16460712.432861328,3198410.0341796875,-4474282.264709473,-769330.084323883,6457108.497619629,14139233.589172363,13811278.343200684,31409021.377563477,15052957.534790039,11681774.139404297,14714028.358459473,-1523737.4305725098,11728224.754333496,20828908.920288086,18187732.696533203,15102657.318115234,14042290.687561035,-8223024.368286133,12140215.873718262,7894031.047821045
0.25,60743225.09765625,66240097.04589844,40727684.020996094,33669330.59692383,30233816.146850586,30157657.623291016,51003490.44799805,28310253.143310547,20017145.15686035,22250633.239746094,10654072.761535645,21333555.221557617,21628835.678100586,30336004.25720215,29742954.25415039,19918228.149414062,-11317521.095275879,15737513.542175293,20117771.14868164,11521232.604980469,21561885.833740234,26624404.907226562,26193595.88623047,13868103.02734375,7658387.184143066,8195150.375366211,-5710220.3369140625,10747519.493103027,12872865.676879883,17919101.71508789,18665069.580078125,16495054.244995117,18301086.42578125,7311270.713806152,-116803.98136377335,1645714.9982452393,-1164516.0913467407,-2548718.9292907715,8097875.595092773,15831735.610961914,14366951.942443848,14339668.273925781,13308312.41607666,27533.836662769318,-6872698.3070373535,-856651.782989502,5060952.186584473,11152101.516723633,10732272.148132324,29064258.575439453,12194642.066955566,8593946.45690918,10962819.09942627,-1723330.2593231201,8291783.332824707,17252992.630004883,14819686.889648438,11135857.582092285,10280920.028686523,-11456119.537353516,9680978.775024414,2872210.2642059326
0.255,59630634.30786133,64344429.01611328,38995773.31542969,32887462.615966797,29015369.415283203,29473072.052001953,50024028.77807617,27585416.793823242,19882549.285888672,22866111.755371094,11847410.202026367,21120594.024658203,21495475.76904297,32140556.33544922,29140613.555908203,18832981.10961914,-12024518.013000488,15894457.817077637,19769498.825073242,12336568.832397461,21933794.021606445,27519832.611083984,27202228.546142578,10802918.434143066,4848110.198974609,6700720.78704834,-5285960.1974487305,11255246.16241455,13054641.723632812,17507581.71081543,17975763.32092285,16196678.161621094,13536465.644836426,3481560.468673706,-2231505.3939819336,628453.4335136414,-1211414.3371582031,-1451535.5825424194,8160421.371459961,14155231.475830078,12414548.873901367,9085952.758789062,8127931.594848633,-4098580.837249756,-8083210.9451293945,-662088.9902114868,7114889.621734619,9160875.32043457,8869472.50366211,25877853.393554688,7804807.186126709,4338290.214538574,7378764.1525268555,-1809588.6707305908,7138345.241546631,14782112.121582031,11893331.527709961,7562554.359436035,6801861.763000488,-14160011.291503906,7128798.007965088,-1436937.8089904785
0.26,49708545.68481445,52838291.16821289,27194015.502929688,26492834.091186523,21913228.98864746,24482818.603515625,44543994.90356445,23636270.52307129,16518619.537353516,20199867.248535156,8279544.830322266,17026121.139526367,17345607.75756836,24429553.985595703,24163810.72998047,14871853.828430176,-13334959.983825684,13670629.501342773,18159719.467163086,9950757.026672363,19029563.903808594,24006105.422973633,21997596.740722656,6866529.941558838,1741924.1666793823,4851271.629333496,-6654397.487640381,10380123.138427734,11880431.175231934,15614208.221435547,14070658.683776855,11685332.298278809,8627425.193786621,764703.3333778381,-3007662.057876587,96292.04869270325,-1331410.4080200195,-523567.0208930969,8132240.295410156,12384919.166564941,8773652.076721191,5563249.111175537,4566210.2699279785,-5420477.390289307,-7323244.571685791,-425496.9358444214,10739601.135253906,10021616.93572998,9971528.053283691,23012624.740600586,3615779.399871826,815463.2449150085,4353165.149688721,-1753590.5838012695,8086195.945739746,14242827.415466309,10125634.19342041,4540734.29107666,3808274.984359741,-17094083.786010742,4613484.3826293945,-4221279.621124268
0.265,50098918.91479492,52729103.088378906,27697389.602661133,27361509.323120117,22744098.663330078,24138395.309448242,44993560.791015625,24325168.60961914,17514768.600463867,21150428.771972656,9157687.187194824,17681953.43017578,17947120.666503906,22771070.48034668,23761987.686157227,14963324.546813965,-11574076.652526855,14126366.61529541,18386386.87133789,10086966.514587402,18675399.780273438,23211658.477783203,19587528.228759766,6960082.054138184,3067485.0940704346,5996770.858764648,-5740425.586700439,10042870.52154541,12848670.00579834,15780995.36895752,13462134.36126709,9976824.760437012,9170918.464660645,2711314.4397735596,-979878.4852027893,1236866.5933609009,-1385148.048400879,-229086.4735841751,9366017.34161377,13517746.925354004,8415466.30859375,7072755.336761475,5934449.672698975,-2782781.1241149902,-5362915.0390625,-520139.09816741943,12539720.53527832,13114717.483520508,13128021.240234375,23433526.99279785,3337635.040283203,1180594.563484192,3397661.9243621826,-1599577.9037475586,9170019.149780273,15500634.19342041,10803656.578063965,3450800.895690918,2803108.6921691895,-18647460.9375,3927324.056625366,-4313920.021057129
0.27,58231952.66723633,62351783.752441406,38910564.42260742,33663627.62451172,30853456.497192383,28865194.32067871,50112392.42553711,28447753.90625,21404207.229614258,24600151.06201172,13545561.790466309,24040500.64086914,24353969.57397461,32824745.178222656,28362552.642822266,18760089.874267578,-8798884.391784668,16179290.771484375,19561260.223388672,12222942.352294922,21604791.64123535,27710559.844970703,25330732.345581055,11401357.650756836,7646111.965179443,8738231.658935547,-4193538.6657714844,9894083.023071289,14219178.199768066,17804943.084716797,18346921.920776367,15941428.184509277,15989851.951599121,8287150.3829956055,1986001.3723373413,2596169.4717407227,-1360339.641571045,-993930.5782318115,11206281.661987305,17909511.56616211,14987886.428833008,13566787.719726562,12171911.239624023,1652520.1797485352,-3163251.6384124756,-874992.4302101135,11776869.773864746,16817159.65270996,16674365.997314453,29382654.190063477,9325919.151306152,7129075.050354004,7303428.173065186,-1349545.7172393799,10845541.000366211,19156501.77001953,15817784.309387207,7280128.002166748,6749806.4041137695,-15166191.101074219,7627070.426940918,668689.1317367554
0.275,58096477.50854492,63594341.27807617,41364257.8125,34502033.23364258,34291999.81689453,32361602.783203125,52063087.463378906,29536651.611328125,21709527.96936035,24669284.82055664,13425055.503845215,28535730.361938477,28887142.181396484,41904998.779296875,31704803.466796875,21066236.49597168,-8483765.602111816,15781255.722045898,19575786.590576172,11864516.258239746,23334854.125976562,32180927.276611328,33659069.0612793,16359260.559082031,10951940.536499023,9622895.240783691,-5820093.154907227,9115552.90222168,12537012.100219727,18734014.5111084,23697858.810424805,25113950.729370117,23974145.889282227,13231854.438781738,3289728.6415100098,2362930.2978515625,-1330912.470817566,-2293497.5624084473,12006371.49810791,22523139.95361328,24408937.454223633,20877782.821655273,19275241.85180664,5044401.168823242,-1490700.4833221436,-1073280.2152633667,10448730.46875,19539083.48083496,19308134.078979492,37591499.32861328,18051454.544067383,15290574.073791504,14902939.796447754,-1098296.9999313354,14077328.6819458,24108564.376831055,23347269.05822754,15036457.061767578,14515307.426452637,-7774652.95791626,13834497.451782227,9007791.519165039
0.28,48072677.61230469,53060264.587402344,31291772.842407227,28383420.944213867,28722911.834716797,32199909.210205078,50302146.911621094,26817770.00427246,18182622.9095459,20941167.8314209,7561145.305633545,26157175.064086914,26410812.377929688,39332557.678222656,31476001.739501953,20382858.276367188,-9403755.187988281,13327593.803405762,19043966.29333496,8761981.010437012,21676254.272460938,31807929.99267578,35950885.77270508,18481315.61279297,11189270.01953125,8207764.625549316,-9490700.721740723,8655985.832214355,9144534.11102295,17714487.075805664,24399005.889892578,28926485.061645508,27280818.939208984,14485056.87713623,2820665.121078491,1100015.2826309204,-1315083.5037231445,-2734644.889831543,11708021.16394043,24222949.981689453,28454959.869384766,23860618.591308594,22337471.00830078,6136635.303497314,-971615.9105300903,-914803.147315979,10282827.377319336,20192401.885986328,20142353.057861328,41133266.44897461,22101688.385009766,19155191.42150879,19614542.00744629,-1032610.1779937744,16715728.759765625,26436653.13720703,27342172.622680664,19961734.771728516,19305431.365966797,-3771713.7336730957,16199153.900146484,13398174.285888672
0.285,40141387.939453125,44300106.048583984,23615427.017211914,23081710.815429688,21086809.158325195,31242527.00805664,49990745.544433594,24622776.03149414,15709913.25378418,17790473.93798828,2532757.043838501,20045038.2232666,20174701.690673828,31801887.51220703,30634565.353393555,19498521.80480957,-8410364.151000977,12230678.55834961,19034488.677978516,6700231.552124023,19183958.053588867,28663253.784179688,31624996.185302734,17414941.787719727,10064387.321472168,6814544.200897217,-10796123.504638672,9389720.916748047,8204339.027404785,16680881.50024414,21575407.028198242,25572875.9765625,24924705.505371094,12550564.765930176,2452876.8062591553,755905.5685997009,-1229220.5095291138,-1713290.2145385742,11797655.10559082,23268404.006958008,25199432.373046875,21290544.509887695,20098505.0201416,5436936.855316162,-1463203.0725479126,-577519.2975997925,11219651.222229004,19231605.529785156,19483131.408691406,37872528.076171875,18537883.758544922,16271228.790283203,17025188.446044922,-1140894.6514129639,16069419.860839844,24102447.509765625,24614351.272583008,17342416.763305664,16555692.672729492,-7517403.125762939,11902100.563049316,9308031.08215332
0.29,37188903.80859375,42536174.77416992,24043365.478515625,21058658.599853516,16642250.061035156,30675575.256347656,50824508.66699219,23719432.830810547,14888991.355895996,15973057.746887207,1414702.5346755981,15520447.731018066,15707142.82989502,30951732.635498047,30314607.620239258,19542118.072509766,-6677346.229553223,12322908.401489258,17717403.411865234,6535077.095031738,18053617.477416992,27375463.485717773,27699802.39868164,15096706.39038086,9272962.57019043,6603016.8533325195,-9201802.253723145,9855425.834655762,9777702.331542969,16684564.590454102,19884412.76550293,21831926.345825195,21080188.751220703,10214312.553405762,3085236.072540283,1619474.2918014526,-1006994.1282272339,-299052.77490615845,12812332.153320312,22636432.647705078,21662551.879882812,17262849.807739258,16322906.494140625,4230222.702026367,-1986607.313156128,-264158.4277153015,12400557.518005371,18788072.58605957,19218082.427978516,33743766.78466797,12973481.178283691,11615680.694580078,11525429.725646973,-1125200.5100250244,13960124.015808105,20891901.01623535,19968717.575073242,11592882.15637207,10831954.956054688,-13537943.840026855,6490056.037902832,2235972.1660614014
0.295,30798137.664794922,38399864.196777344,21306898.11706543,17547502.517700195,13547942.161560059,28572645.18737793,47813838.958740234,20963884.353637695,12097599.029541016,12654172.897338867,661009.2520713806,13810508.728027344,14217885.01739502,35663444.51904297,28412786.48376465,18796415.328979492,-7985297.203063965,10613662.719726562,13494455.337524414,5532868.385314941,17275350.57067871,28422933.57849121,29136049.270629883,13948605.53741455,8985153.198242188,6628494.739532471,-8321125.9841918945,8417664.527893066,10018704.414367676,16554061.889648438,20994869.232177734,23653659.82055664,20159217.834472656,9614112.854003906,3701571.7029571533,2047650.3372192383,-738921.9403266907,306431.0550689697,13421675.682067871,23899774.5513916,23955911.63635254,16505781.173706055,15503603.9352417,3444057.2261810303,-2062590.8374786377,-17312.67012655735,13156903.266906738,20108711.24267578,20571752.548217773,34748558.044433594,12463527.67944336,11313199.996948242,10622824.668884277,-825866.7588233948,14536022.186279297,21660554.885864258,20130069.732666016,10559434.89074707,9930109.024047852,-13813094.139099121,6689145.088195801,1293241.5008544922
0.3,20099796.295166016,27951593.39904785,9931062.698364258,11876058.578491211,10300144.19555664,24974143.981933594,41561054.22973633,16499950.408935547,7681008.338928223,8635598.182678223,-1579699.2778778076,13019636.154174805,13584331.512451172,36328102.111816406,24834634.78088379,16847522.735595703,-12067280.769348145,7552836.4181518555,9366556.167602539,3322704.553604126,15781053.54309082,28720907.21130371,33168125.15258789,14781702.041625977,8953432.083129883,6212738.513946533,-9518527.030944824,6342572.212219238,7793481.826782227,15380321.502685547,22129348.754882812,28309446.334838867,22110307.693481445,10446554.183959961,3339906.930923462,1267976.7608642578,-639083.8027000427,463839.41173553467,12345050.811767578,24887897.491455078,28478744.506835938,18815788.26904297,17554931.640625,3082351.4461517334,-2222602.605819702,75073.86803627014,13059877.395629883,21213006.9732666,21676219.940185547,38434013.36669922,16256223.678588867,14686505.317687988,14176414.489746094,-563792.8247451782,17295875.549316406,24825929.641723633,24137502.670288086,14281384.468078613,13708389.282226562,-9591638.565063477,10769354.820251465,6671770.095825195
0.305,14482771.873474121,19975194.931030273,359297.81198501587,9039023.399353027,8665813.446044922,22552419.662475586,38183155.05981445,14083129.8828125,5923130.035400391,7829498.291015625,-2573216.9151306152,11499764.442443848,12057200.43182373,30804594.039916992,22271884.91821289,15372994.422912598,-14817053.79486084,6637839.317321777,9384135.246276855,2680231.5711975098,14500090.599060059,26650518.4173584,33832687.37792969,15780375.480651855,8889548.301696777,5745515.823364258,-10322175.025939941,5917438.03024292,6138412.4755859375,13875570.297241211,20332513.8092041,28668056.48803711,23305086.135864258,10860001.564025879,2540358.781814575,599473.1187820435,-813242.1374320984,1156788.4683609009,10164381.980895996,22669223.78540039,27383178.7109375,20021156.311035156,18581642.150878906,2718416.213989258,-2580828.4282684326,-149573.1770992279,12327960.968017578,19419221.878051758,19858512.87841797,37934986.11450195,17660724.639892578,15957420.349121094,15133930.206298828,-735014.2002105713,17502962.112426758,24610101.6998291,25146179.19921875,15479657.173156738,14831150.05493164,-9362425.804138184,11532245.635986328,9870816.230773926
0.31,14676080.703735352,17934967.041015625,-1254734.992980957,8660424.23248291,6974345.2072143555,21667230.6060791,38553977.966308594,13675631.523132324,6345544.338226318,8972552.299499512,-2420848.1311798096,8033987.998962402,8565201.759338379,25683427.810668945,21206029.891967773,14492609.024047852,-15236295.700073242,7502295.49407959,11643489.837646484,3395799.398422241,13529777.526855469,23341640.47241211,29485700.607299805,14775057.792663574,8109839.43939209,5008912.563323975,-9945920.944213867,6256188.39263916,6341680.04989624,12554437.637329102,16065250.396728516,23364530.563354492,22034782.40966797,10067576.40838623,2139647.2454071045,1069208.6219787598,-1083171.7252731323,1998193.9792633057,8580360.412597656,18257116.317749023,20831157.684326172,18510734.55810547,17072437.286376953,2450250.3871917725,-2176329.6127319336,-572307.1098327637,12234322.547912598,16210962.295532227,16539392.471313477,33099475.860595703,14732624.053955078,13468577.38494873,11346220.970153809,-1136258.840560913,14483369.827270508,20746530.532836914,21638910.2935791,11693751.335144043,10981234.550476074,-15131288.528442383,8025017.738342285,7140155.792236328
0.315,8721587.181091309,11698019.027709961,-5456435.203552246,3656750.9174346924,-349864.8405075073,19882823.944091797,36633975.982666016,10748821.258544922,3264396.905899048,5825409.412384033,-6200017.929077148,1928203.4635543823,2528110.980987549,23964191.436767578,19317441.940307617,12465527.534484863,-16846019.744873047,5522544.860839844,10371503.829956055,1238723.2780456543,10911581.039428711,20123115.53955078,24002649.307250977,12822071.075439453,6515589.237213135,3104341.2685394287,-11335903.16772461,4460670.948028564,5508898.2582092285,10845819.473266602,12280032.15789795,18757816.314697266,21305912.017822266,9479372.97821045,1731266.0217285156,1476799.2496490479,-1144308.32862854,1715051.0549545288,8493474.006652832,16278123.85559082,17830593.10913086,17827302.932739258,16428136.825561523,2789722.204208374,-881722.6886749268,-726550.3406524658,13788995.742797852,16399682.998657227,16569852.828979492,31574499.130249023,13455388.069152832,12318940.162658691,9686500.549316406,-1122184.3957901,13865952.491760254,19990428.924560547,20428714.752197266,9823866.844177246,9179366.111755371,-18458982.467651367,7490913.391113281,5436204.433441162
0.32,-6459863.185882568,-3473347.9022979736,-19930501.93786621,-6581546.306610107,-12240903.854370117,17071269.989013672,30438795.08972168,4754268.646240234,-3810720.205307007,-2002042.7703857422,-14770129.203796387,-4516307.830810547,-3883859.157562256,21901432.037353516,16524580.001831055,9629265.785217285,-20841819.763183594,-32789.65875506401,5434733.867645264,-4554858.684539795,6709139.823913574,17734468.460083008,21896232.60498047,13395021.438598633,5418714.52331543,619174.2420196533,-15678574.562072754,1103009.819984436,2104727.7450561523,9088375.091552734,11250720.024108887,20459272.384643555,24578559.87548828,10633369.445800781,434593.67752075195,299882.9185962677,-949996.292591095,504761.57665252686,9405963.897705078,19246417.999267578,23837024.688720703,21166419.982910156,19673635.482788086,3476145.7443237305,-677230.4773330688,-393974.6022224426,15757350.92163086,21113252.639770508,21197229.385375977,37488376.61743164,18192207.33642578,16085449.21875,15165207.862854004,-550712.2278213501,18666967.391967773,25699798.583984375,25969066.619873047,15188215.255737305,14646521.56829834,-13435333.251953125,13697448.73046875,11082555.770874023
0.325,-15142761.23046875,-13930428.504943848,-31909513.473510742,-11638031.959533691,-17816183.09020996,16174390.79284668,26409084.32006836,1908653.8553237915,-6931044.578552246,-5769496.440887451,-20111875.534057617,-6070571.8994140625,-5598120.212554932,18389717.10205078,15740886.688232422,8867612.838745117,-22779943.466186523,-3075963.9739990234,3953426.8379211426,-7875138.282775879,5236670.49407959,17551551.818847656,24102138.51928711,17245677.947998047,5957950.592041016,-140393.61476898193,-18997140.884399414,793056.309223175,-262961.83466911316,9331530.570983887,12845978.736877441,26366586.685180664,30254264.83154297,12796862.602233887,-1246882.2002410889,-1511823.8925933838,-815929.2936325073,217867.97046661377,10323918.342590332,23957805.633544922,32844287.872314453,26053520.20263672,24341363.90686035,3393324.375152588,-3152346.611022949,-36847.64355421066,15429419.51751709,24775070.190429688,24886224.7467041,44575817.1081543,24153573.989868164,20532859.802246094,21874971.389770508,-146591.97628498077,23103477.478027344,31310796.7376709,32299175.262451172,22034975.051879883,21453981.399536133,-6991883.754730225,19538633.346557617,18420314.78881836
0.33,-6376152.038574219,-7259120.941162109,-26322250.366210938,-5292073.726654053,-10766363.143920898,17856977.462768555,28892402.64892578,5825083.255767822,-1426811.4566802979,-4769.069608300924,-15864455.223083496,-954514.0862464905,-715570.1518058777,17936645.5078125,17548517.22717285,10982650.756835938,-19295583.724975586,590386.8079185486,9672140.121459961,-3984866.142272949,9463234.901428223,20349679.946899414,28032285.690307617,20940149.307250977,7401831.150054932,1793688.8933181763,-17486495.971679688,5432841.3009643555,1955729.2461395264,12322383.880615234,15088543.891906738,30045841.217041016,33656665.80200195,14112519.264221191,-1545612.4544143677,-1583020.3294754028,-1015409.2311859131,1650906.2051773071,10639921.188354492,25303888.32092285,35459224.700927734,27977499.00817871,26068593.978881836,2414288.5208129883,-6442462.921142578,-245805.42743206024,12170761.108398438,22138904.571533203,22350412.368774414,44697853.088378906,24409816.74194336,19958908.081054688,20991960.525512695,-571891.6058540344,20333753.58581543,29008598.32763672,30976644.51599121,21346349.716186523,20608278.274536133,-9579704.284667969,16445198.059082031,17049098.96850586
0.335,5172043.800354004,5131302.833557129,-12435802.459716797,2783556.4613342285,-1151118.9937591553,19239166.259765625,32323196.411132812,10715245.246887207,5372334.003448486,7737563.610076904,-7955261.23046875,4502991.199493408,4692608.35647583,21153223.037719727,18990968.704223633,13103514.671325684,-14304938.316345215,6123631.477355957,15947533.60748291,2495995.044708252,15160131.454467773,23537046.432495117,30112771.98791504,22314220.428466797,8588827.133178711,4280444.622039795,-13455505.37109375,10165897.369384766,6145092.010498047,15254643.440246582,15858372.688293457,28789630.889892578,34250865.9362793,14761352.5390625,350793.2126522064,337403.41663360596,-1376917.7198410034,3165087.2230529785,10348562.240600586,22710975.646972656,31307527.542114258,27692697.525024414,25687675.47607422,2373335.361480713,-6870860.0997924805,-863927.7219772339,8953932.762145996,16121814.727783203,16484836.57836914,39372028.35083008,20983238.220214844,16682989.120483398,14278683.66241455,-1419345.3788757324,13122046.47064209,21263755.798339844,23570205.688476562,14615330.696105957,13823481.559753418,-19490146.63696289,7196249.485015869,7549068.927764893
0.34,659821.3911056519,4048085.6895446777,-10919941.902160645,845564.2461776733,-2303168.296813965,20230123.51989746,30463529.586791992,9831310.272216797,4287590.503692627,7017700.672149658,-6732576.370239258,3132386.9228363037,3453884.8400115967,21999849.319458008,19978593.826293945,13729625.701904297,-13737600.326538086,6378398.895263672,14502788.543701172,3501700.8781433105,15602657.318115234,23394451.141357422,29156135.55908203,24437656.40258789,10377692.222595215,4928126.811981201,-12002112.38861084,9348423.00415039,6962270.259857178,15000688.552856445,14833771.705627441,25977619.171142578,36716754.91333008,16934598.922729492,3134737.014770508,1928974.0324020386,-1479892.8499221802,3020203.113555908,9943344.116210938,20555780.4107666,28374511.71875,30067607.879638672,27997629.165649414,4860172.748565674,-3764730.930328369,-1118568.8972473145,8968494.415283203,14271889.686584473,14807689.666748047,37013050.0793457,21904844.284057617,17913593.292236328,11703438.758850098,-1652091.9799804688,10463967.323303223,17502756.118774414,19529579.162597656,11804320.335388184,11192262.649536133,-24983304.977416992,2472147.226333618,1240152.0013809204
0.345,-7073211.669921875,-2167141.1991119385,-16193151.473999023,-4180882.453918457,-8018588.066101074,26004266.7388916,28262346.267700195,7198001.384735107,-695214.0927314758,1128754.97341156,-10441890.716552734,-516113.16204071045,-173164.77000713348,20621927.26135254,25751117.706298828,15991000.175476074,-16119796.752929688,3002710.1039886475,8073204.99420166,-278887.2718811035,12076576.232910156,21888996.124267578,29312259.674072266,30698293.685913086,14451472.282409668,4639365.673065186,-13423361.778259277,4707108.497619629,4574755.668640137,13110929.489135742,14609361.64855957,26871297.83630371,43023818.96972656,21044391.632080078,4936052.322387695,1809980.5116653442,-1230256.3190460205,2037934.0648651123,10300681.114196777,22468389.5111084,31568328.857421875,35329380.03540039,33205486.297607422,8447912.216186523,-639690.8760070801,-682062.8046989441,11528292.655944824,18291604.99572754,18905557.63244629,40419525.146484375,27867679.595947266,23775218.963623047,16149751.663208008,-1005983.4718704224,14670889.854431152,20783964.157104492,22644313.81225586,16012025.833129883,15700624.465942383,-21550724.029541016,5816166.400909424,3670290.231704712
0.35,17284582.138061523,19708230.97229004,5335080.623626709,7465177.536010742,4764631.748199463,38990543.365478516,36072792.053222656,13570122.718811035,3875487.5659942627,4746940.135955811,-5236154.079437256,8778327.941894531,8880234.718322754,30634214.401245117,38762363.43383789,22788791.65649414,-13806865.692138672,4771599.769592285,7944375.038146973,794476.5090942383,14551492.691040039,27740621.56677246,38763130.18798828,38001430.51147461,19867408.752441406,6409712.314605713,-13051519.393920898,3623138.189315796,4994612.693786621,14955195.426940918,19316339.49279785,34449768.06640625,47517814.63623047,24008895.874023438,5412328.720092773,1590286.0164642334,-990750.253200531,2605377.435684204,12346525.192260742,27605152.130126953,37483524.322509766,36744285.583496094,34745487.213134766,9731719.017028809,-880590.8560752869,-144735.2021932602,13026168.823242188,22043878.55529785,22538311.004638672,43566600.79956055,29599920.27282715,25445081.71081543,18730499.267578125,-379463.16599845886,18383157.73010254,24430704.11682129,26567464.82849121,18492013.931274414,18407733.917236328,-18278921.127319336,9162275.314331055,6780253.4103393555
0.355,80598800.65917969,81227951.04980469,68499649.04785156,39843841.552734375,45135139.46533203,51604473.11401367,52915924.072265625,30370271.682739258,21738632.202148438,23645700.454711914,15601004.600524902,38095672.607421875,37936855.31616211,62757041.931152344,51373729.70581055,30598546.981811523,-4183135.0326538086,14789713.859558105,18823469.161987305,12030146.598815918,28968328.47595215,46315509.79614258,61499984.74121094,39096801.7578125,22818212.509155273,10688283.920288086,-8659486.770629883,9388639.450073242,11522013.664245605,22964101.791381836,30438585.28137207,48080131.53076172,43579601.2878418,22620100.021362305,5458847.522735596,3178452.730178833,-1065961.0033035278,5507774.353027344,16308012.008666992,32904232.025146484,41107055.6640625,29751739.501953125,28165901.18408203,7287180.423736572,-3886987.6861572266,-190276.6227722168,11855199.813842773,20896894.454956055,21156034.469604492,41688262.939453125,21196439.743041992,17590812.68310547,12123090.744018555,-607547.4619865417,15689987.182617188,22738920.211791992,25228685.37902832,11863864.89868164,11852629.661560059,-23927547.454833984,4958163.738250732,1483925.700187683
0.36,140116378.7841797,145810379.0283203,138433700.56152344,70268928.52783203,90063644.40917969,52235023.498535156,63878299.713134766,44647712.70751953,39444763.18359375,44694683.07495117,39797454.833984375,72811157.2265625,72695732.11669922,104796836.85302734,51941585.540771484,31774808.883666992,5219657.897949219,25102180.48095703,32007354.736328125,26233922.958374023,47621406.55517578,69946098.32763672,89512542.72460938,31362501.14440918,20375135.42175293,13752602.577209473,-4065381.0501098633,16930278.778076172,19735630.03540039,32683429.718017578,43678356.1706543,63285961.15112305,32669872.283935547,17178466.796875,5145089.626312256,5424345.016479492,-1274156.3320159912,8946793.556213379,20981410.98022461,36581886.291503906,42528194.427490234,19155139.923095703,18021421.432495117,3047591.4478302,-6581226.348876953,-657928.7648200989,10475613.594055176,18061641.693115234,18178207.397460938,38301372.52807617,9353778.839111328,6581208.229064941,1541615.605354309,-1325604.2003631592,10312113.761901855,18786291.122436523,21363733.291625977,1242143.988609314,1171150.2075195312,-34032524.10888672,-3402478.9333343506,-8767539.978027344
0.365,148430984.4970703,165077087.40234375,164252532.95898438,73790206.90917969,106946495.05615234,38172286.98730469,56922248.84033203,43374397.27783203,41732284.54589844,50662284.85107422,49172401.428222656,89262435.91308594,89460762.02392578,130054031.37207031,37820316.314697266,23097387.313842773,5329080.581665039,26376829.147338867,35941436.767578125,32146339.416503906,56736976.623535156,83549072.265625,107415550.2319336,19577459.33532715,13302262.306213379,11663613.319396973,-3917027.473449707,19442396.16394043,23017889.02282715,37320884.704589844,51786941.52832031,73462631.22558594,22564157.485961914,10521632.194519043,3210398.6740112305,5317258.358001709,-1213032.9608917236,10592921.257019043,24062675.47607422,38304019.927978516,44630992.8894043,13222814.559936523,12191329.956054688,-551513.4930610657,-7374086.856842041,-817418.9329147339,11750967.979431152,18836788.177490234,18993719.10095215,39121574.40185547,4519032.4783325195,2020575.0465393066,-2708398.1037139893,-1501983.7617874146,9381775.856018066,18603176.11694336,21163450.241088867,-3064813.8523101807,-3273984.670639038,-37621212.005615234,-7041018.962860107,-13204076.766967773
0.37,107728759.765625,133190002.44140625,135996185.30273438,51617294.31152344,89680488.58642578,18789005.279541016,36964519.50073242,28540536.880493164,29084383.010864258,39988151.55029297,40537200.927734375,80429000.85449219,80875167.84667969,126941169.73876953,18448741.912841797,9686487.197875977,-3575734.1384887695,19047044.75402832,29432258.60595703,27685033.798217773,52135646.82006836,80805801.39160156,107603279.11376953,10004040.718078613,5219437.122344971,5183901.786804199,-7612698.078155518,16259065.628051758,20462398.529052734,35254707.33642578,51728950.50048828,75076515.1977539,18066785.81237793,5041440.486907959,-584763.4077072144,2258787.8704071045,-816811.6807937622,9682622.909545898,23955450.0579834,38106578.8269043,47928592.681884766,13584797.859191895,12293805.122375488,-2947777.032852173,-7084689.617156982,-405300.19998550415,14771679.878234863,22576156.616210938,22862569.80895996,43703094.482421875,7556282.043457031,4507197.856903076,1100576.5199661255,-855423.8677024841,13395268.440246582,22357015.60974121,25122070.3125,724006.1163902283,396998.0180263519,-32218120.574951172,-3300234.55619812,-8390059.471130371
0.375,61778205.87158203,88052879.3334961,90330474.85351562,26635692.596435547,61784309.38720703,5506708.145141602,19357547.760009766,13713194.847106934,14955332.75604248,26036985.397338867,26976814.27001953,61653141.021728516,62081451.416015625,109855140.68603516,5192461.4906311035,-192131.29580020905,-12808088.302612305,11395925.521850586,20838563.919067383,20527782.440185547,42500457.763671875,70119026.18408203,97440345.76416016,5047134.876251221,-6608.125288039446,-497921.8542575836,-10653025.62713623,11936893.463134766,16618719.100952148,30982780.45654297,47572605.13305664,71234878.54003906,17572135.92529297,2065419.9123382568,-3767285.5854034424,-745780.7660102844,-432644.96326446533,7145513.05770874,21495010.375976562,36865127.56347656,50696197.509765625,15412030.220031738,13884503.364562988,-4304201.602935791,-6752038.478851318,59877.94324755669,16093387.603759766,24549650.192260742,24936151.5045166,47164062.5,11044079.780578613,7171841.144561768,5942490.577697754,-186496.63031101227,16740173.33984375,25415571.212768555,28672147.750854492,5586846.351623535,5277297.9736328125,-25461036.682128906,2568677.6638031006,-905719.1610336304
0.38,39937637.32910156,61419826.50756836,61513885.498046875,14253997.802734375,44815212.24975586,851453.6619186401,12146927.833557129,7496411.8003845215,8316801.071166992,19081436.157226562,19505039.21508789,49423728.942871094,49703586.57836914,96896728.515625,473276.16810798645,-3358931.303024292,-16126707.077026367,8524240.493774414,16654195.785522461,16890321.731567383,36817008.97216797,62324577.33154297,88207511.90185547,3582901.954650879,-939329.3261528015,-1540362.4773025513,-10918686.866760254,9636507.034301758,14744380.950927734,28825134.27734375,44677413.94042969,67365905.76171875,17726896.286010742,2137591.600418091,-3736276.388168335,-891555.8457374573,-368301.30219459534,4674881.458282471,19329917.907714844,36330413.818359375,51838367.4621582,15417654.991149902,13910570.14465332,-4229189.872741699,-6423280.239105225,49524.154514074326,14689157.485961914,23533189.77355957,23931461.334228516,47248561.85913086,10671350.479125977,6346520.42388916,6941793.441772461,-245517.62640476227,16171863.555908203,25425918.579101562,29264917.373657227,6632327.079772949,6455400.9437561035,-23681179.04663086,5353023.529052734,2945700.4070281982
0.385,31355510.711669922,48782352.447509766,48022182.46459961,9140362.739562988,37125701.904296875,-1564452.4097442627,9916120.529174805,5969648.838043213,5818039.894104004,16676494.598388672,15939706.802368164,43564449.310302734,43782642.36450195,88377952.5756836,-2069851.3984680176,-4021188.735961914,-15953065.872192383,7737729.072570801,15637698.17352295,15254413.604736328,34394847.86987305,57976177.21557617,81420310.9741211,2713692.9035186768,-205043.36059093475,38283.24377536774,-10800936.698913574,8572151.184082031,13806491.85180664,28332351.684570312,43012050.62866211,63901103.97338867,16566118.240356445,3480178.5945892334,-1828411.2215042114,833221.0779190063,-558608.1147193909,3869856.834411621,19284524.91760254,36967060.08911133,50710914.611816406,14090747.833251953,12699736.595153809,-3379882.574081421,-6192839.1456604,-274861.51456832886,13575783.729553223,22796751.022338867,23058256.149291992,45176170.349121094,8308440.208435059,4129108.428955078,5590414.047241211,-793392.4794197083,14030669.212341309,23819005.966186523,27946714.401245117,5368580.8181762695,5262625.217437744,-25797674.17907715,4599206.447601318,3098870.7542419434
0.39,15504173.278808594,32429344.177246094,32334037.78076172,718406.7964553833,27016756.057739258,-8301569.938659668,4125500.202178955,1486243.486404419,894997.4775314331,12153620.719909668,9560671.80633545,35181537.62817383,35450012.20703125,75124984.74121094,-8855469.703674316,-8286817.55065918,-18191333.770751953,4623236.656188965,13739654.541015625,11769301.414489746,29840047.83630371,51208862.3046875,71562698.36425781,-1313264.7275924683,-2635091.0663604736,-1023367.7625656128,-13144829.750061035,7123828.411102295,11951737.403869629,26846839.904785156,38995391.845703125,57055046.08154297,12222708.702087402,1987266.4213180542,-2385474.920272827,1205223.560333252,-734089.195728302,5200942.516326904,20625120.162963867,36932132.720947266,46274223.32763672,11224384.307861328,9885268.211364746,-4279286.861419678,-6640552.520751953,-362865.74602127075,15716945.64819336,24251699.447631836,24208971.02355957,41763435.36376953,5396134.376525879,1902675.2710342407,4040059.0896606445,-1054609.5371246338,13549982.070922852,21995882.034301758,25677978.515625,3942240.9534454346,3737031.6982269287,-28421512.603759766,2297456.979751587,1602100.7299423218
0.395,-4128161.4303588867,13770323.753356934,13664171.21887207,-9541304.588317871,14296022.415161133,-18392204.28466797,-5151574.13482666,-6081324.100494385,-5830583.095550537,5558559.417724609,1211950.182914734,24061565.399169922,24379512.786865234,58626983.642578125,-18862483.978271484,-16563091.278076172,-23709268.56994629,-284800.76789855957,10389751.434326172,6958523.750305176,22985721.588134766,41788242.34008789,58963317.87109375,-9569219.589233398,-9408491.134643555,-6086053.848266602,-17163463.592529297,5305140.972137451,9637081.146240234,24117708.206176758,32503074.645996094,46887004.85229492,4172927.3796081543,-3807522.773742676,-6713567.25692749,-741360.9027862549,-781453.1922340393,7123416.900634766,21037858.963012695,34742145.53833008,39450866.69921875,5761309.1468811035,4523413.181304932,-7832879.066467285,-7499532.699584961,-55851.02736949921,19755020.141601562,25857719.42138672,25537092.208862305,37380512.23754883,972712.1591567993,-1518663.4063720703,2034837.9611968994,-771680.5338859558,14919178.96270752,20249578.47595215,22748361.587524414,2018142.4617767334,1658674.955368042,-30544836.044311523,389361.9477748871,-757773.5185623169
0.4,-10225069.999694824,7224431.037902832,4915460.586547852,-12756061.553955078,8188923.8357543945,-24006067.276000977,-10031497.00164795,-10132713.317871094,-8716273.307800293,1921057.7011108398,-3102024.3167877197,18133502.960205078,18446748.733520508,49709461.2121582,-24370605.46875,-22163915.634155273,-27499504.08935547,-2956362.48588562,7934716.22467041,3905948.6389160156,18468524.932861328,35723636.627197266,51140953.063964844,-16488311.767578125,-14789364.8147583,-10159029.006958008,-19588565.826416016,3569685.220718384,7907329.082489014,21868757.247924805,27637279.510498047,39292655.94482422,-2742021.7990875244,-8741821.2890625,-10338113.784790039,-2538497.9248046875,-815696.120262146,6883208.274841309,18842529.296875,31649888.99230957,34415523.529052734,969500.482082367,-61467.56187081337,-10373421.669006348,-7235802.65045166,238548.26390743256,21371980.667114258,25330932.6171875,25086223.602294922,34509082.79418945,-2754640.1023864746,-4446608.066558838,863807.2609901428,-397359.6394062042,16705202.102661133,19816112.518310547,21178901.67236328,820605.218410492,411567.95620918274,-31230846.405029297,1036253.3330917358,-1934465.8851623535
0.405,-567538.9766693115,14286078.453063965,8668148.9944458,-7061879.1580200195,11075890.54107666,-18710687.6373291,-4946893.692016602,-6671741.962432861,-5639591.217041016,3128524.5418548584,-1989964.485168457,19505517.959594727,19791643.142700195,50910278.3203125,-19059658.05053711,-18622177.124023438,-25473548.889160156,-1581135.1537704468,7589585.304260254,3059518.575668335,17876817.70324707,35164535.52246094,51010990.142822266,-14105672.836303711,-12005237.579345703,-8077162.742614746,-18756654.739379883,1651527.0471572876,6166888.71383667,20267845.153808594,26350698.471069336,37894096.37451172,-1092472.0764160156,-6170479.774475098,-8576219.55871582,-1865765.2139663696,-944574.1176605225,3226238.250732422,14268270.492553711,29649446.487426758,34193012.23754883,3244590.0440216064,2284893.751144409,-7553899.765014648,-5103174.686431885,125859.84170436859,18475540.161132812,23089076.99584961,23328859.329223633,35625587.463378906,-170035.88378429413,-1877712.607383728,4234639.644622803,-359872.60937690735,18142141.342163086,22010461.807250977,23178930.282592773,4118078.7086486816,3725527.286529541,-28055549.62158203,5506398.677825928,1607962.965965271
0.41,11229517.936706543,22784193.03894043,15435790.061950684,1346270.5612182617,16799543.380737305,-5307204.723358154,6821488.857269287,1163381.4573287964,209736.4366054535,6916559.219360352,1136729.2404174805,22268777.84729004,22527669.90661621,53698760.986328125,-5720191.00189209,-7989283.084869385,-19508481.979370117,1865807.1756362915,8626424.789428711,2996516.704559326,18471817.016601562,35764503.479003906,52550247.19238281,-2937964.43939209,-2583798.1700897217,-1564260.3635787964,-16073308.944702148,-122351.7432808876,4069222.4502563477,18171701.431274414,26086776.733398438,38995208.740234375,9059678.077697754,2603720.9033966064,-3216715.3358459473,314740.71741104126,-1095350.2655029297,-1753319.1442489624,9479991.912841797,28605728.149414062,36318935.39428711,12622629.165649414,11462832.4508667,-986937.6420974731,-2826484.6801757812,-290637.2845172882,13542925.834655762,20568822.860717773,21300283.432006836,38614654.541015625,8944840.431213379,6354146.957397461,11933083.534240723,-569341.5403366089,18659788.131713867,24975629.806518555,26763862.60986328,11818051.3381958,11355130.195617676,-21442882.537841797,11296016.693115234,9337690.353393555
0.415,18363676.071166992,28724555.96923828,22764036.178588867,8731102.94342041,23328706.741333008,5462461.948394775,16622814.178466797,7809144.496917725,5861330.986022949,12297700.881958008,5988382.339477539,24618574.142456055,24860244.750976562,54402656.55517578,4959534.645080566,355846.70305252075,-14647841.453552246,5235082.626342773,10706769.943237305,4879646.301269531,19652675.62866211,35689979.553222656,51570163.72680664,5553043.842315674,3957842.3500061035,2684839.963912964,-13451469.421386719,2200.6630897521973,4026512.622833252,16678743.362426758,25505395.889282227,38255939.48364258,17207908.630371094,8392361.640930176,-383062.83950805664,1412921.5478897095,-1124289.1550064087,-4289239.883422852,7539065.837860107,27536865.234375,36265186.30981445,19731605.529785156,18430830.001831055,2647561.550140381,-2930356.26411438,-623728.9905548096,10561636.924743652,18321592.330932617,19105974.197387695,38585502.62451172,15945271.492004395,12372259.140014648,17066820.14465332,-744847.7745056152,17223611.83166504,24734691.619873047,26885839.462280273,17038934.7076416,16417411.804199219,-17048463.821411133,13219402.313232422,14736886.978149414
0.42,27426641.4642334,41248519.89746094,38721138.00048828,17002679.8248291,35547973.6328125,5076979.160308838,18678653.717041016,11210267.066955566,11552454.948425293,20622589.111328125,16082365.036010742,32635112.762451172,32920089.721679688,60591793.060302734,4473342.418670654,-210192.59095191956,-13052595.138549805,8732742.309570312,14486742.01965332,11520220.756530762,24678363.800048828,39702480.31616211,53232322.692871094,1456969.8572158813,1200104.3558120728,1412949.9197006226,-10899317.741394043,3072612.762451172,8770977.973937988,18846828.46069336,27820245.74279785,38010921.478271484,13877490.043640137,5122129.917144775,-2460844.039916992,841881.7520141602,-1015393.9723968506,-2744222.640991211,10067980.766296387,27322622.299194336,33987731.93359375,16555332.18383789,15527995.109558105,-145506.65020942688,-5768468.856811523,-714649.4388580322,10940428.733825684,16834964.752197266,17264951.705932617,34711910.247802734,13259192.46673584,9499646.186828613,13794567.108154297,-869738.9364242554,13790439.60571289,20451446.533203125,22081708.908081055,13815506.935119629,13112555.503845215,-19762891.76940918,9232015.609741211,12518369.674682617
0.425,40783638.00048828,62249103.54614258,62613037.109375,25623170.852661133,52834228.515625,-4977538.108825684,13817265.510559082,12345498.085021973,17170951.84326172,30334878.92150879,29905834.197998047,48028240.20385742,48442649.841308594,76404891.96777344,-5645011.425018311,-7221097.469329834,-13003655.433654785,12710661.888122559,19388484.954833984,21306888.580322266,33811992.64526367,50125129.69970703,62915027.6184082,-11701549.530029297,-7080974.102020264,-2174007.6541900635,-7996953.48739624,7215685.844421387,16470499.038696289,24691017.150878906,34945339.20288086,42824150.08544922,2043518.06640625,-3236783.266067505,-6006953.716278076,115712.28504180908,-879518.7473297119,814062.1185302734,15177039.14642334,29356550.216674805,33368465.423583984,6591536.521911621,6010656.833648682,-5781686.305999756,-9457013.130187988,-697693.8843727112,13189487.45727539,17058696.746826172,17152393.341064453,31525400.161743164,4278319.835662842,1215069.6516036987,5430711.269378662,-1053344.488143921,10468162.536621094,16165256.50024414,16989749.908447266,5377247.333526611,4753255.367279053,-26776334.762573242,3541346.549987793,5656865.59677124
0.43,46755699.157714844,75768653.8696289,76987541.19873047,27628488.540649414,63434165.954589844,-16752033.233642578,6012009.620666504,11040582.656860352,19136907.57751465,35070411.682128906,37768569.94628906,60523387.90893555,61045127.868652344,91626571.65527344,-17346494.674682617,-14275684.356689453,-13359320.640563965,14753186.225891113,22486717.224121094,27086082.458496094,40670299.5300293,59767192.84057617,75123680.1147461,-22234426.498413086,-13348712.921142578,-4474309.921264648,-6721924.781799316,9068507.194519043,21105388.641357422,29500431.060791016,42056648.25439453,50665119.17114258,-7521522.521972656,-9224370.002746582,-8126091.957092285,-250615.59677124023,-787068.1285858154,3090898.9906311035,18730388.641357422,32252445.220947266,35764114.37988281,-358475.9533405304,-906678.7362098694,-9460628.509521484,-12505076.40838623,-631087.0051383972,15558724.403381348,18927053.451538086,18956731.79626465,32564498.901367188,-1332350.6116867065,-3608952.283859253,839553.2369613647,-1149664.1635894775,9828581.809997559,16108242.03491211,16789949.417114258,664508.3427429199,167380.4074525833,-30228839.874267578,2182685.136795044,2020297.7657318115
0.435,34087379.455566406,66355842.59033203,67322830.20019531,17627218.24645996,57136928.55834961,-25517681.121826172,-2717655.897140503,5308371.067047119,13616668.701171875,29841800.689697266,31746850.967407227,59184333.80126953,59629581.451416016,93196815.49072266,-25920143.127441406,-19610490.798950195,-16061153.411865234,11289292.335510254,20975622.177124023,23450664.520263672,39198333.740234375,59862865.44799805,78939651.48925781,-25163730.62133789,-16324348.449707031,-6758271.69418335,-10414135.932922363,7323601.245880127,18767623.901367188,29213033.67614746,42745140.075683594,54536872.86376953,-10065297.12677002,-11545814.514160156,-10593406.677246094,-1621237.1587753296,-710474.6103286743,2961306.571960449,18521806.716918945,32874870.30029297,38186836.24267578,-789694.4284439087,-1826627.7313232422,-11347783.088684082,-14953556.060791016,-364749.2527961731,17579929.35180664,20890493.392944336,20960403.442382812,36165496.826171875,52479.21869158745,-2150444.0307617188,3817764.0438079834,-872440.6957626343,12257412.910461426,20074129.104614258,21380790.71044922,3624207.019805908,3159713.2682800293,-26465835.571289062,6452687.2634887695,5252339.3630981445
0.44,9827295.303344727,41124206.54296875,42487892.150878906,1121462.5835418701,39352977.75268555,-32358776.092529297,-12017935.752868652,-4111046.314239502,2789675.47416687,18130836.486816406,16582885.7421875,46814300.537109375,47006523.13232422,82255874.63378906,-32663509.368896484,-25618932.723999023,-22133399.963378906,2965794.086456299,15783362.38861084,13651905.059814453,31786649.703979492,51903949.73754883,72262588.50097656,-25961093.90258789,-20061302.185058594,-11371317.863464355,-18526069.64111328,4095007.89642334,12209146.499633789,25465192.794799805,37730812.072753906,51932571.41113281,-10573406.219482422,-14037605.285644531,-15168585.777282715,-4213689.32723999,-639950.5138397217,1906723.3800888062,16373666.763305664,30631393.432617188,37990886.68823242,256055.08685112,-1244714.617729187,-14026448.249816895,-16765382.766723633,113119.91512775421,19183130.264282227,21688531.87561035,21660560.607910156,38391872.40600586,2987383.8424682617,233278.15532684326,9206262.588500977,-307084.3815803528,15353854.179382324,24060079.57458496,26006284.713745117,9134376.525878906,8614637.37487793,-20187938.690185547,11644236.56463623,11008123.397827148
0.445,-5425840.377807617,23914306.640625,26162647.247314453,-8694188.117980957,26519277.572631836,-37916316.986083984,-19226610.18371582,-11213233.947753906,-4890952.110290527,9943622.589111328,6164795.398712158,36453189.849853516,36438743.591308594,71623954.77294922,-38374267.578125,-31582836.151123047,-27462570.190429688,-3693506.7176818848,11512396.812438965,6721799.850463867,26519062.042236328,45445079.8034668,63589229.583740234,-29905334.47265625,-25116069.793701172,-15705042.839050293,-24614601.135253906,2655074.5964050293,7828951.358795166,22962249.755859375,33603775.02441406,47164257.04956055,-14161153.793334961,-17525476.455688477,-18484712.600708008,-5331439.971923828,-635422.8258132935,1604724.1687774658,15310278.89251709,28067193.98498535,35698322.29614258,-1725724.697113037,-3162448.6446380615,-16523094.177246094,-16821147.918701172,448000.6992816925,19820020.67565918,21361291.885375977,21159255.981445312,37228210.44921875,1374510.1690292358,-1615281.7010879517,9551860.809326172,18521.04254066944,15918673.515319824,24147478.103637695,26035463.333129883,9592336.654663086,9058978.080749512,-18929307.93762207,11767394.065856934,11815043.449401855
0.45,1151012.0630264282,29312789.916992188,30952175.14038086,-3923994.779586792,28690055.84716797,-38623291.015625,-19430097.579956055,-9795516.014099121,-2688905.715942383,11954776.763916016,9076965.33203125,35627857.20825195,35642974.853515625,69439102.17285156,-39341205.59692383,-32412021.63696289,-26329269.409179688,-2450900.3162384033,11804555.892944336,8032682.418823242,27525503.158569336,45604217.529296875,60161777.49633789,-34373527.52685547,-26577428.817749023,-14734120.36895752,-22526557.92236328,4188583.8508605957,9007219.314575195,23446809.768676758,33715950.01220703,44155803.68041992,-18834861.755371094,-18294809.341430664,-15954750.061035156,-2591997.3850250244,-708959.16223526,2176086.902618408,15941816.329956055,27010866.165161133,32512527.465820312,-5069132.328033447,-5997314.453125,-15217004.776000977,-14581823.348999023,292079.74672317505,19252178.192138672,20261089.324951172,20055366.51611328,32914684.295654297,-4545033.4548950195,-6668892.860412598,3131073.7133026123,-256900.48933029175,12716215.133666992,19463920.59326172,20549152.374267578,3064476.490020752,2676504.611968994,-25000679.01611328,5107851.028442383,4398759.365081787
0.455,21246505.737304688,48057659.14916992,46832996.3684082,9521172.523498535,39990806.579589844,-32477474.212646484,-11875558.853149414,-1410737.0376586914,6374855.041503906,20396507.263183594,19854553.22265625,39793468.4753418,39992298.1262207,72180374.14550781,-33302627.563476562,-26498733.520507812,-19424306.869506836,4805812.358856201,15144614.219665527,14190075.874328613,31448234.55810547,48433052.06298828,60568466.18652344,-34456764.221191406,-22096101.760864258,-9100967.407226562,-14517437.934875488,6782717.227935791,13339343.070983887,24907148.361206055,35116298.67553711,42194835.6628418,-19946325.302124023,-14813829.42199707,-9268452.644348145,2074764.2517089844,-782210.7076644897,2916971.206665039,17017913.818359375,26917140.96069336,28841026.306152344,-6108016.490936279,-6525774.955749512,-10024580.955505371,-11681745.529174805,-219307.12461471558,18505504.608154297,18912580.490112305,18941331.86340332,27481801.986694336,-10012963.29498291,-10539202.690124512,-4919194.221496582,-849525.0344276428,7985105.037689209,13186788.558959961,13354283.332824707,-5343069.553375244,-5435723.304748535,-33353935.24169922,-3867974.281311035,-6741159.915924072
0.46,33665771.484375,58435523.986816406,54302387.23754883,17351158.142089844,46173328.3996582,-25290735.244750977,-3910597.085952759,4593271.255493164,11731735.229492188,25018732.07092285,25461328.506469727,40617198.9440918,40897838.5925293,72488372.80273438,-26068063.735961914,-20486694.3359375,-14655238.151550293,9115390.77758789,16617223.739624023,17468681.33544922,33015045.166015625,48413497.92480469,59829383.850097656,-31454488.75427246,-16996671.676635742,-5828299.999237061,-9893445.014953613,7500443.458557129,15854855.53741455,25526165.008544922,34522846.22192383,39766822.814941406,-17653022.76611328,-11153314.590454102,-5417896.747589111,4076735.9733581543,-835669.1002845764,3612225.7709503174,18065681.45751953,27198507.30895996,26147466.6595459,-4588721.752166748,-4801012.992858887,-5604438.304901123,-10418881.4163208,-630569.2791938782,18935003.28063965,18860242.84362793,19169589.99633789,24783168.79272461,-11469457.626342773,-11002293.586730957,-8119044.303894043,-1188756.4659118652,5751981.735229492,10551754.95147705,10545009.61303711,-8890752.792358398,-8721234.321594238,-36914833.068847656,-8165258.407592773,-12808895.111083984
0.465,25912929.53491211,49404182.43408203,44865356.4453125,11559129.71496582,39865371.70410156,-25822578.43017578,-4229145.526885986,1314301.4907836914,7071897.983551025,20534044.26574707,19617353.439331055,35812873.84033203,35959159.85107422,67660552.97851562,-26614244.46105957,-22123102.18811035,-17700031.280517578,4997455.596923828,14183369.636535645,14394036.293029785,31017854.690551758,45217079.162597656,56310974.12109375,-31269111.63330078,-18018836.975097656,-9246916.770935059,-13880969.047546387,5625855.445861816,14137932.777404785,25392963.409423828,32580791.473388672,37605705.26123047,-16533067.70324707,-11702556.610107422,-7842401.504516602,1923706.0546875,-971731.1263084412,4362498.2833862305,19245990.753173828,28141944.885253906,26334787.368774414,-3126161.0984802246,-3427930.5934906006,-5584177.494049072,-11084812.16430664,-749205.7681083679,20311023.712158203,21148582.458496094,21575674.057006836,27215578.079223633,-9542862.892150879,-9530822.75390625,-5280556.678771973,-1133206.3674926758,7466353.893280029,13493326.187133789,14301809.310913086,-6072075.843811035,-5919274.33013916,-34079841.61376953,-5353966.71295166,-9906433.10546875
0.47,7439345.359802246,31329338.07373047,28474529.266357422,-875217.6761627197,27879621.505737305,-34424545.28808594,-12028394.69909668,-6996094.226837158,-1753267.2882080078,12745959.281921387,9387090.682983398,29859840.393066406,29807022.094726562,60230152.13012695,-35332717.89550781,-29990785.598754883,-24226110.458374023,-2247199.058532715,11564257.621765137,9189991.95098877,28254390.716552734,41857742.30957031,51562503.814697266,-36060226.44042969,-24369159.698486328,-14844296.4553833,-20639282.2265625,3723220.109939575,10452930.450439453,24726467.13256836,30986137.39013672,36029521.94213867,-19474443.435668945,-15544641.494750977,-12275095.93963623,-771273.0169296265,-1207801.9380569458,4830220.699310303,19458347.32055664,28723482.131958008,27785913.467407227,-3885437.9653930664,-4348528.861999512,-8544662.475585938,-11996733.665466309,-775759.3989372253,20791631.6986084,23447278.97644043,23809087.7532959,31046646.118164062,-8146745.681762695,-9275472.640991211,-2065261.1255645752,-1066277.265548706,9681060.791015625,17178819.65637207,18890903.47290039,-2561841.7263031006,-2734808.6833953857,-30692157.745361328,-945718.1096076965,-4790508.270263672
0.475,-853085.1006507874,23464885.711669922,21718927.38342285,-5916965.961456299,23024393.08166504,-41302425.384521484,-17175947.189331055,-9835935.592651367,-3663288.8317108154,11342576.98059082,6452636.71875,27927864.07470703,27817501.068115234,54777084.35058594,-42187965.393066406,-34729808.80737305,-25058605.194091797,-3019367.456436157,13320772.171020508,8403807.640075684,27679069.51904297,40243511.19995117,47338478.088378906,-41508434.2956543,-28727724.075317383,-15165625.57220459,-20682449.340820312,4763348.579406738,9059258.460998535,23356786.727905273,29539642.333984375,33518264.770507812,-24602455.139160156,-18375303.268432617,-12847987.174987793,-3618.4347700327635,-1354478.8360595703,4609659.671783447,17388118.743896484,26779657.3638916,26088863.372802734,-7042321.20513916,-7514148.712158203,-10873039.245605469,-11895756.721496582,-857134.222984314,19355173.110961914,21777181.62536621,22007514.95361328,29342332.83996582,-10710674.285888672,-12126813.888549805,-4749240.875244141,-1290084.2428207397,7886296.74911499,15026354.789733887,16535184.860229492,-5004565.715789795,-5511209.487915039,-33282688.14086914,-2365428.4477233887,-7516680.2406311035
0.48,8888768.196105957,31763172.149658203,29464975.357055664,996037.9600524902,29161907.196044922,-38129550.93383789,-12746550.559997559,-3677395.820617676,3619844.913482666,17647027.96936035,13034193.03894043,30554956.436157227,30544754.028320312,55037811.279296875,-38726650.23803711,-30665365.21911621,-18094781.87561035,3937996.6259002686,18310186.3861084,12892036.437988281,29613679.885864258,40550830.84106445,45320808.41064453,-42374271.392822266,-26497539.520263672,-9606407.165527344,-13547347.068786621,8225673.675537109,11374341.011047363,22256853.103637695,28164598.46496582,30437547.68371582,-27705673.217773438,-18013864.517211914,-9355452.537536621,3530300.1403808594,-1264268.159866333,4042009.8304748535,14455698.013305664,22927961.349487305,20998796.463012695,-10606909.75189209,-10944209.098815918,-11173649.787902832,-11068985.939025879,-847602.6058197021,17580816.2689209,16504104.614257812,16627973.556518555,21849788.665771484,-15952225.685119629,-16434019.088745117,-12009613.037109375,-1603292.5844192505,2679273.1285095215,7838292.598724365,8156774.520874023,-12325880.05065918,-12848859.786987305,-40477390.28930664,-9332986.831665039,-17533891.677856445
0.485,22365472.7935791,42761226.654052734,39854812.62207031,9907780.647277832,36910461.42578125,-27927129.7454834,-3575167.8943634033,3757286.787033081,10672562.599182129,23010683.059692383,19476711.27319336,33574615.478515625,33686450.95825195,60737155.91430664,-28229078.29284668,-22363021.850585938,-10995160.102844238,9666121.482849121,20650014.877319336,16725034.713745117,31774549.48425293,42335056.30493164,47050941.467285156,-37910537.71972656,-20719354.6295166,-4738234.519958496,-8590221.405029297,10240737.915039062,14215583.801269531,22996585.845947266,28605169.29626465,30564369.201660156,-25967866.897583008,-15662738.800048828,-6250872.611999512,5593059.062957764,-1088487.982749939,3737152.338027954,13961198.806762695,21382049.560546875,18799732.208251953,-11041964.530944824,-11365972.518920898,-10314652.442932129,-10116007.804870605,-643664.3600463867,17950273.513793945,13563346.862792969,13604772.567749023,17518590.927124023,-17926856.994628906,-17548582.077026367,-15139929.77142334,-1604007.9593658447,-127611.95003986359,4244005.6800842285,3926486.4921569824,-15610452.651977539,-15878571.510314941,-43545364.37988281,-13307352.066040039,-22402420.043945312
0.49,22267860.412597656,41547573.08959961,39209785.46142578,9655750.274658203,35798645.01953125,-20223627.0904541,797827.5418281555,3928966.999053955,8734355.926513672,20148847.579956055,16646160.125732422,32785259.246826172,32977603.912353516,66573738.09814453,-20557632.446289062,-17937046.05102539,-11140221.59576416,6672862.529754639,17236766.815185547,14533547.401428223,31458036.422729492,44198200.22583008,51438644.40917969,-31242891.311645508,-17190959.930419922,-5497818.946838379,-12702776.908874512,8208394.0505981445,13514915.466308594,24905647.27783203,31413373.947143555,35575473.78540039,-19916843.41430664,-13005211.83013916,-6372306.823730469,3893073.558807373,-1070324.0633010864,3428154.945373535,16469247.817993164,24469583.51135254,24053234.100341797,-6325626.373291016,-6909671.306610107,-9007309.913635254,-8918941.497802734,-459341.824054718,20536214.82849121,17187616.3482666,17140129.08935547,23213750.8392334,-12466944.694519043,-12512325.286865234,-8349706.649780273,-1225373.5065460205,3435539.960861206,9926676.750183105,10488585.472106934,-8739482.879638672,-8819664.001464844,-36868659.97314453,-8090621.9482421875,-13856718.063354492
0.495,11234354.019165039,31167909.622192383,29288318.634033203,2326324.939727783,27747543.334960938,-18579881.66809082,-1082395.9112167358,-1474346.5185165405,922327.0416259766,12453130.722045898,7452183.723449707,29023294.44885254,29321596.145629883,67019149.78027344,-19229335.78491211,-18802429.19921875,-16408475.875854492,-1463642.0011520386,11767971.992492676,8343311.309814453,28463010.787963867,44245494.8425293,54252975.46386719,-25480337.142944336,-17334758.758544922,-9441153.526306152,-21457887.649536133,4212265.491485596,9485558.50982666,25213291.16821289,33696071.62475586,40833568.57299805,-13113254.54711914,-10532292.366027832,-8298371.315002441,655562.3412132263,-1162776.4701843262,2379162.7883911133,18566549.30114746,28698883.056640625,32006172.18017578,676777.6608467102,-163935.8401298523,-7417655.467987061,-7414545.059204102,-526254.8327445984,22624391.555786133,23726476.669311523,23605159.759521484,33475795.74584961,-3262306.6902160645,-4517571.926116943,3183072.566986084,-792854.905128479,10197745.323181152,19661479.949951172,21572914.123535156,3017385.482788086,2897373.914718628,-25569116.592407227,1880565.2856826782,-90690.87356328964
0.5,6548514.842987061,26908401.489257812,23626886.36779785,-817499.7568130493,23490230.560302734,-17739799.49951172,-1988274.9319076538,-3766839.7426605225,-2701527.8339385986,8844801.902770996,2378090.8584594727,27069299.697875977,27522232.055664062,62524887.08496094,-18634063.720703125,-19467905.044555664,-18711894.989013672,-5258279.323577881,9928464.889526367,4984194.755554199,25653404.235839844,42326766.96777344,52415489.196777344,-21751148.223876953,-17829881.66809082,-10755051.612854004,-25159393.310546875,2594639.539718628,6549805.641174316,23016958.236694336,32627517.700195312,40451492.30957031,-9598051.071166992,-8540182.113647461,-9281321.52557373,-443987.07151412964,-1106990.2181625366,978920.2809333801,17520132.064819336,29072017.669677734,33841648.10180664,4162698.268890381,3457502.3651123047,-6232870.101928711,-6397297.382354736,-724125.4448890686,22104610.443115234,25934480.667114258,25810955.047607422,36840553.283691406,1231158.6141586304,-588750.6604194641,8745811.462402344,-628290.4148101807,13434149.742126465,23553668.975830078,25602893.829345703,8580779.075622559,8376497.268676758,-19915409.088134766,6840626.7166137695,4234130.859375
0.505,14541842.460632324,33898174.28588867,28204387.664794922,4447712.8982543945,27390184.40246582,-13077696.800231934,2578720.5696105957,561018.5861587524,1371394.7534561157,11941162.109375,5648578.16696167,29065408.70666504,29597892.76123047,58621345.52001953,-13937849.044799805,-16261909.484863281,-14594631.19506836,-1502001.6431808472,12450519.561767578,7454044.342041016,25702856.063842773,40478698.73046875,47735733.03222656,-19920864.10522461,-16000741.958618164,-7558571.815490723,-20874097.82409668,4693576.812744141,7747101.783752441,20848970.413208008,29561321.258544922,34993671.41723633,-10454399.108886719,-7682237.148284912,-8456690.788269043,1437885.5228424072,-864309.6089363098,661066.3533210754,14927639.00756836,25644826.889038086,28042409.896850586,2003792.5243377686,1721554.6369552612,-6204509.258270264,-6616570.472717285,-769601.8218994141,20132186.889648438,22041254.0435791,21976072.311401367,30451925.27770996,-2375251.054763794,-3747186.6607666016,4702390.193939209,-738276.9584655762,10721026.420593262,19085453.033447266,20086214.065551758,4326029.7775268555,4160165.786743164,-23359586.715698242,3459489.8223876953,-2967409.84916687
