time,Fp1,Fpz,Fp2,AF3,AF4,F7,F5,F3,F1,Fz,F2,F4,F6,F8,FT7,FC5,FC3,FC1,FCz,FC2,FC4,FC6,FT8,T7,C5,C3,C1,Cz,C2,C4,C6,T8,TP7,CP5,CP3,CP1,CPz,CP2,CP4,CP6,TP8,P7,P5,P3,P1,Pz,P2,P4,P6,P8,PO7,PO5,PO3,POz,PO4,PO6,PO8,CB1,O1,Oz,O2,CB2
0.0,-8987869.262695312,-15249637.603759766,-17720588.68408203,-2707274.4369506836,-3783193.1114196777,666228.6520004272,-204864.9936914444,-202226.84741020203,-149567.97659397125,-2516593.6946868896,1481998.2051849365,-894126.0576248169,37236.31054162979,726287.6629829407,1065001.7261505127,-180663.40684890747,-178697.79467582703,-222239.61353302002,-653160.1548194885,-705264.5683288574,1721764.8029327393,1306795.597076416,1294906.8546295166,821666.419506073,893584.668636322,-88069.20796632767,-187195.27125358582,476229.54845428467,-1799522.7575302124,696397.1853256226,1501153.588294983,1448366.403579712,1398734.0927124023,1390630.7220458984,-174888.7002468109,-764198.7204551697,-169471.30858898163,-633235.6929779053,-556330.5020332336,565200.0904083252,878358.3641052246,1459995.2697753906,1458380.5799484253,1459019.660949707,313188.8210773468,1410337.6865386963,-1619876.3847351074,449287.5039577484,1286917.0904159546,626664.9961471558,1436806.2019348145,1446544.7664260864,1426789.2837524414,1300384.9983215332,2530395.030975342,1838699.1024017334,1902985.5728149414,1364520.54977417,1446121.9310760498,1385322.6900100708,2721358.060836792,2131397.7241516113
0.005,7254355.907440186,-12427268.981933594,-11737579.345703125,-296666.86058044434,4902806.758880615,3326961.5173339844,-949984.6696853638,-277188.7481212616,913222.074508667,3798954.0100097656,9502558.708190918,7227483.749389648,8054099.082946777,5923934.459686279,-5615135.192871094,-602959.8116874695,-350215.4052257538,-759639.6207809448,1376504.3020248413,3168277.9788970947,8467700.958251953,6133231.639862061,4518384.93347168,-9779193.878173828,-4459664.344787598,747946.0835456848,-89866.45191907883,-262775.6595611572,-365027.87470817566,3105496.644973755,2577731.6093444824,2826721.9066619873,-5598785.400390625,-5201961.040496826,-7026433.46786499,-6583737.373352051,-3111236.810684204,-1401742.1007156372,-951539.3376350403,-4132915.0199890137,-978205.9192657471,-4187843.7995910645,-4459439.754486084,-4435352.325439453,-5041779.041290283,-4367839.336395264,-3963367.9389953613,1007340.0735855103,-4151842.1173095703,-3990614.652633667,-5012792.110443115,-4865625.858306885,-5831388.9503479,-6902926.445007324,-749410.6888771057,-260966.9268131256,827056.4079284668,-5813726.902008057,-5243884.086608887,-5422118.663787842,1866364.598274231,2384360.0749969482
0.01,15324497.22290039,-6594399.929046631,-1640841.2456512451,-945836.9612693787,9133120.5368042,706654.1314125061,-2811924.934387207,-1766887.1879577637,-130074.60534572601,5560338.020324707,11902885.437011719,11846035.00366211,11980246.543884277,8605971.336364746,-11538335.800170898,-2222311.7351531982,-1834056.7350387573,-2432148.218154907,1578389.286994934,4415063.858032227,11592253.684997559,9782547.950744629,6629287.242889404,-15736933.708190918,-7813576.698303223,-439519.2265510559,-1578921.4372634888,-588953.3162117004,1165438.8904571533,5079647.541046143,3790961.503982544,3613245.0103759766,-10741192.817687988,-10040578.842163086,-10420054.43572998,-8860093.116760254,-4447854.995727539,-1160797.4767684937,-946609.8546981812,-5451052.665710449,-2715626.7166137695,-8774003.982543945,-9145074.844360352,-9130312.9196167,-8325340.270996094,-9017514.2288208,-6034155.368804932,-257345.13998031616,-7755191.326141357,-7242716.312408447,-9920216.56036377,-9749680.519104004,-10907913.208007812,-12503321.647644043,-3777465.581893921,-2888279.1996002197,-1318887.5913619995,-11142874.717712402,-10139238.357543945,-10509870.529174805,-1749491.2147521973,-1450482.4876785278
0.015,14194360.733032227,-3333367.8245544434,4683289.051055908,-2770026.445388794,9183254.24194336,-3362374.3057250977,-3863550.1861572266,-2828692.674636841,-1353154.6592712402,4083729.2671203613,10875547.409057617,12980202.674865723,12333717.346191406,8886223.793029785,-13433122.634887695,-3181935.7872009277,-2855879.068374634,-3428689.479827881,1098076.1051177979,3201870.2030181885,11541911.125183105,11165320.39642334,7664133.548736572,-15647858.619689941,-8066691.3986206055,-1679439.3062591553,-2690090.8946990967,-197852.2390127182,1440888.524055481,5407409.191131592,4421117.782592773,3883411.645889282,-12900059.700012207,-12101500.511169434,-10447460.174560547,-8199567.794799805,-4249414.443969727,-775949.9549865723,-1726391.7922973633,-4332536.697387695,-4276032.9246521,-11144568.44329834,-11408580.780029297,-11470174.789428711,-9153020.858764648,-11175249.099731445,-7807193.756103516,-3114881.0386657715,-9516635.89477539,-8940769.19555664,-12168638.229370117,-12024012.565612793,-12818834.30480957,-14239948.272705078,-5261158.9431762695,-5668216.228485107,-4118714.8094177246,-13226871.490478516,-12170073.509216309,-12443927.764892578,-5708421.70715332,-6470995.903015137
0.02,12576755.52368164,-3926809.787750244,3725591.8979644775,-1151085.2575302124,10252022.743225098,-1772526.0257720947,-2040736.198425293,-1192357.1825027466,98057.19554424286,4319389.820098877,12314189.910888672,13837128.639221191,13082503.318786621,9124010.08605957,-9515864.372253418,-1423343.1816101074,-1296736.478805542,-1716338.1576538086,2156011.1045837402,2077580.6903839111,11146643.63861084,10284165.382385254,8190648.078918457,-11843422.889709473,-6058252.334594727,-176241.9492006302,-945230.6628227234,664106.547832489,-141375.18405914307,3781083.345413208,3430424.928665161,3698124.1703033447,-12380740.16571045,-11699954.03289795,-9836029.052734375,-7986324.787139893,-3803649.425506592,-1543347.4779129028,-4077015.8767700195,-4219279.766082764,-5887358.665466309,-10948937.41607666,-11035182.95288086,-11192784.309387207,-8817995.071411133,-10815373.420715332,-9116775.512695312,-5813254.356384277,-10819239.616394043,-9697835.922241211,-11805893.898010254,-11620937.34741211,-12242252.349853516,-13338175.773620605,-4900898.456573486,-8015000.343322754,-6595661.163330078,-12588014.602661133,-11669510.841369629,-11631660.461425781,-6390824.317932129,-7239901.065826416
0.025,18968292.236328125,1404206.5143585205,7524903.774261475,3989080.1906585693,15673801.42211914,3721032.6194763184,515285.0151062012,1318203.330039978,2664206.027984619,7377068.042755127,16315935.134887695,16372545.24230957,15948204.040527344,10356180.191040039,-4695713.520050049,1023171.5440750122,1023155.2124023438,773415.5654907227,4181759.834289551,2559881.9255828857,11263044.357299805,8561938.285827637,7864452.838897705,-8960307.121276855,-4550230.503082275,2375933.6471557617,1773175.835609436,1132695.6748962402,-1708464.503288269,1959565.9971237183,996965.5275344849,2455985.7845306396,-11317032.814025879,-10824066.162109375,-10483061.790466309,-9869509.69696045,-4040876.3885498047,-2942102.6706695557,-6298192.977905273,-6248020.172119141,-7966855.525970459,-9897476.196289062,-9905435.562133789,-10047842.025756836,-8769659.042358398,-10295596.1227417,-9487274.169921875,-7303211.212158203,-12473853.11126709,-9983989.715576172,-10737150.192260742,-10504935.264587402,-11335640.907287598,-12894929.885864258,-4712623.119354248,-10006340.980529785,-8661312.103271484,-12023177.146911621,-10716826.438903809,-10888176.918029785,-5078017.711639404,-4593969.345092773
0.03,28406150.817871094,14667570.114135742,21901338.577270508,6554015.159606934,21029050.827026367,3643717.5273895264,-335166.6033267975,675349.1163253784,2107946.3958740234,8825327.87322998,17332099.91455078,18511314.392089844,18133659.36279297,10517074.584960938,-6916487.216949463,180782.12440013885,279283.1361293793,124659.77668762207,4440208.911895752,3199940.6814575195,10631293.296813965,7611708.641052246,5907270.908355713,-11534737.586975098,-6150455.951690674,1671373.2481002808,1201638.6985778809,637129.7240257263,-1595185.63747406,1662498.950958252,-889850.6164550781,71370.6687092781,-12740400.314331055,-12323287.963867188,-12210837.364196777,-12432034.492492676,-5059259.89151001,-3490933.418273926,-6297338.008880615,-8432990.074157715,-10423021.31652832,-11205825.805664062,-11253588.676452637,-11229859.352111816,-9529370.307922363,-12336123.4664917,-8979252.815246582,-8167930.603027344,-13996376.991271973,-10177741.050720215,-12006684.303283691,-11885337.829589844,-12789859.771728516,-15236100.196838379,-6429144.382476807,-12000882.148742676,-10760580.062866211,-14194326.400756836,-12216086.387634277,-13031893.730163574,-5804390.430450439,-4906221.866607666
0.035,26455356.59790039,18128618.240356445,28575485.229492188,2172818.660736084,19070695.877075195,-5076575.756072998,-4440345.764160156,-3183206.796646118,-1763030.1713943481,5538070.6787109375,13735349.655151367,17481164.932250977,17011453.62854004,8010725.975036621,-16586366.653442383,-3761364.698410034,-3432786.703109741,-3623423.0995178223,2480831.6230773926,1985296.9646453857,9605455.39855957,8157824.516296387,3375204.563140869,-19749177.932739258,-10358782.768249512,-2398891.2105560303,-2765708.4465026855,-238681.31637573242,-1251127.4814605713,2266542.1962738037,87275.16233921051,-1445263.2665634155,-17497020.721435547,-17001827.239990234,-14205386.1618042,-14057346.34399414,-6745049.476623535,-3198686.5997314453,-4820405.006408691,-8844874.382019043,-11930909.156799316,-16038805.00793457,-16119247.436523438,-15947906.494140625,-11072996.139526367,-16719684.600830078,-8838549.613952637,-9202658.653259277,-14624867.43927002,-10646446.228027344,-16647476.196289062,-16769483.56628418,-17310138.702392578,-19562908.172607422,-8727426.528930664,-13638269.424438477,-12488249.778747559,-18601316.452026367,-16937049.865722656,-17643030.166625977,-8559444.427490234,-10499974.250793457
0.04,10608507.15637207,82063.2129907608,11972195.625305176,-4820326.328277588,11141474.723815918,-13385120.391845703,-7141416.072845459,-5869913.578033447,-4371361.255645752,997603.178024292,11347023.963928223,14971738.815307617,15116711.616516113,5959872.245788574,-24178222.65625,-6301349.16305542,-5846085.071563721,-6171216.96472168,1254266.619682312,-242694.1692829132,10850037.574768066,10441016.19720459,3444951.295852661,-27233951.568603516,-13687988.28125,-5126328.468322754,-5553283.214569092,-442210.19744873047,-2907051.5632629395,2316964.3878936768,4252842.903137207,708487.0338439941,-22205785.751342773,-21594686.50817871,-16156898.498535156,-15057239.532470703,-8781976.699829102,-3225880.1460266113,-4159097.671508789,-7406011.10458374,-10670945.167541504,-20949823.3795166,-20983434.677124023,-20886640.548706055,-13412616.729736328,-20190359.115600586,-10158229.82788086,-9823143.005371094,-14218761.444091797,-10941802.978515625,-21413682.93762207,-21653940.200805664,-21817848.205566406,-22744749.069213867,-9069138.526916504,-13987547.874450684,-12746335.02960205,-21929164.88647461,-21576757.431030273,-21264743.80493164,-9305060.386657715,-15742262.840270996
0.045,-1291591.2866592407,-18929065.704345703,-8214139.938354492,-6337187.29019165,7804543.972015381,-12362381.935119629,-6182428.83682251,-5109014.511108398,-3346209.2876434326,577160.0008010864,14531076.431274414,15537795.066833496,17033931.732177734,8988789.558410645,-21978826.52282715,-5343214.511871338,-4969323.15826416,-5410829.067230225,2581274.98626709,-931293.3087348938,14859849.92980957,14164298.057556152,7557205.2001953125,-26783023.834228516,-13615381.240844727,-4106745.719909668,-4773195.743560791,-51369.60372328758,-5725058.078765869,2021072.1492767334,9025429.725646973,6194937.705993652,-22361959.45739746,-21714851.37939453,-17769006.729125977,-16146789.55078125,-10104814.529418945,-3511986.255645752,-4441030.502319336,-4995142.936706543,-6771315.097808838,-21123914.71862793,-21111324.310302734,-21265916.82434082,-15963153.839111328,-20145618.438720703,-11929866.790771484,-8779269.218444824,-13253738.403320312,-9876353.26385498,-21732330.322265625,-21819175.720214844,-22076818.466186523,-22663730.62133789,-7447414.398193359,-12814011.573791504,-11385815.620422363,-21775445.93811035,-21755262.37487793,-21256395.33996582,-6627477.169036865,-14792357.444763184
0.05,6157003.879547119,-10940679.550170898,-607119.619846344,-1670070.4097747803,14609229.08782959,-5767289.161682129,-5048303.127288818,-4132009.983062744,-2177765.369415283,3510620.1171875,18832448.959350586,19566236.49597168,22121646.881103516,15605258.94165039,-14764291.763305664,-4324880.599975586,-4126784.8014831543,-4581611.156463623,4018426.4183044434,-102541.86391830444,17759128.57055664,17567903.518676758,12480052.947998047,-19623790.740966797,-11578248.023986816,-2876129.627227783,-3722425.4608154297,-335961.58027648926,-7265158.176422119,2171931.028366089,11101636.88659668,10775842.666625977,-18075582.50427246,-17461393.356323242,-18445684.4329834,-16634563.446044922,-9636424.06463623,-2902236.9384765625,-3889668.9414978027,-2555578.2318115234,-3106528.7590026855,-16590908.05053711,-16619802.474975586,-16925401.68762207,-17100051.879882812,-17494207.38220215,-11946343.421936035,-6303533.554077148,-12419659.614562988,-7222671.5087890625,-17501401.901245117,-17350990.295410156,-17989421.844482422,-20281534.19494629,-6096627.712249756,-11020665.168762207,-9624179.84008789,-19193103.790283203,-17540229.79736328,-18585948.944091797,-3846837.282180786,-9349023.818969727
0.055,23084648.13232422,15783128.73840332,28606718.063354492,1929856.538772583,23515377.044677734,-3823081.0165405273,-6953336.238861084,-6047754.287719727,-4200660.705566406,4330121.5171813965,17637321.47216797,22041118.621826172,24694837.57019043,18571491.241455078,-13051590.919494629,-6298721.790313721,-6193136.692047119,-6594664.096832275,2672192.096710205,-660632.312297821,16179368.97277832,18186948.776245117,13689430.236816406,-14868676.18560791,-10583531.379699707,-4789758.682250977,-5540856.36138916,-1828869.9388504028,-7771964.550018311,1576584.4583511353,9730160.7131958,10982148.170471191,-14628181.457519531,-13999965.66772461,-18028379.440307617,-15747629.165649414,-8087953.567504883,-1882083.2967758179,-2747348.7854003906,-1312826.9910812378,-2565239.667892456,-12871786.117553711,-12985620.498657227,-13152620.315551758,-15898638.725280762,-15361124.992370605,-10304081.916809082,-4765844.821929932,-12510323.524475098,-4822523.593902588,-13878157.615661621,-13663729.667663574,-14465928.077697754,-18342834.47265625,-6362074.851989746,-10044775.96282959,-8947199.821472168,-17209440.231323242,-14028950.691223145,-16430749.893188477,-3814886.0931396484,-5587684.631347656
0.06,28562311.17248535,27062831.87866211,42899539.947509766,816633.3436965942,24756725.311279297,-7666149.616241455,-9026332.85522461,-8141151.428222656,-6545013.904571533,1960275.650024414,12909173.011779785,20393371.58203125,22630601.88293457,15011123.657226562,-17733486.17553711,-8377092.361450195,-8211054.801940918,-8574766.159057617,296850.0852584839,-3476743.459701538,12525148.391723633,15944590.56854248,11353956.22253418,-17384998.321533203,-10750822.067260742,-6977818.965911865,-7476587.772369385,-3218528.0323028564,-9473999.977111816,-1486685.7528686523,7376580.238342285,8340465.545654297,-15749274.253845215,-14994371.41418457,-17118148.803710938,-14623535.15625,-7787442.684173584,-2658790.8267974854,-3618578.6724090576,-2082054.853439331,-4765065.1931762695,-13930254.936218262,-14071083.068847656,-13931561.470031738,-13909024.238586426,-15532938.957214355,-10024617.195129395,-6276696.681976318,-13859839.43939209,-4676768.3029174805,-14729845.04699707,-14596364.02130127,-15296470.642089844,-18425283.432006836,-7703119.75479126,-10778322.219848633,-9891169.548034668,-17421327.590942383,-14918770.790100098,-16590711.59362793,-5270097.732543945,-5692692.279815674
0.065,21448707.580566406,14670811.653137207,31092569.35119629,226577.16274261475,21252635.955810547,-8467195.510864258,-6864342.68951416,-6086535.930633545,-4656754.493713379,1391776.5617370605,12326399.803161621,18879945.755004883,20850797.653198242,11123736.381530762,-19190946.578979492,-6277112.4839782715,-5979458.332061768,-6332534.313201904,910189.2113685608,-5421791.553497314,11871284.484863281,13897486.686706543,9888165.473937988,-20970670.700073242,-9685364.723205566,-4931922.435760498,-5350015.163421631,-3105508.56590271,-12130475.997924805,-5617870.807647705,6714802.7420043945,6840505.599975586,-18441358.56628418,-17563068.389892578,-16433572.769165039,-15142663.00201416,-9811558.723449707,-5565700.531005859,-7018766.403198242,-4011573.7915039062,-6899997.234344482,-16772609.71069336,-16864351.272583008,-16537099.838256836,-13549711.227416992,-16899604.79736328,-12702730.178833008,-9960738.182067871,-15544093.132019043,-6389450.0732421875,-17336080.55114746,-17225944.51904297,-17896173.47717285,-19605131.149291992,-9167752.265930176,-12743341.445922852,-11724902.153015137,-18667043.685913086,-17447835.92224121,-17927959.442138672,-5749871.730804443,-6243232.250213623
0.07,19286937.713623047,6574296.474456787,21774322.509765625,4221137.523651123,22257724.76196289,-2564119.1005706787,-2711646.556854248,-1910546.6604232788,-658818.0065155029,4455682.754516602,16480739.59350586,21244895.935058594,23174863.815307617,12885083.198547363,-12930243.492126465,-2237582.206726074,-1891531.4674377441,-2225807.9051971436,3948280.096054077,-4462451.457977295,14251711.84539795,14154056.549072266,11042585.372924805,-18103456.497192383,-7205125.331878662,-844129.3835639954,-1480524.7783660889,-2210245.132446289,-13142254.829406738,-7401750.087738037,7491920.948028564,7097768.783569336,-17444297.790527344,-16661226.272583008,-16318250.65612793,-17058404.92248535,-12255870.819091797,-7779815.196990967,-9759231.567382812,-5454156.875610352,-7788769.721984863,-16008420.944213867,-16036275.863647461,-15771282.196044922,-14745893.478393555,-17388216.018676758,-15441843.98651123,-12755396.842956543,-15948673.248291016,-7866979.122161865,-16534677.505493164,-16381786.346435547,-17138648.986816406,-20020368.576049805,-10002126.693725586,-14165482.521057129,-12890322.6852417,-18992023.468017578,-16569246.292114258,-18326885.223388672,-5125636.577606201,-4524562.835693359
0.075,25672811.50817871,16178142.547607422,30935811.99645996,6408089.160919189,25892827.9876709,1267697.4534988403,-3514138.2217407227,-2379379.5108795166,-1482527.8520584106,4812937.7365112305,16985998.153686523,23001897.81188965,25081462.860107422,16370542.526245117,-7741731.1668396,-3025812.864303589,-2789832.830429077,-3103268.86177063,4111343.8606262207,-3784004.4498443604,14417299.270629883,14639370.918273926,11127558.708190918,-12174058.91418457,-6601647.853851318,-1653792.6197052002,-2588980.9131622314,-2425912.380218506,-12605046.272277832,-6581931.591033936,7484389.305114746,6197769.1650390625,-13407833.099365234,-12975794.792175293,-17082132.33947754,-18266164.779663086,-12705401.420593262,-7265727.0431518555,-9533013.343811035,-6094579.696655273,-9018841.743469238,-12175278.663635254,-12175437.927246094,-12073428.1539917,-15230201.721191406,-16639001.846313477,-14742657.661437988,-13103583.335876465,-14594552.040100098,-8195328.712463379,-12769883.155822754,-12681992.530822754,-13335577.011108398,-19274646.759033203,-9180108.070373535,-13446764.945983887,-12122607.231140137,-18171522.14050293,-12819000.244140625,-17452527.99987793,-4271310.329437256,-2537222.6238250732
0.08,20633899.688720703,15367334.365844727,31005996.704101562,-1581018.4478759766,20276861.1907959,-5456308.364868164,-10508150.100708008,-8970922.470092773,-8377488.136291504,-2898132.801055908,9802029.609680176,17285243.98803711,19891695.022583008,13326292.991638184,-13018017.768859863,-9819449.424743652,-9737650.871276855,-10056588.172912598,-708402.6336669922,-7263080.12008667,10125035.285949707,12183903.694152832,7084143.161773682,-13040171.62322998,-9728804.588317871,-8565686.225891113,-9598691.940307617,-3868679.7618865967,-14172921.180725098,-6856603.622436523,6027578.353881836,3253996.6106414795,-12594114.303588867,-12497864.723205566,-19030788.42163086,-18087419.509887695,-11706987.380981445,-6009032.726287842,-8531695.365905762,-6978796.482086182,-11623636.245727539,-11466346.740722656,-11481115.341186523,-11422243.118286133,-14480352.401733398,-16171277.99987793,-12200465.202331543,-12826561.92779541,-12927110.67199707,-8499870.300292969,-12043210.02960205,-12125507.354736328,-12463142.395019531,-18781822.204589844,-6502770.42388916,-11364375.114440918,-10165710.44921875,-17744487.762451172,-12157070.15991211,-16954725.26550293,-2834934.4730377197,-3284386.8732452393
0.085,-5253476.142883301,-17581735.610961914,-1454861.5217208862,-15180427.551269531,4104131.2217712402,-17361557.006835938,-16424535.751342773,-14822964.668273926,-14102910.995483398,-12979964.256286621,2853421.926498413,6798804.759979248,9912559.509277344,4117952.823638916,-24541631.6986084,-15564599.990844727,-15475767.135620117,-15807143.211364746,-5448919.773101807,-12687403.678894043,6152382.373809814,7656820.297241211,2028014.898300171,-22508769.989013672,-13863939.28527832,-14330653.190612793,-15222482.681274414,-4576256.275177002,-19021427.154541016,-10073388.09967041,4952548.980712891,1419686.0790252686,-18331842.42248535,-18252725.60119629,-21841951.370239258,-18327508.9263916,-11932844.161987305,-6959902.286529541,-9790842.056274414,-8387531.280517578,-13800489.42565918,-17186925.888061523,-17230243.682861328,-17076883.31604004,-14901171.684265137,-17300703.048706055,-12572089.195251465,-14338253.021240234,-12557215.690612793,-9743900.299072266,-17669763.565063477,-17790300.369262695,-18008373.260498047,-19887481.689453125,-4066466.808319092,-10998641.967773438,-9822052.955627441,-18948013.305664062,-17811708.450317383,-18250074.38659668,-796702.2061347961,-5975303.649902344
0.09,-25891363.1439209,-49688678.74145508,-34352870.94116211,-19480335.235595703,-5841443.061828613,-21536365.509033203,-15268325.805664062,-13927915.573120117,-12781659.126281738,-14405725.479125977,4897375.583648682,2728083.372116089,5120771.884918213,-1707156.0621261597,-30270156.860351562,-14482658.386230469,-14196322.441101074,-14511511.80267334,-4651697.635650635,-13968704.223632812,7267512.798309326,5142896.65222168,1329883.5754394531,-31492839.813232422,-15555722.2366333,-13110672.950744629,-13801109.313964844,-3619401.454925537,-22745952.606201172,-12952661.514282227,5626724.720001221,2834751.3675689697,-26225635.528564453,-25886827.46887207,-24281553.268432617,-20223520.278930664,-14102495.193481445,-9484690.66619873,-12172752.380371094,-9390713.691711426,-13573950.76751709,-24993122.100830078,-25031223.29711914,-24830312.728881836,-17837562.561035156,-19680196.76208496,-16404991.149902344,-17157848.358154297,-13364076.614379883,-11149183.27331543,-25457771.30126953,-25392116.54663086,-25879735.946655273,-22301797.86682129,-4777796.745300293,-14417455.673217773,-13102410.316467285,-21363510.131835938,-25589235.305786133,-20891744.61364746,-516706.58588409424,-7421048.164367676
0.095,-11193490.982055664,-32152500.15258789,-17519882.202148438,-8763135.91003418,3880652.904510498,-14925307.273864746,-10474591.255187988,-9289478.302001953,-7995832.920074463,-5921332.836151123,12245746.612548828,9984142.303466797,10013681.411743164,1601277.470588684,-26844209.671020508,-9931775.093078613,-9482058.52508545,-9780770.301818848,-292843.3418273926,-10017162.322998047,10906861.305236816,6261991.97769165,5005268.573760986,-32356933.59375,-15394601.821899414,-8480456.352233887,-9062317.848205566,-2846233.606338501,-21460414.88647461,-12063540.4586792,6817911.148071289,4896960.735321045,-29617883.682250977,-29066080.09338379,-25255165.100097656,-22372241.973876953,-15959136.962890625,-10763730.0491333,-12362102.508544922,-9776299.476623535,-12109630.584716797,-28303789.138793945,-28295049.6673584,-28208044.052124023,-20945573.806762695,-22064777.374267578,-18953283.309936523,-18811546.325683594,-14231805.801391602,-11602486.610412598,-28882999.420166016,-28635768.89038086,-29427572.25036621,-24720853.805541992,-8974248.886108398,-19891414.642333984,-18489440.91796875,-23743146.896362305,-29043655.395507812,-23410400.390625,-4188741.2071228027,-6820489.883422852
0.1,25771263.122558594,23065761.56616211,38715354.919433594,4283698.558807373,22616239.547729492,-7838311.195373535,-9660778.045654297,-8293226.24206543,-7348237.991333008,1245729.8040390015,14040090.560913086,19830837.24975586,17528341.29333496,8827811.241149902,-22215553.283691406,-9281659.126281738,-8892139.434814453,-9224535.942077637,1039906.8593978882,-6843009.471893311,11187840.461730957,8440969.467163086,8041355.133056641,-27723268.508911133,-16234457.015991211,-7942491.53137207,-8509610.176086426,-4301457.88192749,-18095035.552978516,-9267343.521118164,6796507.835388184,4424568.653106689,-27325508.11767578,-26772195.81604004,-25139760.971069336,-23219848.6328125,-15882189.750671387,-10573571.20513916,-10437880.516052246,-10480303.764343262,-11935616.493225098,-25946304.321289062,-25930114.74609375,-25999385.833740234,-21655864.715576172,-23696197.509765625,-17583518.981933594,-18485498.428344727,-14906190.872192383,-11286799.430847168,-26689113.61694336,-26468765.258789062,-27263465.881347656,-26325366.973876953,-13692571.640014648,-23485458.374023438,-22153245.92590332,-25351476.669311523,-26955303.192138672,-24962619.78149414,-9692572.593688965,-6480919.83795166
0.105,40079166.412353516,49271709.44213867,67181625.36621094,4295188.426971436,27830307.006835938,-9328053.47442627,-14103440.284729004,-12484033.584594727,-11923261.642456055,-2060082.9124450684,8184580.8029174805,21315935.134887695,18756969.451904297,11963214.874267578,-22636407.85217285,-13705162.048339844,-13474963.188171387,-13861862.182617188,-2501750.946044922,-9136303.901672363,8107607.841491699,9363698.959350586,7660826.206207275,-24774456.024169922,-18250040.05432129,-12483387.94708252,-13051578.521728516,-7052588.939666748,-18402351.37939453,-8712931.632995605,6180557.2509765625,2917065.382003784,-23866310.119628906,-23346513.748168945,-25488889.694213867,-23903861.99951172,-15347320.556640625,-11257133.483886719,-9685593.605041504,-11624497.413635254,-13001129.150390625,-22418485.641479492,-22499814.987182617,-22598466.873168945,-21300876.61743164,-24636274.337768555,-16019138.33618164,-17859230.041503906,-16023771.286010742,-11155384.063720703,-23259355.545043945,-23156538.009643555,-23829063.415527344,-27254947.662353516,-15841124.534606934,-23526603.69873047,-22269227.981567383,-26244529.724121094,-23633432.388305664,-25753398.895263672,-12161856.651306152,-8178209.30480957
0.11,16210556.030273438,16498329.162597656,35656147.00317383,-6656563.758850098,15169106.483459473,-15395987.510681152,-17791612.62512207,-16182807.922363281,-15595810.890197754,-10961222.648620605,3610751.152038574,15440839.767456055,14128734.588623047,10232317.924499512,-24870101.928710938,-17292768.478393555,-17047790.52734375,-17440469.74182129,-5793208.122253418,-13696619.987487793,7239322.662353516,9897484.77935791,6058131.217956543,-25829618.453979492,-18944673.538208008,-16001296.997070312,-16544345.85571289,-8291011.810302734,-22279354.095458984,-10373913.764953613,6625384.330749512,3835748.4340667725,-23541173.934936523,-22902030.94482422,-27092376.708984375,-26290510.177612305,-16293645.858764648,-13241644.859313965,-11245738.02947998,-12093669.891357422,-13218858.71887207,-22082277.297973633,-22265209.197998047,-22290903.091430664,-22950553.89404297,-25421859.741210938,-18408077.239990234,-18319753.646850586,-17754446.029663086,-11688282.96661377,-22879013.061523438,-22780241.012573242,-23501756.66809082,-28120252.60925293,-15450921.058654785,-22451206.20727539,-21141351.6998291,-26953704.833984375,-23249769.21081543,-26468603.134155273,-10555378.913879395,-11226157.188415527
0.115,-8739924.430847168,-24327222.82409668,-6456752.300262451,-12083044.052124023,3674825.90675354,-15206994.05670166,-15891141.891479492,-14498173.713684082,-13651894.569396973,-13381704.330444336,6362002.372741699,12239670.753479004,10694796.562194824,8058516.502380371,-23095193.86291504,-15336936.950683594,-14871355.056762695,-15255317.687988281,-4194700.241088867,-14280909.538269043,10521781.921386719,11043262.481689453,5367604.2556762695,-27839172.36328125,-17308698.654174805,-13929020.881652832,-14439161.30065918,-7093803.405761719,-23966781.616210938,-10831281.661987305,7291245.937347412,6088011.741638184,-26530982.971191406,-25716379.165649414,-28710353.85131836,-29217023.849487305,-17873479.84313965,-14384027.481079102,-13009122.848510742,-12202827.453613281,-12823243.141174316,-25206090.927124023,-25320011.138916016,-25314567.56591797,-26382202.1484375,-26999961.853027344,-22939514.16015625,-19687782.287597656,-20016321.182250977,-13365708.351135254,-25818368.911743164,-25662460.327148438,-26483701.705932617,-29740549.087524414,-15652705.192565918,-24119300.842285156,-22733936.309814453,-28482347.48840332,-26055961.60888672,-28028989.791870117,-9982192.993164062,-14528638.83972168
0.12,2474266.290664673,-14450441.360473633,459035.2475643158,-3399189.9490356445,8188226.699829102,-5374793.529510498,-10335963.249206543,-9104242.324829102,-8195012.092590332,-6315552.234649658,11006560.325622559,15690224.647521973,10871961.59362793,6650544.6434021,-17232301.712036133,-9817905.42602539,-9174015.045166016,-9658176.42211914,251847.32675552368,-10737298.965454102,12735329.627990723,10731008.529663086,3972110.7482910156,-27743455.88684082,-14781059.265136719,-8493515.968322754,-9010161.399841309,-5468574.047088623,-21221668.243408203,-9877272.605895996,5138218.402862549,4839855.194091797,-29961326.599121094,-29113796.23413086,-28378171.920776367,-29568590.16418457,-17978889.46533203,-14381930.351257324,-14300768.852233887,-14609482.765197754,-14939192.771911621,-28856973.64807129,-28752937.31689453,-28767660.14099121,-28262134.552001953,-29980520.248413086,-25155281.06689453,-22003467.559814453,-23461273.193359375,-17224529.266357422,-29266593.93310547,-29171737.670898438,-29859825.134277344,-32556320.190429688,-19342102.05078125,-29665390.014648438,-28361186.981201172,-31518411.63635254,-29354789.73388672,-30966669.0826416,-15069273.948669434,-17953090.66772461
0.125,33141677.856445312,26783758.16345215,39108837.12768555,8433557.510375977,18134204.864501953,6208409.309387207,-6784467.2203063965,-5609990.59677124,-4851044.178009033,-115635.946393013,8986344.337463379,18050001.14440918,9187741.27960205,2672083.616256714,-11390934.944152832,-6385397.434234619,-5780710.220336914,-6476330.280303955,1655301.0940551758,-9544902.801513672,8991553.30657959,6293162.3458862305,-198973.71530532837,-25151042.938232422,-12447838.78326416,-5262932.777404785,-5873193.264007568,-5614648.342132568,-19425773.62060547,-11640201.568603516,-688317.0008659363,-939468.7414169312,-30941097.259521484,-30176156.997680664,-26138160.705566406,-27185886.38305664,-16906881.33239746,-15977750.778198242,-17442066.192626953,-20508066.177368164,-20527473.44970703,-29951946.258544922,-29721099.853515625,-29682685.85205078,-27025186.53869629,-32930839.53857422,-24859165.19165039,-25847681.045532227,-28088981.62841797,-23021522.521972656,-30297512.05444336,-30351140.97595215,-30772350.311279297,-35248638.15307617,-25153923.03466797,-35833637.23754883,-34757934.5703125,-34599994.65942383,-30344173.431396484,-33899200.439453125,-22343021.392822266,-20389684.677124023
0.13,36190460.205078125,30136508.94165039,41019577.02636719,7352322.101593018,12823409.080505371,10194512.367248535,-8560035.705566406,-7462537.76550293,-6761880.874633789,-5419829.845428467,179648.87619018555,11123674.392700195,799235.8803749084,-5713861.465454102,-8178845.405578613,-8296285.629272461,-7853404.998779297,-8672426.223754883,-2614556.312561035,-15228500.366210938,1651198.7447738647,-1211242.5565719604,-5855974.197387695,-21466527.938842773,-10279867.172241211,-7168012.619018555,-7971125.12588501,-7469718.933105469,-23947174.072265625,-17890272.14050293,-6958752.155303955,-6423418.998718262,-28728624.34387207,-27971807.4798584,-24601203.91845703,-25786619.186401367,-16918214.797973633,-20005027.770996094,-22991706.84814453,-26736469.268798828,-25904140.47241211,-27655374.52697754,-27526624.67956543,-27351358.41369629,-24678329.467773438,-32659454.345703125,-25234014.5111084,-29906240.463256836,-31446880.340576172,-27891784.66796875,-28082931.518554688,-28176122.665405273,-28538576.126098633,-34947654.724121094,-27627296.447753906,-37884460.44921875,-36989406.58569336,-34385234.83276367,-28188808.44116211,-33724685.66894531,-23247112.274169922,-19130931.854248047
0.135,1724255.3234100342,-22312761.306762695,-12597907.066345215,-6720766.067504883,-8638883.590698242,6232812.881469727,-14011191.368103027,-12991921.424865723,-12190189.361572266,-19398498.53515625,-7942837.715148926,-1601910.5911254883,-10729938.507080078,-15359134.674072266,-7465064.04876709,-13766484.260559082,-13458363.53302002,-14139965.057373047,-9322295.188903809,-24234844.207763672,-3058859.10987854,-7471136.569976807,-10144201.278686523,-18612817.764282227,-9018727.30255127,-12347900.390625,-13380360.60333252,-9351127.624511719,-31880708.694458008,-24193731.3079834,-9978226.661682129,-7766215.801239014,-25139337.53967285,-24286888.122558594,-25917804.718017578,-27876689.910888672,-18371139.526367188,-22706455.23071289,-27080026.626586914,-29070585.250854492,-27324064.254760742,-23896957.397460938,-23942825.317382812,-23705720.901489258,-23385049.81994629,-27727958.67919922,-26551282.88269043,-30714525.22277832,-30704828.2623291,-28751510.620117188,-24408550.262451172,-24385322.57080078,-24925596.237182617,-30281812.66784668,-22816228.86657715,-34146152.49633789,-33230129.24194336,-29344739.91394043,-24551380.157470703,-28934299.46899414,-14907094.00177002,-13170645.713806152
0.14,-30273866.653442383,-72792297.36328125,-64483680.725097656,-18273473.739624023,-25560997.009277344,2159173.011779785,-18343391.41845703,-17252302.169799805,-16415304.183959961,-28873805.99975586,-9609835.624694824,-8703456.87866211,-17008846.282958984,-21539758.682250977,-8005399.703979492,-17913906.09741211,-17730594.635009766,-18118129.73022461,-13190709.114074707,-29052032.470703125,-2522454.261779785,-9426993.370056152,-12340859.413146973,-17498781.204223633,-9610061.645507812,-16237400.05493164,-17420482.635498047,-9980504.035949707,-35611049.65209961,-25368576.049804688,-9584213.256835938,-7005198.001861572,-22677474.975585938,-21800601.959228516,-28716005.325317383,-31179927.825927734,-19015653.610229492,-20851932.525634766,-26355140.686035156,-27420551.300048828,-25952516.555786133,-21342912.673950195,-21415616.989135742,-21271356.5826416,-22887479.782104492,-21096584.32006836,-25862930.297851562,-26978778.839111328,-26912298.20251465,-26112243.65234375,-21862094.87915039,-21717107.77282715,-22379180.908203125,-23869720.458984375,-13644071.578979492,-27700040.817260742,-26608745.574951172,-22544649.124145508,-21938604.3548584,-22307849.884033203,-4232847.213745117,-5666680.335998535
0.145,-28030994.415283203,-72039382.93457031,-64512557.98339844,-16851989.74609375,-23691070.556640625,3948042.631149292,-18168804.168701172,-16866470.336914062,-16148197.174072266,-26647314.071655273,-5711860.179901123,-5150972.843170166,-14617841.720581055,-22489887.237548828,-8096711.158752441,-17440555.572509766,-17437704.08630371,-17661184.310913086,-12452625.274658203,-27189250.946044922,928428.1730651855,-7676868.438720703,-13278340.339660645,-16897159.576416016,-10641452.78930664,-15835481.643676758,-17031482.696533203,-9429430.00793457,-33187877.655029297,-22192417.14477539,-8139839.172363281,-7548261.1656188965,-21921447.75390625,-21180355.072021484,-29518442.153930664,-32017791.748046875,-17728071.212768555,-16888586.044311523,-22898056.030273438,-25067770.00427246,-25403894.424438477,-20603914.260864258,-20559524.536132812,-20535316.467285156,-22239746.09375,-17562833.786010742,-22678215.02685547,-22092226.028442383,-24239326.47705078,-23355400.08544922,-21126522.064208984,-20963611.602783203,-21569002.151489258,-20216632.843017578,-7345936.7752075195,-23074893.951416016,-21834657.669067383,-18955823.89831543,-21092250.82397461,-18598638.5345459,511999.36866760254,-1144337.773323059
0.15,-10175069.808959961,-45095924.377441406,-37129039.7644043,-9817756.652832031,-13226694.107055664,8883486.7477417,-15250123.977661133,-13811008.45336914,-13200516.700744629,-20259092.330932617,-1136026.14402771,1767394.6619033813,-8780112.266540527,-20146530.151367188,-6594663.619995117,-14311574.935913086,-14465387.344360352,-14788232.803344727,-10489272.117614746,-23807485.580444336,4239589.214324951,-4746617.794036865,-12706379.890441895,-15169690.132141113,-9645341.873168945,-13022307.395935059,-14165665.626525879,-8702426.91040039,-30617534.637451172,-19650119.78149414,-6869640.350341797,-8183775.901794434,-21478473.663330078,-20887783.05053711,-27515941.619873047,-30564664.840698242,-16572805.404663086,-15576601.9821167,-21036407.470703125,-23333395.00427246,-25719568.252563477,-20215457.916259766,-20079092.025756836,-20065944.67163086,-22011661.529541016,-18499340.057373047,-20282169.342041016,-19952928.54309082,-23913278.579711914,-21869398.11706543,-20771986.00769043,-20668861.389160156,-21214483.2611084,-20861402.51159668,-6946530.342102051,-21435878.75366211,-20190670.013427734,-19947923.66027832,-20704195.022583008,-19323997.497558594,-634767.6515579224,-612946.2122917175
0.155,-13532559.394836426,-46839488.9831543,-38570270.53833008,-10650595.664978027,-12982444.763183594,10272761.344909668,-14718617.43927002,-13346058.84552002,-12729528.427124023,-21473651.885986328,110140.29383659363,2142910.957336426,-7195384.979248047,-18325227.737426758,-4458121.776580811,-13763211.250305176,-13930231.094360352,-14451711.654663086,-11630150.79498291,-24833204.26940918,6161273.956298828,-2913302.6599884033,-10383094.787597656,-13023900.032043457,-7389664.173126221,-12718375.205993652,-13868228.912353516,-8714233.3984375,-33209571.838378906,-20227876.663208008,-5533607.006072998,-5912611.00769043,-20514009.475708008,-19922687.530517578,-26114349.365234375,-30260498.046875,-17833959.579467773,-17366708.755493164,-21585762.02392578,-20723924.63684082,-23964832.305908203,-19272920.608520508,-19170742.03491211,-19090915.67993164,-23273324.966430664,-20726505.279541016,-20723442.07763672,-20383268.356323242,-22701057.43408203,-19993398.666381836,-19799230.575561523,-19780767.4407959,-20380582.809448242,-22988603.591918945,-8406504.63104248,-20717607.498168945,-19553123.474121094,-22172212.600708008,-19817260.7421875,-21439586.639404297,-1495404.9587249756,-1093115.0913238525
0.16,-36356113.43383789,-77454132.08007812,-70673049.92675781,-19215911.865234375,-23549840.927124023,7316085.8154296875,-18297504.425048828,-17085119.247436523,-16440406.799316406,-29778261.184692383,-2081025.8388519287,-3793016.9105529785,-11330247.87902832,-19762676.239013672,-3649472.713470459,-17447225.57067871,-17529598.236083984,-18120269.775390625,-15410757.064819336,-29097337.72277832,6421638.488769531,-3337814.8078918457,-8587013.244628906,-12718886.375427246,-7643969.0589904785,-16410648.345947266,-17645929.33654785,-9365650.177001953,-38211261.74926758,-21850969.314575195,-4950998.783111572,-2637855.052947998,-20138467.78869629,-19440204.620361328,-28435176.849365234,-32551338.19580078,-20582096.099853516,-18773649.215698242,-22456682.205200195,-17742467.880249023,-20667613.983154297,-18853237.15209961,-18883045.196533203,-18740816.116333008,-25519109.72595215,-21101415.634155273,-22215290.069580078,-21204612.731933594,-19478218.07861328,-17729505.53894043,-19257635.11657715,-19297388.076782227,-19973577.49938965,-23477460.861206055,-7973760.604858398,-20352775.57373047,-19225700.37841797,-22426357.26928711,-19417888.641357422,-21801630.0201416,95749.70602989197,-250078.32050323486
0.165,-40308254.24194336,-82393264.77050781,-77885917.66357422,-21887145.99609375,-26906412.12463379,5994390.487670898,-21562391.28112793,-20433050.15563965,-19802190.78063965,-33065914.154052734,-4428406.715393066,-6432406.902313232,-15019233.703613281,-22979537.963867188,-4307963.848114014,-20812553.40576172,-20845800.399780273,-21374031.06689453,-17069633.48388672,-30127698.89831543,5113409.996032715,-5271883.487701416,-9751526.832580566,-14584098.815917969,-11559004.783630371,-19654863.357543945,-20948078.155517578,-9768309.593200684,-38832401.275634766,-21724512.100219727,-6624097.82409668,-3284130.811691284,-21346021.65222168,-20604782.104492188,-32628089.904785156,-34782955.169677734,-21821897.506713867,-18114025.115966797,-22826416.015625,-17822946.548461914,-20364933.013916016,-19972387.313842773,-20158765.79284668,-19944089.889526367,-26721502.30407715,-19951770.782470703,-22229061.126708984,-22072280.883789062,-18368875.50354004,-18069185.256958008,-20319362.64038086,-20294445.037841797,-21001392.364501953,-22357479.095458984,-7595872.87902832,-22032371.520996094,-20892728.805541992,-21220539.093017578,-20590358.73413086,-20702026.3671875,146278.45585346222,1000692.8443908691
0.17,-5057232.856750488,-30313657.760620117,-25576625.82397461,-10942157.745361328,-11214393.615722656,9343454.360961914,-20268341.064453125,-19113674.16381836,-18487768.173217773,-25098731.994628906,-4288846.969604492,606682.9562187195,-11310517.311096191,-21914222.717285156,-5248523.235321045,-19573196.411132812,-19580104.82788086,-20102346.420288086,-14586854.934692383,-25487260.818481445,3158606.2908172607,-5561817.646026611,-11321084.976196289,-16787769.317626953,-15571216.583251953,-18362882.614135742,-19599374.771118164,-9698371.887207031,-33397346.49658203,-19218633.6517334,-9130406.379699707,-7021222.114562988,-23057233.810424805,-22390127.182006836,-33903144.83642578,-33998889.9230957,-20214313.507080078,-16906547.54638672,-22844923.01940918,-21185525.89416504,-23731458.66394043,-21650779.724121094,-21930814.743041992,-21614879.608154297,-25329807.28149414,-19263990.40222168,-20000986.099243164,-22759851.455688477,-21425209.045410156,-20957759.857177734,-22105825.424194336,-21876106.26220703,-22609687.80517578,-21500123.977661133,-9901417.73223877,-24801971.435546875,-23730119.705200195,-20710834.503173828,-22409418.1060791,-20128501.892089844,-3568058.490753174,744972.5270271301
0.175,42141223.9074707,42742343.90258789,51759056.091308594,3998410.701751709,13326102.256774902,11804332.733154297,-16828920.364379883,-15619565.0100708,-14984233.856201172,-14731142.9977417,-2882282.495498657,12552206.039428711,-78533.79100561142,-11790531.158447266,-6780721.664428711,-16193080.90209961,-16067586.898803711,-16721055.98449707,-12116005.897521973,-20533710.479736328,1929033.1602096558,-1153726.8161773682,-7375280.380249023,-18351289.749145508,-16374670.028686523,-15067184.448242188,-16175329.208374023,-10094713.21105957,-27229496.002197266,-15238359.451293945,-8268164.63470459,-6539611.81640625,-23544265.747070312,-22958513.259887695,-30877271.65222168,-31054996.490478516,-17379095.07751465,-16164197.92175293,-21291465.759277344,-22476964.950561523,-24737749.099731445,-22244400.024414062,-22480180.740356445,-22128816.604614258,-22072389.602661133,-19653059.005737305,-15946603.775024414,-20911497.116088867,-23430591.583251953,-20967750.549316406,-22820037.841796875,-22443906.784057617,-23183233.2611084,-21766017.91381836,-12478364.944458008,-24365808.486938477,-23496028.900146484,-21373229.98046875,-23088592.529296875,-20647855.758666992,-7471368.312835693,-1055490.0169372559
0.18,59313728.33251953,77049331.66503906,91525932.31201172,8129073.143005371,26936502.45666504,7156530.857086182,-16477005.004882812,-15248808.860778809,-14644940.376281738,-13178822.51739502,-2695871.8299865723,19742656.707763672,11545571.327209473,3587696.313858032,-9763626.098632812,-15949247.360229492,-15608083.724975586,-16370223.999023438,-13578670.501708984,-20750093.460083008,2214550.495147705,6679575.9201049805,2646051.6452789307,-19453039.169311523,-14885635.375976562,-14926123.61907959,-15939036.36932373,-11261757.850646973,-25788751.60217285,-11497618.675231934,-3033365.9648895264,1066906.8098068237,-22630798.33984375,-22039077.758789062,-27333574.295043945,-29508274.07836914,-15957294.464111328,-15448846.817016602,-18219482.421875,-18873430.252075195,-20094779.96826172,-21498985.290527344,-21581924.438476562,-21348630.905151367,-19874429.70275879,-20549362.182617188,-12152337.074279785,-16684022.903442383,-20427389.14489746,-16107151.03149414,-22022108.07800293,-21764421.463012695,-22442428.588867188,-22778602.600097656,-12474288.940429688,-20604440.689086914,-19925579.071044922,-22308765.411376953,-22250593.185424805,-21567691.802978516,-8498836.517333984,-2752173.662185669
0.185,39001594.54345703,57203720.09277344,73609321.59423828,311267.2567367554,23285299.30114746,-1593494.176864624,-18900465.01159668,-17693002.700805664,-17119918.823242188,-18349411.010742188,-2488258.123397827,19142263.412475586,16575532.913208008,13909310.340881348,-12440800.666809082,-18487588.88244629,-18065769.19555664,-18727060.317993164,-15961816.787719727,-23836854.934692383,4081212.5205993652,12464737.892150879,10881218.910217285,-19336610.794067383,-13651357.650756836,-17419187.545776367,-18409275.05493164,-11599925.994873047,-28852012.634277344,-10420638.084411621,1391271.3527679443,8033843.994140625,-21373651.5045166,-20730461.12060547,-27020107.26928711,-31082015.991210938,-17206420.8984375,-15644892.692565918,-18066434.860229492,-16480606.079101562,-16776245.1171875,-20293409.34753418,-20237403.869628906,-20198106.76574707,-21229852.6763916,-21799732.208251953,-12845543.86138916,-16497123.718261719,-18771995.544433594,-14383469.581604004,-20666110.99243164,-20662002.563476562,-21341062.545776367,-24195764.541625977,-13035106.658935547,-20876516.342163086,-20224000.930786133,-23267051.696777344,-20914693.83239746,-22704402.923583984,-9313307.762145996,-3202596.426010132
0.19,15402140.617370605,24587278.366088867,38027385.71166992,-5292008.876800537,16133394.241333008,-5522546.291351318,-18889797.21069336,-17708536.14807129,-17076438.903808594,-19156038.284301758,1900456.6669464111,17242019.653320312,16227960.586547852,14820997.23815918,-12378887.176513672,-18509147.64404297,-18245796.20361328,-18652477.264404297,-13808571.815490723,-23467416.763305664,7276157.855987549,12917462.348937988,10661275.863647461,-17821428.298950195,-13416703.224182129,-17243373.87084961,-18250877.380371094,-9807616.233825684,-32265670.776367188,-12923280.715942383,246269.3154811859,5834769.725799561,-20896562.576293945,-20240699.768066406,-29234857.5592041,-33824844.36035156,-20076604.84313965,-18356523.513793945,-24172981.26220703,-22160940.170288086,-23014045.71533203,-19715347.290039062,-19589820.861816406,-19674840.927124023,-25156185.150146484,-23377573.013305664,-19502874.37438965,-24758268.356323242,-26252845.764160156,-23467563.62915039,-20056522.369384766,-20078920.364379883,-20990188.598632812,-25708152.770996094,-18033334.732055664,-29760055.541992188,-29042074.20349121,-24525466.918945312,-20356651.306152344,-24196018.21899414,-12972465.515136719,-3008298.397064209
0.195,27689331.0546875,31389225.006103516,40310867.30957031,5669690.132141113,25059289.932250977,-724592.0300483704,-14578414.916992188,-13401285.171508789,-12705161.094665527,-11546829.223632812,11947698.593139648,22691242.218017578,19771961.212158203,15342946.05255127,-11082933.42590332,-14147418.022155762,-14085697.174072266,-14331506.729125977,-8218627.9296875,-18599287.033081055,11455460.548400879,11877039.909362793,6422409.0576171875,-18327087.40234375,-14193975.448608398,-12743871.688842773,-13780656.814575195,-7526262.7601623535,-33123233.795166016,-15867029.190063477,-3104940.414428711,-2149393.081665039,-22704154.96826172,-22065546.0357666,-31212108.612060547,-35168376.92260742,-22244918.823242188,-21858711.24267578,-31239355.087280273,-31430025.100708008,-34562274.93286133,-21423465.728759766,-21246192.932128906,-21360950.469970703,-28134492.874145508,-24663515.090942383,-26000059.127807617,-33893901.82495117,-36808395.38574219,-36478694.915771484,-21894130.70678711,-21613183.975219727,-22824867.248535156,-26754819.869995117,-22858911.514282227,-39245414.73388672,-38559459.6862793,-25825555.8013916,-22145298.00415039,-25581192.016601562,-16216012.954711914,-3788363.9335632324
0.2,82915687.56103516,90957992.55371094,97182205.20019531,35058269.50073242,56667270.66040039,9763872.146606445,-9242489.8147583,-8077734.94720459,-7490849.494934082,-1367100.477218628,25235218.048095703,37950489.04418945,34582088.470458984,27401130.67626953,-11628330.23071289,-8818859.100341797,-8760090.827941895,-9082475.662231445,-4984745.979309082,-13755041.122436523,16641487.121582031,15794253.3493042,8169656.753540039,-24188121.795654297,-16549108.505249023,-7542989.253997803,-8610531.8069458,-7404225.3494262695,-31720579.147338867,-14895012.855529785,-1316273.808479309,-5245381.3552856445,-28224739.07470703,-27555612.564086914,-32607383.728027344,-35513271.33178711,-22712301.25427246,-22402503.967285156,-30901311.87438965,-33393367.767333984,-39478679.65698242,-26941997.528076172,-26742784.50012207,-26858501.434326172,-29095397.94921875,-26080371.856689453,-25342903.13720703,-32838405.60913086,-36896697.998046875,-39289600.37231445,-27574188.232421875,-26972375.869750977,-28163936.614990234,-28079721.450805664,-20157249.450683594,-38489646.911621094,-37928367.614746094,-27578338.623046875,-27604074.478149414,-27196712.493896484,-14495353.698730469,-6948094.367980957
0.205,153328628.54003906,170176391.6015625,174424148.5595703,72839714.05029297,98432083.12988281,23252300.262451172,-4364662.170410156,-3294401.168823242,-2938777.6851654053,7434286.117553711,39623035.4309082,57577880.859375,56436637.87841797,48945789.3371582,-11871366.500854492,-4132897.8538513184,-3913449.52583313,-4443855.285644531,-4338033.676147461,-10783739.08996582,23338342.666625977,24712686.53869629,16875541.68701172,-31676889.419555664,-19370346.069335938,-3188394.30809021,-4254527.0919799805,-8770827.293395996,-29641725.540161133,-10608991.622924805,5394022.9415893555,-1500479.6981811523,-36214187.62207031,-35442802.42919922,-34852310.18066406,-37296066.28417969,-23364648.818969727,-20965415.954589844,-25284343.719482422,-27850656.509399414,-36409202.575683594,-34932144.16503906,-34853557.58666992,-34936916.35131836,-31450630.18798828,-30479352.951049805,-21594835.28137207,-25617183.685302734,-28051919.93713379,-32323791.50390625,-35672763.82446289,-35052177.42919922,-35872776.03149414,-32664901.733398438,-14629721.641540527,-31701194.763183594,-31135578.155517578,-32283596.03881836,-35471576.69067383,-31667121.88720703,-11919137.954711914,-13117465.019226074
0.21,203578796.38671875,223352172.8515625,222888916.015625,104604072.57080078,128643981.93359375,39157279.96826172,2340335.1306915283,3233834.5050811768,3489875.078201294,16736375.80871582,53502307.8918457,72259521.484375,71687538.14697266,63735637.66479492,-6513597.48840332,2280240.774154663,2592995.4051971436,1904842.495918274,-620353.4007072449,-7002213.001251221,30608266.830444336,31075834.274291992,21955547.332763672,-32802982.330322266,-19382619.857788086,2972170.352935791,1958949.9235153198,-8299661.636352539,-27955253.60107422,-8630043.029785156,7958087.921142578,-544135.4513168335,-42189865.11230469,-41296783.447265625,-37380245.208740234,-40878273.010253906,-26529022.216796875,-23297082.901000977,-25865625.381469727,-27112316.131591797,-37099689.48364258,-40823005.67626953,-40993968.96362305,-40957000.732421875,-37688243.8659668,-39795902.252197266,-26127666.473388672,-28509874.34387207,-27874197.006225586,-31635940.551757812,-41603229.52270508,-41225013.732910156,-41781204.22363281,-42228607.177734375,-19845525.74157715,-33930816.650390625,-33124023.4375,-41624691.009521484,-41439655.30395508,-40871864.318847656,-17724693.298339844,-21497858.04748535
0.215,219873428.34472656,233348480.22460938,225759521.484375,119602622.98583984,134452072.1435547,53748161.31591797,10058280.944824219,10807939.529418945,11151956.558227539,24955669.403076172,61866191.86401367,75336723.32763672,70850563.0493164,60191818.23730469,3257248.1632232666,9836480.140686035,10080751.419067383,9322460.174560547,6285065.650939941,-2632411.003112793,34507057.189941406,28927408.21838379,15550618.171691895,-26566402.435302734,-15651991.844177246,10541692.733764648,9555501.937866211,-5526958.465576172,-27141040.802001953,-11809521.675109863,1058378.4580230713,-8417606.353759766,-42722419.73876953,-41738430.02319336,-37709606.1706543,-43247306.82373047,-30796815.872192383,-30421003.341674805,-35750164.03198242,-37012683.8684082,-47283794.40307617,-41282424.92675781,-41618980.407714844,-41415019.98901367,-43772491.455078125,-50198333.740234375,-39204647.064208984,-44567874.908447266,-42687831.87866211,-43841651.916503906,-41986755.37109375,-41848628.997802734,-42556678.771972656,-52692554.47387695,-36631595.611572266,-47371379.85229492,-46278327.94189453,-51892478.942871094,-42179935.455322266,-51156681.060791016,-31696172.7142334,-29269874.572753906
0.22,215372604.3701172,219799514.7705078,207439102.17285156,117929336.54785156,122597427.36816406,61680068.96972656,13211819.648742676,13918946.266174316,14311986.923217773,24927873.611450195,59610569.00024414,68372131.34765625,58772666.931152344,45052715.30151367,9916753.768920898,13043061.256408691,13176836.013793945,12351632.118225098,8199042.320251465,-2907596.3497161865,31742202.758789062,21452894.21081543,3477699.9950408936,-20640224.45678711,-11524262.428283691,13938249.588012695,12822257.041931152,-4138123.035430908,-27428594.5892334,-15882353.782653809,-8598675.727844238,-17955987.93029785,-39286022.1862793,-38247665.40527344,-35256530.76171875,-41831493.37768555,-31762289.04724121,-34840610.50415039,-43053562.16430664,-46547302.24609375,-56524108.88671875,-37897697.44873047,-38211933.13598633,-37915802.001953125,-43388919.830322266,-54509387.9699707,-46146869.65942383,-55323238.372802734,-54743888.85498047,-54280097.96142578,-38441619.873046875,-38372261.04736328,-39381782.53173828,-56911617.279052734,-47468219.75708008,-55864444.732666016,-54677021.02661133,-56191570.28198242,-39016921.99707031,-55500904.08325195,-41610290.52734375,-33088634.490966797
0.225,211913314.81933594,210683731.07910156,198210556.03027344,112205062.86621094,112070915.22216797,65450340.270996094,11058776.85546875,11710715.293884277,12009009.36126709,16821390.15197754,51556640.625,60727798.46191406,49069431.30493164,33986293.79272461,12150380.13458252,10986837.387084961,11064263.343811035,10144758.224487305,2275357.246398926,-8817972.183227539,25598566.05529785,16700059.89074707,-2743345.9758758545,-18820026.397705078,-8910307.884216309,12026380.53894043,10612748.146057129,-5931173.801422119,-28684656.143188477,-15858849.52545166,-11436500.549316406,-19828584.671020508,-35610687.255859375,-34539882.65991211,-31986248.016357422,-38055152.893066406,-28168560.028076172,-31281766.891479492,-38887317.6574707,-44570190.4296875,-54892887.115478516,-34314785.00366211,-34603267.669677734,-34333152.770996094,-37390205.38330078,-51261474.609375,-38895099.63989258,-47881767.27294922,-48692001.34277344,-50127552.0324707,-34839527.13012695,-34667938.232421875,-35729225.158691406,-53619522.09472656,-41195884.704589844,-49932300.56762695,-48802906.03637695,-53090938.568115234,-35510963.439941406,-52383724.212646484,-39806934.35668945,-32651752.471923828
0.23,219316284.1796875,213253677.36816406,200865814.20898438,116740325.92773438,114552818.29833984,74768608.09326172,12084295.272827148,12537817.95501709,12795023.918151855,13259885.787963867,50943195.34301758,60677036.28540039,48889141.08276367,32605731.964111328,18484704.971313477,11977812.767028809,11986635.208129883,11024074.55444336,-1237405.776977539,-12236320.495605469,24041057.586669922,17532768.24951172,-774421.2746620178,-14574889.183044434,-4275341.510772705,12988906.860351562,11285187.721252441,-7093694.21005249,-30393949.508666992,-13501034.7366333,-8155889.511108398,-16423622.131347656,-32541545.867919922,-31430261.611938477,-28900751.1138916,-35449195.861816406,-24719078.063964844,-26172502.517700195,-32592498.779296875,-37911819.45800781,-49652740.478515625,-31227592.46826172,-31640245.43762207,-31446489.334106445,-33933689.11743164,-47925167.083740234,-30889596.939086914,-37037220.0012207,-37217113.49487305,-42214237.213134766,-32033218.383789062,-31690343.856811523,-32600387.573242188,-50348884.58251953,-31849113.46435547,-43376636.50512695,-42226860.04638672,-49795547.48535156,-32552043.914794922,-49124546.05102539,-34918792.724609375,-32076541.900634766
0.235,231874130.24902344,216917953.49121094,199507919.31152344,131912536.62109375,123680282.59277344,91775360.10742188,22132326.126098633,22348226.54724121,22736560.821533203,22727514.266967773,62125644.68383789,66311698.91357422,52526138.30566406,33145000.457763672,33010147.094726562,21923538.208007812,21774919.509887695,20871730.80444336,6812601.566314697,-6561525.344848633,29480121.612548828,19369350.43334961,1705549.8361587524,-2746998.071670532,5159721.851348877,22762128.829956055,20958644.86694336,-3816114.1872406006,-31898338.317871094,-14028251.647949219,-7311584.47265625,-16918046.951293945,-28451669.692993164,-27242124.557495117,-24947965.621948242,-35143173.21777344,-26219526.290893555,-29169029.235839844,-38203880.310058594,-41096939.08691406,-53865554.80957031,-27052244.186401367,-27555244.44580078,-27426471.710205078,-37705440.521240234,-51963348.388671875,-38697120.666503906,-44624546.05102539,-42853195.19042969,-48692352.294921875,-28202665.328979492,-27791944.50378418,-28662942.88635254,-54420654.296875,-39638019.56176758,-52829631.80541992,-51508594.51293945,-53565090.17944336,-28618434.90600586,-53125312.80517578,-39930313.11035156,-35942230.224609375
0.24,239078338.62304688,214193908.69140625,188661911.0107422,143409362.79296875,125457199.09667969,104484390.25878906,33468936.920166016,33645931.243896484,34122688.29345703,35190937.04223633,72323371.88720703,68298461.9140625,51080505.37109375,28468050.003051758,45540000.915527344,33266677.856445312,32938880.920410156,32121772.76611328,18983409.881591797,2337859.1537475586,34596252.44140625,17560979.84313965,-827710.6285095215,9061478.614807129,14196003.913879395,33904365.53955078,32174678.802490234,1143669.3668365479,-32707225.799560547,-17610246.658325195,-12093362.808227539,-22752899.169921875,-24206476.21154785,-22845254.89807129,-20627016.067504883,-35409881.591796875,-31042324.06616211,-38516727.447509766,-52358417.51098633,-53501987.45727539,-65527122.497558594,-22832778.930664062,-23163799.285888672,-23079013.82446289,-43894763.9465332,-61255687.71362305,-56559532.165527344,-66041206.35986328,-63223640.44189453,-66242149.353027344,-23991922.37854004,-23749090.19470215,-24737009.048461914,-63597221.37451172,-60925167.083740234,-72022483.8256836,-70569801.3305664,-62449340.8203125,-24511268.615722656,-62317993.1640625,-53795646.66748047,-44223091.12548828
0.245,235827117.91992188,207704666.1376953,178332290.64941406,140301940.91796875,116889785.76660156,102014755.24902344,34241920.471191406,34597969.05517578,34926670.07446289,35267700.1953125,69042007.44628906,62892131.80541992,44973926.54418945,22248857.498168945,44542114.2578125,34161651.611328125,33764171.6003418,32949714.66064453,20706218.719482422,3622141.8380737305,32492713.928222656,13571880.340576172,-5087254.047393799,9511980.056762695,14815122.604370117,34701713.56201172,33042083.740234375,1955338.8357162476,-32841743.46923828,-19404403.686523438,-16699094.772338867,-26664949.417114258,-23783885.955810547,-22351646.423339844,-19446290.969848633,-35296604.15649414,-33754756.927490234,-43400043.48754883,-59074649.810791016,-60445705.41381836,-71395622.25341797,-22587438.583374023,-22642103.19519043,-22569389.34326172,-45878658.294677734,-67494056.70166016,-64250579.833984375,-76813125.61035156,-74974388.1225586,-75541809.08203125,-23418201.446533203,-23465074.53918457,-24510892.868041992,-69666259.765625,-73419662.47558594,-82032051.08642578,-80675796.50878906,-68528274.53613281,-24102245.330810547,-68481369.01855469,-63839504.24194336,-52675781.25
0.25,225711593.6279297,202362854.00390625,176507339.47753906,129252838.13476562,109747024.53613281,90270599.36523438,25746271.13342285,26248708.724975586,26385200.50048828,25145866.39404297,59334503.173828125,58100414.27612305,43256954.193115234,23078739.166259766,34043010.71166992,25740272.521972656,25418613.43383789,24532955.169677734,11870567.321777344,-2488536.1194610596,27348453.521728516,12695455.551147461,-4923091.888427734,25014.370679855347,7482494.831085205,26347244.262695312,24655178.07006836,-1628058.1951141357,-32654876.708984375,-17178855.895996094,-15739283.561706543,-24279417.037963867,-28638706.20727539,-27351629.25720215,-23191034.3170166,-35980613.708496094,-32819122.314453125,-39879486.083984375,-53543495.178222656,-55432029.724121094,-67552597.04589844,-27613607.40661621,-27638029.098510742,-27536022.186279297,-44459117.8894043,-67326667.78564453,-56664104.46166992,-68809677.12402344,-68866340.63720703,-70609634.39941406,-28210573.196411133,-28356353.759765625,-29369041.442871094,-69476448.05908203,-68242652.8930664,-79427520.75195312,-78341438.29345703,-68613418.57910156,-28918619.15588379,-68354309.08203125,-63705791.47338867,-57594802.85644531
0.255,218336563.11035156,201992416.38183594,182410446.1669922,124902442.9321289,114889823.91357422,83773742.67578125,20437768.936157227,20892494.201660156,21086616.51611328,21091123.580932617,59698333.740234375,62882240.295410156,51217063.903808594,33062545.776367188,27772964.477539062,20383836.74621582,20217382.431030273,19299715.042114258,6526030.540466309,-5329348.564147949,28487077.713012695,17558948.516845703,1199855.5660247803,-6942309.379577637,1124907.0167541504,21136985.778808594,19396516.799926758,-4121949.6726989746,-32086135.864257812,-13681355.476379395,-10566121.101379395,-18135200.50048828,-34252403.259277344,-33248935.69946289,-28015932.083129883,-37816173.5534668,-31503952.026367188,-35282951.35498047,-46756656.646728516,-47343631.744384766,-61764961.24267578,-33251220.703125,-33491565.704345703,-33359027.862548828,-44608982.08618164,-64568595.88623047,-48665657.04345703,-58670066.833496094,-59096313.4765625,-63275238.037109375,-33983329.77294922,-33902404.78515625,-34993316.650390625,-66887054.443359375,-58923717.4987793,-75915992.7368164,-75054519.65332031,-66261985.778808594,-34566879.27246094,-65798416.13769531,-58782371.520996094,-57680496.21582031
0.26,220604202.2705078,209555130.0048828,193725540.1611328,129767959.59472656,127412620.5444336,86011291.50390625,23353942.87109375,23700992.584228516,24121274.948120117,27973783.493041992,70235214.23339844,73338554.38232422,62779975.89111328,45734752.6550293,29990707.397460938,23246650.69580078,23221588.134765625,22368465.423583984,10829028.129577637,-748504.9366950989,35706340.78979492,25273296.356201172,10266574.85961914,-4849688.529968262,1420288.5627746582,24061391.830444336,22359029.76989746,-2858233.690261841,-30681224.822998047,-11198799.133300781,-4795578.956604004,-10564064.025878906,-34575260.162353516,-33750152.587890625,-28474084.854125977,-38605808.25805664,-31559062.957763672,-35393371.58203125,-45884292.60253906,-43843639.3737793,-56992076.8737793,-33464244.842529297,-33827785.49194336,-33707069.396972656,-46097843.170166016,-61613300.32348633,-49620929.71801758,-58283348.083496094,-56044616.69921875,-59614192.962646484,-34483512.87841797,-34090850.830078125,-35413097.3815918,-64118934.631347656,-56566352.84423828,-74394821.16699219,-73572052.00195312,-63494308.47167969,-34928497.314453125,-63117176.0559082,-53863517.76123047,-52009231.56738281
0.265,227195281.98242188,219989395.14160156,205392715.45410156,132021560.66894531,131978378.29589844,87642639.16015625,25944990.158081055,26294626.235961914,26782430.64880371,31780790.328979492,73707054.1381836,76364730.83496094,67481719.97070312,53305606.842041016,32450042.724609375,25897871.017456055,25898965.83557129,25148725.509643555,14280369.758605957,2300675.392150879,38739852.90527344,30405523.3001709,18383005.142211914,250426.70965194702,4728720.188140869,26635742.1875,24998203.27758789,-1528402.6861190796,-28978088.37890625,-8775347.709655762,583479.5236587524,-1194066.047668457,-29039932.250976562,-28190021.514892578,-24495479.583740234,-36631893.157958984,-30766040.802001953,-36440086.364746094,-44706932.067871094,-41210426.330566406,-48070972.44262695,-27787425.994873047,-28049261.09313965,-27955091.47644043,-43895298.00415039,-55942493.4387207,-50663879.39453125,-58461521.14868164,-51939380.64575195,-52523971.55761719,-28909698.486328125,-28426826.47705078,-29899051.666259766,-58478046.41723633,-54584506.98852539,-66347877.502441406,-65417106.62841797,-57726486.20605469,-29295606.61315918,-57583148.95629883,-46896713.25683594,-41154487.60986328
0.27,224458419.7998047,218683410.64453125,205230010.98632812,123557746.88720703,122105331.42089844,82611686.70654297,20967828.75061035,21371280.670166016,21703752.517700195,22054235.458374023,62259525.299072266,67323776.24511719,62855842.59033203,53360515.59448242,29194807.052612305,21056436.53869629,20886512.756347656,20227485.65673828,7568837.1658325195,-3854182.481765747,32578235.626220703,30107089.99633789,22408060.07385254,488254.1596889496,5045582.294464111,21680711.74621582,20013967.514038086,-3580700.635910034,-28965806.96105957,-6053580.284118652,4936515.808105469,7066067.218780518,-23442455.291748047,-22537788.39111328,-21268032.07397461,-33694427.490234375,-27965867.99621582,-33856933.59375,-38224151.611328125,-35769207.00073242,-36833461.76147461,-22115711.212158203,-22299234.39025879,-22198060.989379883,-37475128.173828125,-47805000.30517578,-43530361.17553711,-50169300.0793457,-41181274.4140625,-41386989.59350586,-23146860.122680664,-22792860.03112793,-24171512.603759766,-50225173.95019531,-45867267.60864258,-53644725.79956055,-52583656.311035156,-49464530.94482422,-23552314.75830078,-49323734.283447266,-38350727.08129883,-31202613.830566406
0.275,208711013.7939453,200329315.18554688,187946395.87402344,111740242.00439453,108789726.25732422,75915260.3149414,13879087.448120117,14254356.384277344,14464549.06463623,8934952.735900879,50336517.333984375,57105186.462402344,56451511.38305664,49105514.52636719,24025560.37902832,14057818.412780762,13582088.470458984,13048865.31829834,-2259157.180786133,-12916992.1875,25254371.643066406,26515813.82751465,20877803.802490234,-3959456.6822052,1941607.95211792,14628795.623779297,12865739.822387695,-6712418.079376221,-31761966.705322266,-5187652.111053467,5682271.480560303,7860734.939575195,-23594045.639038086,-22763833.99963379,-22263782.501220703,-32926696.77734375,-26035629.272460938,-30983697.89123535,-33489280.700683594,-33312908.172607422,-34981941.22314453,-22324068.069458008,-22624582.290649414,-22513553.619384766,-33206882.47680664,-44179729.46166992,-36198646.545410156,-42790828.704833984,-34860748.291015625,-38973873.138427734,-23277332.305908203,-23050661.087036133,-24213600.158691406,-46468078.61328125,-38830841.064453125,-51360038.75732422,-50245822.90649414,-45883388.51928711,-23726413.72680664,-45439308.166503906,-35950176.23901367,-30631011.962890625
0.28,194230453.49121094,182744903.56445312,170098617.55371094,108510139.46533203,106623176.57470703,73855850.21972656,13473750.114440918,13797056.198120117,14055499.076843262,8244677.543640137,53359302.52075195,57730773.92578125,55473075.86669922,45002059.93652344,21847122.192382812,13636570.930480957,12962283.13446045,12613178.253173828,-3011830.8067321777,-13580692.291259766,25991123.19946289,24008199.69177246,15545043.9453125,-8075309.753417969,-1084352.4932861328,14205134.391784668,12408972.74017334,-6982147.693634033,-35429244.99511719,-6861515.998840332,1933680.772781372,660964.31016922,-29140758.514404297,-28400701.52282715,-25479776.38244629,-34568592.0715332,-27252223.96850586,-32822746.27685547,-37623008.728027344,-38991107.94067383,-45833869.93408203,-28034124.37438965,-28458200.454711914,-28382722.854614258,-35464565.27709961,-49360305.78613281,-38939666.748046875,-47748271.94213867,-42365493.77441406,-50262699.127197266,-28994785.30883789,-28792310.71472168,-29799968.719482422,-51556797.02758789,-43669723.51074219,-63106708.52661133,-62055046.08154297,-51160488.12866211,-29427358.627319336,-50448230.7434082,-43288711.54785156,-39843181.61010742
0.285,195718063.3544922,186507797.24121094,173016311.6455078,114267005.92041016,115493217.46826172,75578475.95214844,18542535.78186035,18928243.63708496,19240758.895874023,18601049.423217773,65385459.899902344,66649574.279785156,58324413.29956055,42878929.138183594,21796831.130981445,18595130.920410156,18036846.160888672,17793586.73095703,4374456.882476807,-5869633.197784424,32053367.614746094,24170064.92614746,10551971.435546875,-9102874.755859375,-2198365.2114868164,19201110.83984375,17433134.078979492,-4976926.326751709,-36840400.69580078,-8167955.39855957,-2658556.2229156494,-6301494.121551514,-34549724.57885742,-33718070.98388672,-27315952.30102539,-36105682.373046875,-29224679.946899414,-36952117.919921875,-44969963.07373047,-46742282.86743164,-56329055.78613281,-33589904.78515625,-33921825.40893555,-33876880.64575195,-40591140.74707031,-56956336.975097656,-46710632.32421875,-58077312.46948242,-53905529.0222168,-61463630.67626953,-34536792.75512695,-34342391.96777344,-35278064.7277832,-59066482.54394531,-54464740.75317383,-73344673.15673828,-72438751.22070312,-58693954.46777344,-34854118.34716797,-58033119.201660156,-52440570.83129883,-49202224.73144531
0.29,206614761.35253906,202757705.68847656,189333282.47070312,118574440.0024414,121162155.15136719,77412864.6850586,20949800.491333008,21443355.560302734,21681213.37890625,24545103.073120117,69066146.85058594,71142929.07714844,58416755.67626953,41525596.618652344,21916191.10107422,20840858.459472656,20627595.901489258,20246007.919311523,8609902.381896973,-430581.0034275055,33835506.439208984,24541034.698486328,8605710.983276367,-7577135.08605957,-2136511.0874176025,21583257.6751709,19752038.955688477,-4261734.0087890625,-35762645.72143555,-6858333.587646484,-3870383.0242156982,-6190265.655517578,-35679534.912109375,-34641262.05444336,-27557268.142700195,-36272300.720214844,-28739130.0201416,-37601116.18041992,-45663066.86401367,-47505352.02026367,-54960227.966308594,-34768318.17626953,-34885700.22583008,-34786312.103271484,-42825275.42114258,-58047969.818115234,-48077060.69946289,-59483486.17553711,-55184886.93237305,-60347229.00390625,-35597980.49926758,-35471157.07397461,-36377159.118652344,-60088825.22583008,-58449310.302734375,-71964645.38574219,-71188690.18554688,-59598518.37158203,-35820800.78125,-59167255.40161133,-54973236.083984375,-51218971.252441406
0.295,206224365.234375,201408874.51171875,188246917.72460938,114123863.22021484,113481575.01220703,78536071.77734375,17643587.112426758,18078786.849975586,18256063.46130371,18296525.955200195,60459579.46777344,65287155.15136719,53535987.854003906,39222213.74511719,23081033.70666504,17401498.794555664,17443840.02685547,16767475.128173828,4790093.898773193,-3519127.368927002,28930971.145629883,22799844.74182129,8977319.717407227,-5390325.06942749,-2014966.7263031006,18363142.013549805,16354198.455810547,-5800882.339477539,-35115112.3046875,-4617903.709411621,-1709581.6135406494,-1348359.7040176392,-33943061.82861328,-32850990.295410156,-28612102.508544922,-36513378.14331055,-26978841.78161621,-34940364.837646484,-40126628.87573242,-41857734.68017578,-46575939.1784668,-33059722.900390625,-33076786.041259766,-32886196.13647461,-42099674.224853516,-53607120.513916016,-43407524.10888672,-52033702.8503418,-47756389.61791992,-52659320.83129883,-33699943.54248047,-33670169.830322266,-34608219.146728516,-55666568.756103516,-54693935.39428711,-67432601.92871094,-66677070.61767578,-55075462.341308594,-34045005.798339844,-54732204.43725586,-52709884.64355469,-48989795.68481445
0.3,187530670.16601562,173307662.9638672,158945098.87695312,104085502.62451172,98193016.0522461,78782402.03857422,12705583.572387695,12912265.77758789,13220770.835876465,7535268.783569336,51606822.9675293,55672237.396240234,47607810.974121094,35737831.115722656,24991226.196289062,12454032.897949219,12453782.081604004,11651592.254638672,-1263179.898262024,-10399049.758911133,23857067.108154297,20189811.70654297,9498094.55871582,-5014968.395233154,-2667929.6493530273,13528649.33013916,11441095.352172852,-7522689.342498779,-36812080.38330078,-4046593.66607666,722107.9468727112,2185104.3701171875,-33325504.302978516,-32412322.998046875,-31296049.118041992,-38097198.486328125,-27283861.16027832,-33756561.279296875,-36206401.82495117,-37036937.71362305,-41648525.23803711,-32547660.82763672,-32622013.092041016,-32425037.384033203,-42145774.841308594,-51450656.89086914,-41459728.2409668,-46476646.423339844,-41867885.58959961,-48328628.54003906,-33022331.23779297,-33062019.34814453,-34085178.37524414,-53610004.42504883,-50738967.89550781,-66795700.07324219,-65964256.286621094,-53008449.55444336,-33692951.20239258,-52568531.03637695,-50519031.5246582,-47804920.1965332
0.305,166997924.8046875,145322708.1298828,129062759.39941406,96461738.58642578,88971908.56933594,76484825.13427734,10008002.281188965,10080507.278442383,10613687.515258789,2758011.57951355,51665096.282958984,51269824.98168945,44718395.2331543,32200313.568115234,24371814.727783203,9868868.827819824,9647264.48059082,9059034.34753418,-3505766.8685913086,-13618589.401245117,23596202.850341797,19453714.37072754,9107461.929321289,-7667070.8656311035,-4578729.629516602,10802204.132080078,8887163.162231445,-8156975.746154785,-39135017.39501953,-4929659.843444824,1279754.1618347168,2683624.029159546,-35084262.84790039,-34364490.5090332,-33608833.31298828,-39910148.62060547,-29571325.302124023,-35345706.939697266,-36775234.22241211,-36405941.009521484,-41291114.807128906,-34402328.49121094,-34560569.763183594,-34440177.91748047,-43977996.826171875,-53845722.19848633,-43578548.431396484,-46176177.978515625,-39567607.87963867,-46152175.90332031,-34852630.615234375,-34893936.15722656,-35957866.66870117,-56063064.57519531,-48223693.84765625,-63112667.083740234,-62223342.89550781,-55458065.032958984,-35753326.416015625,-54965480.80444336,-47240703.58276367,-45848392.486572266
0.31,162800888.06152344,145067718.50585938,128747467.04101562,95287406.92138672,91786689.75830078,71749496.45996094,9752371.788024902,9965551.376342773,10561197.280883789,5903836.727142334,56926780.700683594,53824768.06640625,45292289.73388672,30423213.958740234,20310367.584228516,9715116.500854492,9381224.632263184,9107684.135437012,-2080470.8003997803,-11449393.272399902,26333770.751953125,21066776.275634766,8304903.984069824,-11196388.244628906,-7021097.183227539,10390122.413635254,8738459.587097168,-8204612.731933594,-39196758.27026367,-5440827.8465271,197070.36018371582,1840095.1623916626,-37377075.1953125,-36669479.37011719,-33692771.911621094,-40258762.35961914,-30792579.650878906,-36819126.12915039,-38367816.92504883,-38425113.677978516,-41581928.25317383,-36599338.53149414,-36785610.19897461,-36709907.53173828,-45579101.5625,-56272006.98852539,-43947250.36621094,-46370250.7019043,-37859554.290771484,-43365116.119384766,-37219367.98095703,-37177654.26635742,-38179943.0847168,-58424331.66503906,-45029460.90698242,-54524105.072021484,-53675189.97192383,-57748146.057128906,-38014106.75048828,-57340072.63183594,-42327865.60058594,-40649593.353271484
0.315,171453140.25878906,165550262.45117188,151835922.24121094,97126693.72558594,100005821.22802734,66752677.91748047,10550368.309020996,11034236.907958984,11479223.251342773,11952874.183654785,59683544.15893555,59113124.84741211,48096557.6171875,32544281.005859375,15918630.599975586,10508074.760437012,10298315.048217773,10085038.185119629,418041.52727127075,-6915016.174316406,28722171.783447266,23815767.288208008,8929160.118103027,-12663269.996643066,-8862470.626831055,11091371.536254883,9542137.145996094,-7820376.396179199,-36578117.37060547,-4548120.498657227,-289382.4875354767,1261987.6861572266,-38696697.23510742,-37895217.89550781,-32353660.583496094,-39383335.11352539,-29874631.881713867,-36639907.83691406,-38211608.88671875,-40964645.38574219,-42545551.30004883,-37646347.04589844,-37812450.40893555,-37733150.482177734,-46058368.68286133,-56486347.19848633,-41791095.73364258,-45508075.71411133,-38463920.59326172,-45023235.32104492,-38503761.291503906,-38357616.42456055,-39256134.033203125,-58527828.216552734,-44555171.966552734,-53950393.67675781,-53184818.267822266,-57783866.88232422,-38984024.04785156,-57413581.84814453,-41848484.03930664,-37154747.009277344
0.32,172152694.70214844,175965393.06640625,166191741.94335938,93683494.5678711,102589347.83935547,60235637.66479492,10059304.237365723,10661181.449890137,10985136.032104492,14613807.678222656,57590686.7980957,62351642.60864258,51960868.83544922,39381183.62426758,12070798.873901367,9989055.633544922,9990303.039550781,9583865.16571045,2032664.2990112305,-3565854.31098938,30234025.955200195,27468923.568725586,13366382.598876953,-13102063.179016113,-10762526.512145996,10707806.587219238,9123846.054077148,-6704482.078552246,-33464088.439941406,-1886016.1304473877,2939701.557159424,3467481.1363220215,-38953708.64868164,-38129226.68457031,-31853807.44934082,-38751430.51147461,-28572235.107421875,-35480499.267578125,-35670764.9230957,-40837181.091308594,-43323028.564453125,-37698181.15234375,-37814064.025878906,-37787719.7265625,-45963573.45581055,-56280994.4152832,-41463096.618652344,-44602615.35644531,-41336639.404296875,-50870174.407958984,-38626640.31982422,-38483703.61328125,-39301219.94018555,-58303417.20581055,-49024139.404296875,-64200286.865234375,-63433345.794677734,-57599498.7487793,-38904491.42456055,-57090618.13354492,-47144401.55029297,-39373481.75048828
0.325,150762985.2294922,158546188.3544922,153175994.87304688,79251998.90136719,94760650.63476562,47499374.38964844,5371980.667114258,5842531.681060791,6327737.331390381,10026515.96069336,52685825.34790039,61102249.14550781,55036033.630371094,48301399.23095703,5128942.966461182,5387617.588043213,5480119.705200195,4969951.629638672,797376.0962486267,-3519327.6405334473,31277587.890625,32318561.553955078,21887086.868286133,-16329740.524291992,-14526226.043701172,6250696.182250977,4745802.879333496,-5614718.914031982,-31868528.366088867,2294514.4176483154,10506414.413452148,11143942.832946777,-38186332.70263672,-37411903.381347656,-33110610.961914062,-38792732.23876953,-27886068.34411621,-33210628.509521484,-30321975.708007812,-34526142.12036133,-37959140.77758789,-36959648.13232422,-37022384.64355469,-37118499.755859375,-44878910.064697266,-55245124.81689453,-42744232.177734375,-40656887.05444336,-38489387.51220703,-48283737.18261719,-37720840.45410156,-37711589.81323242,-38463970.18432617,-57393817.90161133,-50374660.49194336,-65773040.771484375,-64886207.580566406,-56776844.0246582,-38028392.79174805,-56123058.3190918,-47493026.73339844,-40587253.57055664
0.33,112944877.62451172,122355880.73730469,122162414.55078125,57338443.756103516,80994873.046875,28688806.533813477,-2988707.7808380127,-2738965.0344848633,-1826123.1184005737,337784.40952301025,47852958.67919922,56579673.767089844,55517971.03881836,54315471.64916992,-6283033.847808838,-2796205.0437927246,-2726692.1997070312,-3047037.124633789,-3290514.2307281494,-6026245.1171875,31780889.5111084,36949146.27075195,30497856.14013672,-23142061.233520508,-19888616.56188965,-1943556.6663742065,-3148347.1393585205,-5429081.439971924,-31651090.621948242,5897082.805633545,17863550.186157227,21323232.650756836,-37243305.20629883,-36467243.19458008,-35128383.63647461,-38850357.05566406,-27113506.317138672,-30131633.758544922,-24676237.106323242,-25161714.553833008,-26516305.923461914,-36173927.307128906,-36220195.77026367,-36370960.2355957,-42574577.33154297,-51456520.080566406,-42075553.89404297,-32934818.267822266,-28026491.165161133,-33741195.67871094,-36704406.73828125,-36795734.40551758,-37515964.50805664,-53826000.21362305,-42660297.39379883,-49724273.681640625,-48727691.650390625,-53166580.20019531,-37143371.58203125,-52577163.69628906,-37263114.92919922,-33902832.03125
0.335,74867721.55761719,86663551.3305664,92030708.31298828,37271499.63378906,68620399.47509766,10862626.075744629,-9830606.460571289,-9642960.548400879,-8289978.981018066,-6820803.642272949,45253040.3137207,52726570.12939453,53628055.572509766,54336593.62792969,-17891929.626464844,-9492224.69329834,-9366917.610168457,-9399724.006652832,-6235470.294952393,-7498481.273651123,32426021.575927734,39026855.46875,33671253.2043457,-30574377.059936523,-24600183.486938477,-8702507.019042969,-9546119.689941406,-5352971.076965332,-30985069.274902344,6550463.676452637,19417251.586914062,25637332.916259766,-38642749.78637695,-37806430.81665039,-36781513.21411133,-38731811.5234375,-26230733.87145996,-29303775.787353516,-24357019.424438477,-22298858.642578125,-20903055.19104004,-37653137.20703125,-37694957.7331543,-37772304.53491211,-41016315.46020508,-47814758.30078125,-41167568.20678711,-29690273.28491211,-23485246.658325195,-25467609.405517578,-38056354.52270508,-38075866.69921875,-38860984.802246094,-50376220.703125,-36373451.232910156,-39825389.86206055,-38895690.91796875,-49535324.09667969,-38590885.162353516,-49121589.66064453,-29937347.412109375,-26565746.307373047
0.34,44811214.447021484,60119056.701660156,69980056.76269531,21820310.592651367,58193054.19921875,-2091847.1813201904,-12513098.71673584,-12098801.612854004,-10533749.5803833,-7927434.44442749,43095966.33911133,50463489.5324707,49805660.247802734,48951156.61621094,-26424007.415771484,-12044856.071472168,-11710371.017456055,-11646295.547485352,-5524972.438812256,-6449771.404266357,33163440.704345703,37824317.932128906,29905576.705932617,-36685218.811035156,-28059661.865234375,-11209252.35748291,-11817528.72467041,-4564567.565917969,-28657144.54650879,5355402.46963501,15964612.96081543,21244510.650634766,-42793033.599853516,-41997699.73754883,-37917667.388916016,-38761997.22290039,-25899066.925048828,-32333106.994628906,-29494951.248168945,-28254348.754882812,-27555547.7142334,-41753650.6652832,-41729892.73071289,-41748348.236083984,-41217811.584472656,-48433853.14941406,-43448608.3984375,-35628021.240234375,-33076198.57788086,-35665794.372558594,-42104022.97973633,-41977519.98901367,-42860126.49536133,-50992904.66308594,-42799503.326416016,-54888629.91333008,-54198158.264160156,-50063301.08642578,-42628204.345703125,-49652889.251708984,-37577606.201171875,-28880926.13220215
0.345,17617507.934570312,37411186.21826172,50022804.260253906,3589965.343475342,42893020.62988281,-14595507.621765137,-15907544.136047363,-15099783.897399902,-13584076.881408691,-10026445.388793945,35212749.48120117,44444774.62768555,41981895.446777344,40231681.82373047,-33762516.021728516,-15202651.977539062,-14703598.022460938,-14726026.53503418,-5794927.597045898,-7190885.066986084,30751499.17602539,34367015.83862305,23183193.20678711,-41545364.37988281,-31621250.15258789,-14260980.606079102,-14779899.597167969,-4608104.705810547,-25809667.587280273,5901127.815246582,13866193.771362305,16234279.63256836,-44633670.806884766,-44075065.61279297,-38514675.14038086,-38596096.03881836,-25136096.954345703,-34812732.6965332,-31379297.256469727,-32197189.331054688,-33833007.8125,-43522308.349609375,-43405372.619628906,-43511726.37939453,-39973033.9050293,-49188129.42504883,-44344093.322753906,-39562553.40576172,-41238986.96899414,-46042018.89038086,-43836303.7109375,-43677978.515625,-44467155.45654297,-51469432.83081055,-51256366.72973633,-70934677.12402344,-70423973.0834961,-50708396.911621094,-44154235.83984375,-50093284.606933594,-46449344.635009766,-33877796.1730957
0.35,-13466449.737548828,10404305.458068848,24812963.485717773,-21614910.125732422,19856771.46911621,-29227272.033691406,-24421995.162963867,-23374700.54626465,-22021903.99169922,-20307985.305786133,20023797.9888916,30887723.922729492,29204381.942749023,30393003.463745117,-40723571.77734375,-23443750.381469727,-23016086.57836914,-23084463.119506836,-12135505.676269531,-13591053.009033203,22969030.380249023,30101411.819458008,18623989.10522461,-43633300.78125,-34763935.08911133,-22500629.425048828,-22998517.990112305,-7005478.382110596,-24738615.036010742,8618958.473205566,15792647.361755371,18311759.94873047,-39509807.58666992,-39237583.16040039,-38156436.920166016,-37665626.525878906,-22382102.966308594,-31879640.579223633,-24907018.661499023,-26237302.780151367,-26491254.806518555,-38394264.221191406,-38300373.07739258,-38556838.98925781,-34694572.44873047,-42483352.66113281,-37375434.87548828,-30271371.841430664,-31312417.98400879,-35547405.24291992,-38778030.39550781,-38696361.54174805,-39114624.0234375,-44385169.982910156,-43848934.173583984,-56753894.8059082,-56131767.27294922,-43871562.95776367,-38683624.267578125,-43116004.943847656,-36162326.81274414,-26314485.549926758
0.355,-44447715.759277344,-20385547.637939453,-4378854.751586914,-44124641.41845703,-1992570.5194473267,-38778831.481933594,-32730869.29321289,-31819009.78088379,-30584281.92138672,-32426506.04248047,7420895.576477051,16633569.717407227,17072010.040283203,22665811.53869629,-42814414.978027344,-31737482.07092285,-31463954.92553711,-31457145.69091797,-19744768.142700195,-20758853.912353516,14887010.57434082,26910366.05834961,18044078.826904297,-40601760.86425781,-34797607.421875,-30888044.357299805,-31376686.096191406,-9433173.179626465,-25698244.094848633,9936988.830566406,17265632.62939453,23267335.891723633,-31662103.6529541,-31475414.276123047,-36987640.380859375,-36691619.873046875,-19021688.46130371,-26546203.61328125,-18369937.896728516,-19372489.92919922,-15043878.555297852,-30585220.336914062,-30653306.96105957,-30951044.0826416,-29470760.345458984,-31766370.77331543,-28244546.89025879,-18203084.94567871,-16360502.243041992,-18822967.529296875,-31206027.98461914,-31132980.346679688,-31164813.995361328,-33515403.747558594,-28261899.948120117,-30401920.318603516,-29448900.22277832,-33009544.372558594,-30731981.27746582,-32345355.987548828,-16311435.69946289,-10088644.981384277
0.36,-66655685.42480469,-48238647.4609375,-31043930.053710938,-52821063.99536133,-12796861.64855957,-36989780.42602539,-32767738.342285156,-32203529.357910156,-30997198.1048584,-34540691.37573242,7501306.056976318,11588373.184204102,12474173.545837402,19274644.85168457,-37767932.8918457,-32110652.923583984,-31746034.622192383,-31693601.608276367,-19669670.10498047,-20767057.418823242,13934177.39868164,26223331.451416016,19449924.46899414,-34500957.48901367,-31720296.85974121,-31241218.56689453,-31725374.221801758,-8313133.239746094,-26609088.897705078,8190878.868103027,14364981.651306152,22065999.98474121,-29521650.314331055,-29161252.975463867,-35943531.03637695,-36888591.76635742,-18174310.6842041,-25722860.33630371,-21663629.53186035,-23894735.33630371,-18191432.95288086,-28436332.70263672,-28630035.400390625,-28839670.181274414,-29625402.450561523,-28323781.967163086,-28893960.95275879,-21942148.208618164,-21518611.907958984,-25697723.388671875,-29286693.572998047,-29073913.57421875,-29038543.701171875,-30255815.505981445,-28765415.19165039,-35240203.857421875,-34099925.99487305,-29487556.45751953,-28734664.916992188,-28970733.642578125,-14841634.750366211,-4757589.817047119
0.365,-82537673.95019531,-73052917.48046875,-55452854.15649414,-53922931.67114258,-17758844.37561035,-31361001.96838379,-27724029.541015625,-27309356.689453125,-26100008.010864258,-29885812.759399414,13783129.692077637,12445779.800415039,12280114.17388916,17225017.547607422,-31857311.248779297,-27372129.440307617,-26690523.147583008,-26753177.642822266,-14492342.948913574,-16579729.080200195,17813100.814819336,26044050.216674805,19309673.309326172,-30625194.549560547,-29213167.190551758,-26267822.265625,-26803894.04296875,-5043618.679046631,-26891014.099121094,6031918.048858643,9670645.713806152,15489156.723022461,-31732303.619384766,-31165037.155151367,-35000988.0065918,-37405647.27783203,-19398912.42980957,-29015323.638916016,-30036022.186279297,-34391277.31323242,-32128715.51513672,-30546466.827392578,-30719900.131225586,-30824201.583862305,-31340459.8236084,-31022994.995117188,-37016613.0065918,-36318557.73925781,-40950164.794921875,-49458644.86694336,-31401906.967163086,-30997920.989990234,-31185895.919799805,-33195373.53515625,-43353309.631347656,-65986282.34863281,-65041183.47167969,-32188510.89477539,-30957487.106323242,-31660661.697387695,-29970607.75756836,-11691237.449645996
0.37,-104764480.59082031,-103888755.79833984,-86574356.07910156,-64414138.79394531,-31482826.232910156,-34628787.994384766,-29163457.8704834,-28524677.276611328,-27346351.623535156,-35038108.825683594,9572532.653808594,5281662.464141846,5831030.368804932,10944279.670715332,-32170761.108398438,-28639961.24267578,-27857923.50769043,-28128467.559814453,-16959732.055664062,-20274154.663085938,15817022.323608398,21966890.335083008,15868700.02746582,-29913223.266601562,-29109033.584594727,-27289867.401123047,-28004558.563232422,-5062746.524810791,-29108818.05419922,5290390.968322754,7504124.164581299,13039436.340332031,-27307794.57092285,-26769987.106323242,-32828186.03515625,-35924411.77368164,-18631210.327148438,-29175916.67175293,-30770500.18310547,-34654724.12109375,-33821689.60571289,-26001300.811767578,-26142715.454101562,-26200559.616088867,-25414844.512939453,-24166862.48779297,-36674007.415771484,-36517089.84375,-42292137.145996094,-51615642.54760742,-26702674.865722656,-26168334.9609375,-26498809.814453125,-26328722.00012207,-40210597.99194336,-69343460.08300781,-68766929.62646484,-25311504.364013672,-26154146.194458008,-24700983.04748535,-26716964.721679688,-7460913.181304932
0.375,-134865570.06835938,-140942718.50585938,-124430435.18066406,-86093124.38964844,-54636123.65722656,-46096160.888671875,-39576808.92944336,-38608219.146728516,-37485584.2590332,-53856479.64477539,-7266534.328460693,-12218882.56072998,-8170909.881591797,1457758.4266662598,-36614387.51220703,-38509311.67602539,-38096401.21459961,-38510078.43017578,-30109096.52709961,-34149375.915527344,5233702.182769775,14254717.826843262,11555021.286010742,-28438072.204589844,-29240947.723388672,-37180976.86767578,-38130363.46435547,-9737279.891967773,-34183094.0246582,4230204.105377197,7757563.591003418,18376098.6328125,-13909521.102905273,-13634404.182434082,-29724140.167236328,-32739635.467529297,-14697090.148925781,-24075521.46911621,-22754739.76135254,-22772701.263427734,-16782243.728637695,-12593444.82421875,-12833313.941955566,-12901094.436645508,-12628990.173339844,-2666813.850402832,-22934299.46899414,-16148096.084594727,-16705051.42211914,-21496955.87158203,-13240034.103393555,-12654700.27923584,-12796609.878540039,-4631134.510040283,-7101259.231567383,-26854969.024658203,-26413578.033447266,-3701847.791671753,-12287055.015563965,-3155632.972717285,8351739.883422852,18650394.439697266
0.38,-154713836.66992188,-164922592.16308594,-149680068.96972656,-100673103.33251953,-69214782.71484375,-52895591.735839844,-48155342.10205078,-47111957.55004883,-45974327.087402344,-68222053.52783203,-19202331.54296875,-23787757.873535156,-16931419.372558594,-2750455.379486084,-38572761.53564453,-46748340.60668945,-46789451.599121094,-47202907.56225586,-40472248.07739258,-44187904.357910156,-2571267.1279907227,10137049.674987793,10827507.972717285,-26117795.944213867,-29075407.028198242,-45679485.32104492,-46662281.03637695,-13804559.707641602,-37542545.318603516,2418904.3045043945,8287802.696228027,24454637.52746582,-5730503.082275391,-5667738.914489746,-29152290.34423828,-31688339.233398438,-11750788.688659668,-20109561.920166016,-16892084.1217041,-13812187.194824219,-1925715.9233093262,-4538745.880126953,-4897922.992706299,-5004677.295684814,-5674435.615539551,15350231.170654297,-10747321.128845215,1875335.5741500854,5910961.151123047,4911450.386047363,-5299062.728881836,-4707530.498504639,-4494534.492492676,13479382.514953613,25101036.071777344,12709230.422973633,13317222.595214844,14414045.333862305,-4018886.089324951,14786178.588867188,41034332.275390625,43009296.41723633
0.385,-149910842.8955078,-159147003.17382812,-145279739.3798828,-96232849.12109375,-63733516.693115234,-49852676.39160156,-47140323.638916016,-46306148.529052734,-44990085.60180664,-63652481.07910156,-14386514.663696289,-17774248.123168945,-12042349.815368652,1995053.8873672485,-38060432.43408203,-45920780.181884766,-45937660.217285156,-46234184.26513672,-37473224.63989258,-39384586.334228516,1438734.8890304565,14263749.122619629,14210224.151611328,-28605089.18762207,-32137485.50415039,-45010162.353515625,-45689537.048339844,-13056499.481201172,-34424419.40307617,3251660.108566284,9422833.442687988,24487697.60131836,-14286691.665649414,-14164503.09753418,-33431423.18725586,-34909965.51513672,-12887246.131896973,-21440570.831298828,-17863874.435424805,-16382244.110107422,-5863642.692565918,-13200716.972351074,-13518930.435180664,-13625541.687011719,-11310886.38305664,12902208.32824707,-12189127.922058105,291227.40030288696,2289590.835571289,-1236537.218093872,-14056802.749633789,-13451703.071594238,-13068284.034729004,10952988.624572754,26487606.048583984,6187742.233276367,6928061.008453369,11924948.692321777,-12802536.964416504,12252565.383911133,38038841.247558594,40620166.77856445
0.39,-132652145.38574219,-136646759.03320312,-123536613.46435547,-85191772.4609375,-51189464.5690918,-46424999.23706055,-42653274.53613281,-42054649.353027344,-40457405.09033203,-51155097.96142578,-4281034.94644165,-5852983.9515686035,-3462143.1827545166,7457664.012908936,-40254642.486572266,-41830955.505371094,-41379753.11279297,-41529064.1784668,-29212015.15197754,-28474540.71044922,9674904.823303223,20403533.935546875,16754467.010498047,-36767295.837402344,-38841236.11450195,-40761405.94482422,-41079544.06738281,-10309830.665588379,-27679700.85144043,7874797.344207764,11794919.967651367,20573928.833007812,-29383935.928344727,-29061283.111572266,-38899444.580078125,-38734355.92651367,-15097244.262695312,-23553110.122680664,-18404867.17224121,-21420419.692993164,-17396305.084228516,-28253334.045410156,-28439966.201782227,-28414363.861083984,-19608875.274658203,-792999.267578125,-18755811.69128418,-8075435.638427734,-11043421.745300293,-20625112.533569336,-29067502.975463867,-28394586.56311035,-28151556.01501465,-2771036.8633270264,11122000.694274902,-21539323.806762695,-20931884.765625,-1905853.1522750854,-27985233.306884766,-1461093.1873321533,15284492.492675781,22184223.175048828
0.395,-126505195.61767578,-126567459.10644531,-113198509.2163086,-85588745.1171875,-50671737.67089844,-50467735.290527344,-43444839.47753906,-42913600.92163086,-41177997.58911133,-50430236.81640625,-5887286.66305542,-6428271.293640137,-5322672.367095947,4707052.707672119,-44699520.111083984,-42744766.23535156,-41972965.240478516,-42061912.536621094,-29464666.36657715,-27194610.595703125,9029859.54284668,19293378.829956055,14803492.546081543,-41566440.58227539,-42082191.467285156,-41398712.158203125,-41723274.23095703,-10415740.013122559,-24957321.166992188,11367005.348205566,13072210.311889648,18588737.48779297,-31344905.853271484,-31011285.78186035,-39089393.615722656,-37881305.69458008,-13966349.601745605,-21470451.35498047,-13757998.4664917,-19017492.294311523,-17210674.285888672,-30118999.481201172,-30301258.087158203,-30048694.610595703,-18245809.55505371,-4423664.569854736,-16637104.034423828,-3871002.9125213623,-7427826.404571533,-19496255.87463379,-30861686.70654297,-30113910.675048828,-30118047.7142334,-6248574.733734131,11594986.915588379,-21378156.661987305,-20960786.819458008,-5577530.384063721,-29815128.326416016,-5113596.439361572,10901828.76586914,16779653.549194336
0.4,-134638732.91015625,-136039718.6279297,-121816162.109375,-95338745.1171875,-60924968.71948242,-56112564.08691406,-47335052.490234375,-46730484.00878906,-45187507.62939453,-61067577.36206055,-16829473.4954834,-18046577.45361328,-15238442.420959473,-2999426.6033172607,-44835681.9152832,-46465404.51049805,-45852420.806884766,-46038547.51586914,-37105926.513671875,-35539894.104003906,285286.3371372223,12106784.82055664,11276970.863342285,-35890533.447265625,-36212543.48754883,-45065544.12841797,-45759433.74633789,-12843597.412109375,-28096412.658691406,9592978.477478027,11279737.47253418,19692314.14794922,-18066822.052001953,-18007265.090942383,-33107849.12109375,-32749576.568603516,-10421234.130859375,-17884384.155273438,-9753487.586975098,-13430301.666259766,-6383097.6486206055,-16890558.24279785,-17195091.247558594,-16846513.748168945,-10071976.661682129,4816281.795501709,-8244416.236877441,8581140.518188477,9254029.273986816,146308.10916423798,-17644742.965698242,-16951141.357421875,-17035364.151000977,3180961.847305298,29174684.524536133,6151614.665985107,6627252.578735352,3821018.2189941406,-16593461.990356445,4060815.3343200684,29054100.036621094,29498838.424682617
0.405,-139965835.57128906,-145172302.24609375,-130556625.36621094,-98884094.23828125,-66238876.34277344,-54714035.03417969,-46970584.869384766,-46268161.77368164,-45093391.41845703,-66335426.330566406,-21488868.713378906,-24017871.856689453,-19684770.584106445,-6154403.6865234375,-39212398.529052734,-46015525.817871094,-45702125.549316406,-46072708.12988281,-40137386.322021484,-39901718.13964844,-4357303.619384766,8368715.286254883,10681703.567504883,-26176847.457885742,-27035387.03918457,-44794837.951660156,-45748508.45336914,-13509921.073913574,-30875699.996948242,6043455.600738525,8945638.656616211,20694393.157958984,-6640647.411346436,-6852899.074554443,-27264356.61315918,-29024827.95715332,-8701723.098754883,-17750711.44104004,-11551029.205322266,-13386769.29473877,-334639.7876739502,-5629481.792449951,-5954037.189483643,-5799059.867858887,-6960126.3999938965,11595751.762390137,-5559286.594390869,12230246.543884277,16356435.775756836,10840394.020080566,-6405375.003814697,-5908183.0978393555,-5855738.162994385,10021568.298339844,38505489.349365234,21963283.53881836,22674507.14111328,10856376.647949219,-5496237.277984619,10855782.508850098,41900138.85498047,40037799.83520508
0.41,-134612396.24023438,-141216049.19433594,-127462188.72070312,-92845558.1665039,-61973941.802978516,-49518783.56933594,-43080184.93652344,-42330253.60107422,-41298976.89819336,-60477848.052978516,-15501264.572143555,-18603330.612182617,-15133041.381835938,-3248646.4977264404,-35133518.21899414,-42291084.28955078,-41965343.4753418,-42442546.84448242,-35419055.9387207,-34635234.83276367,-103957.86166191101,11710132.598876953,12167526.245117188,-24343870.162963867,-25452400.20751953,-41179122.92480469,-41974060.05859375,-11741697.311401367,-28757265.090942383,6605172.157287598,9728565.216064453,19890447.61657715,-8298929.214477539,-8470811.84387207,-26982280.731201172,-29951866.149902344,-9589005.470275879,-19792781.829833984,-14511134.147644043,-17269655.227661133,-3629798.650741577,-7329195.499420166,-7479553.22265625,-7635141.372680664,-11182894.706726074,8820722.579956055,-9803666.114807129,6151589.393615723,10211085.319519043,4627976.894378662,-8023536.682128906,-7649378.299713135,-7422751.903533936,7230258.941650391,31680414.1998291,13908274.65057373,14697703.36151123,8237019.5388793945,-7219839.096069336,8266049.385070801,37347293.853759766,37796558.38012695
0.415,-129803009.03320312,-134754592.8955078,-122334632.87353516,-88925796.50878906,-57480438.232421875,-50430335.998535156,-42550853.72924805,-41827068.32885742,-40533866.88232422,-54816188.81225586,-9136576.652526855,-12066615.104675293,-9984578.132629395,333809.10754203796,-38417598.724365234,-41911663.05541992,-41338779.44946289,-41767742.15698242,-31624528.884887695,-28224670.41015625,5664471.626281738,16606573.104858398,12859189.0335083,-31568155.28869629,-32734069.82421875,-40691890.716552734,-41159755.70678711,-10685708.045959473,-25056112.28942871,10866106.986999512,13152236.938476562,19079868.31665039,-15470626.831054688,-15352174.758911133,-30527441.024780273,-32620426.177978516,-10109156.608581543,-19356880.18798828,-12650656.700134277,-17388206.481933594,-6591747.283935547,-14349512.100219727,-14312709.80834961,-14564121.24633789,-14199517.250061035,5310529.2320251465,-11796409.606933594,3997876.6441345215,7089533.32901001,-1030312.2997283936,-14892372.131347656,-14396473.88458252,-14125237.464904785,3753682.3749542236,26542709.350585938,7468414.306640625,8077220.916748047,4681797.504425049,-13878753.662109375,4947823.524475098,31736083.984375,33637603.759765625
0.42,-132939437.86621094,-134758255.0048828,-121770088.19580078,-92577995.30029297,-55853424.072265625,-58663070.67871094,-46157680.51147461,-45498699.18823242,-43806751.2512207,-56560295.10498047,-8196133.613586426,-10216560.363769531,-7069452.76260376,4918734.550476074,-45686660.76660156,-45382064.81933594,-44731868.743896484,-45036224.365234375,-33500358.58154297,-27327062.606811523,7444792.2706604,19856346.130371094,15353960.990905762,-38317409.51538086,-39585990.90576172,-44044925.689697266,-44424915.3137207,-11549824.714660645,-24361301.42211914,14208573.341369629,16601488.11340332,20688053.131103516,-17317029.95300293,-17007585.525512695,-32894229.888916016,-33021144.86694336,-9116145.133972168,-16542644.500732422,-8519600.868225098,-13026265.144348145,-3435260.772705078,-16099901.19934082,-16024921.417236328,-16096754.07409668,-12114139.556884766,6910557.746887207,-8806651.11541748,9602807.998657227,13172341.346740723,3728673.219680786,-16530170.440673828,-15817957.878112793,-15607870.101928711,5417180.53817749,32342403.411865234,16501466.751098633,16918779.373168945,6108354.568481445,-15183352.47039795,6517467.498779297,35697036.74316406,35874912.26196289
0.425,-134160354.61425781,-130790344.23828125,-113881370.5444336,-94897407.53173828,-48882907.86743164,-65943977.35595703,-47607711.79199219,-46958732.60498047,-45090244.29321289,-58171352.38647461,-6551713.943481445,-5897602.081298828,680273.175239563,16369865.417480469,-50467647.552490234,-46546024.322509766,-46066394.8059082,-46258323.669433594,-35337326.04980469,-27269706.72607422,9091604.232788086,25580484.39025879,24487272.262573242,-39132953.64379883,-40064815.521240234,-45277854.919433594,-45803787.23144531,-11951652.526855469,-24905286.78894043,15995862.007141113,20242460.250854492,24887193.67980957,-15762635.231018066,-15555513.381958008,-32895019.53125,-31473306.65588379,-8655351.638793945,-15378446.578979492,-7631829.738616943,-9943824.768066406,529549.3602752686,-14709533.69140625,-14665971.755981445,-14569403.648376465,-10762215.614318848,7221004.009246826,-7430417.537689209,12873551.368713379,17298780.44128418,8779988.288879395,-15095523.834228516,-14326837.539672852,-14157336.235046387,5719443.798065186,35870162.96386719,23661006.927490234,24094488.1439209,6276769.161224365,-13744432.44934082,6625881.671905518,37826030.73120117,37072776.794433594
0.43,-124480644.22607422,-113302352.90527344,-91124481.20117188,-89522109.98535156,-35045421.6003418,-67583457.94677734,-44627971.64916992,-43884006.50024414,-42060722.35107422,-52780174.255371094,-384059.8464012146,4721518.993377686,14341904.640197754,32619262.6953125,-52112377.16674805,-43472454.07104492,-43085784.912109375,-43161415.100097656,-32638149.26147461,-22810808.181762695,13914390.563964844,35448429.107666016,37312374.114990234,-38747524.26147461,-38744037.62817383,-42328788.75732422,-42903411.865234375,-10542491.912841797,-22140501.022338867,19341026.306152344,25516237.258911133,29431064.60571289,-18288042.068481445,-18307138.442993164,-33094024.658203125,-30707412.719726562,-9377523.422241211,-16500783.920288086,-8678393.363952637,-9883947.372436523,647203.6242485046,-17490585.327148438,-17410934.448242188,-17396224.975585938,-13675984.382629395,2199528.694152832,-9847120.28503418,9371648.788452148,13822391.510009766,6544828.89175415,-17880142.211914062,-17185295.10498047,-16981176.376342773,626248.5384941101,28233875.274658203,16207981.10961914,16789754.86755371,1243955.2545547485,-16829652.786254883,1510170.340538025,30021535.873413086,31539882.65991211
0.435,-111757324.21875,-93215316.77246094,-68293304.44335938,-83787605.28564453,-26054576.873779297,-67595558.1665039,-42523593.90258789,-41669910.4309082,-39852298.736572266,-46498859.40551758,3348388.195037842,12413132.667541504,22958358.764648438,42089305.87768555,-54118106.842041016,-41522808.07495117,-40981086.73095703,-40920925.14038086,-29970149.993896484,-18008769.989013672,17182615.280151367,42960262.298583984,44551704.40673828,-42130123.138427734,-41434989.92919922,-40356765.74707031,-40746063.232421875,-9391959.190368652,-16551233.291625977,24050836.56311035,30729682.92236328,31865394.592285156,-23567733.764648438,-23664064.407348633,-34534320.83129883,-31038124.084472656,-8791121.482849121,-16439546.585083008,-6566742.897033691,-8907481.19354248,455146.4915275574,-22807783.126831055,-22664760.58959961,-22883424.758911133,-15432953.834533691,-451399.5051383972,-9483829.498291016,7492396.354675293,12233798.98071289,4997311.592102051,-23272933.959960938,-22568082.809448242,-22278606.414794922,-2061323.1658935547,21591983.795166016,8564646.72088623,9234685.897827148,-1320171.2369918823,-22321624.755859375,-1016634.3450546265,24282173.15673828,27915821.075439453
0.44,-107487648.0102539,-85715385.43701172,-61769824.98168945,-85890518.18847656,-28994405.74645996,-69754577.63671875,-44906558.990478516,-44058856.96411133,-42149612.42675781,-47520301.818847656,-1256532.3114395142,9420273.780822754,19573526.38244629,39476081.84814453,-56809638.97705078,-44015777.587890625,-43343963.623046875,-43226356.506347656,-32423736.572265625,-18816686.630249023,14192007.064819336,42985569.00024414,43391082.763671875,-46159385.681152344,-45663616.18041992,-42792068.48144531,-42970088.958740234,-10397147.178649902,-12875898.361206055,26171083.450317383,32894176.483154297,32046611.785888672,-24113994.598388672,-24107881.546020508,-35342792.51098633,-30583831.787109375,-5597106.93359375,-14012595.176696777,-1630527.9731750488,-5377650.260925293,4078882.6942443848,-23166030.883789062,-23061422.34802246,-23409925.46081543,-11534851.07421875,5610572.338104248,-3019951.343536377,12952917.098999023,19254726.40991211,11508778.57208252,-23787044.525146484,-23008798.599243164,-22598945.61767578,4038418.2929992676,28038356.78100586,16182813.64440918,16823118.209838867,4822564.601898193,-22562244.415283203,5184350.01373291,31869750.9765625,34351680.755615234
0.445,-110219810.48583984,-89455345.1538086,-67515869.140625,-91555259.70458984,-35498371.12426758,-71250511.1694336,-47974952.697753906,-47228496.55151367,-45370941.162109375,-52858646.392822266,-8342291.831970215,2413065.9103393555,12260669.708251953,33654968.26171875,-56792121.88720703,-46943077.087402344,-46460956.57348633,-46452243.80493164,-36898880.00488281,-22976915.35949707,8939037.322998047,40023101.806640625,41216014.86206055,-45179744.720458984,-45419166.564941406,-45890190.12451172,-46032981.872558594,-12215327.262878418,-13202351.570129395,24837152.4810791,32969490.05126953,32098106.384277344,-18995531.08215332,-18911184.310913086,-34448310.85205078,-29212820.053100586,-2489358.901977539,-12339491.844177246,1073149.561882019,-2669708.490371704,9061352.729797363,-17912326.81274414,-17949850.08239746,-18233629.22668457,-6846624.851226807,13530282.974243164,3047616.481781006,19181627.27355957,27173103.33251953,19640121.459960938,-18658056.259155273,-17982702.255249023,-17462062.83569336,12030982.971191406,39477020.263671875,30495079.040527344,31048460.006713867,12754402.160644531,-17267892.837524414,13055671.691894531,43713352.20336914,44006114.9597168
0.45,-113501327.51464844,-96825431.82373047,-75351562.5,-92307174.68261719,-36571281.43310547,-68539634.70458984,-47158443.450927734,-46446594.23828125,-44921493.53027344,-54656700.134277344,-8796864.50958252,1691221.4756011963,11579282.760620117,34606857.29980469,-52727275.84838867,-45907890.31982422,-45791213.98925781,-45949806.213378906,-37557460.78491211,-24237564.086914062,8488491.05834961,40837970.73364258,44051246.643066406,-39672569.274902344,-40920364.37988281,-45199871.06323242,-45428962.70751953,-12507514.953613281,-15183959.9609375,24023010.25390625,34787620.544433594,33480808.25805664,-14702766.418457031,-14721892.356872559,-33434101.104736328,-29066030.502319336,-2432720.66116333,-13483504.295349121,-25579.597800970078,-3022095.6802368164,11120108.604431152,-13688726.425170898,-13849186.897277832,-13969714.164733887,-8047001.838684082,13579645.156860352,2181154.0126800537,18636960.983276367,27165443.420410156,20583770.751953125,-14388927.459716797,-13996628.761291504,-13514668.464660645,12164026.260375977,41417510.986328125,35001796.72241211,35469661.712646484,12771171.569824219,-13325895.309448242,12948479.652404785,45288932.80029297,46054321.2890625
0.455,-118746612.54882812,-109642608.64257812,-87839271.54541016,-89192543.02978516,-36126701.35498047,-63918926.23901367,-44012664.794921875,-43186046.6003418,-42059326.171875,-52787590.02685547,-3206435.6803894043,5803534.507751465,15831175.804138184,40346145.62988281,-47543529.51049805,-42764095.306396484,-42801521.30126953,-42970340.728759766,-34833698.27270508,-22028562.545776367,12992712.020874023,44349758.14819336,48599380.49316406,-34749900.817871094,-37723396.30126953,-42205219.26879883,-42500148.77319336,-11247039.794921875,-16302688.598632812,26222064.971923828,39037654.876708984,35160751.34277344,-14456268.310546875,-14692328.453063965,-33741008.75854492,-30865156.173706055,-4311031.341552734,-15175937.65258789,-1367784.023284912,-3846235.2752685547,11058639.526367188,-13570739.74609375,-13746613.502502441,-13702445.983886719,-13035530.090332031,8127936.363220215,-2798376.3217926025,14402196.884155273,23009962.08190918,17133863.44909668,-14073706.62689209,-13826704.978942871,-13618644.714355469,6813757.89642334,34931556.701660156,30640214.920043945,31078435.89782715,7304649.353027344,-13488163.948059082,7447919.3687438965,38995342.25463867,42516803.74145508
0.46,-127725471.49658203,-128127822.87597656,-107028038.02490234,-88721092.2241211,-40465354.919433594,-61782142.639160156,-42569122.314453125,-41584514.61791992,-40629993.4387207,-52387741.08886719,992137.9089355469,6648566.722869873,17039630.889892578,42898593.90258789,-44352497.10083008,-41546401.97753906,-41431571.96044922,-41416229.248046875,-33331539.154052734,-20420579.91027832,17146617.889404297,45359317.779541016,49643600.46386719,-32794433.59375,-38007980.34667969,-40776752.47192383,-41106662.75024414,-10042240.142822266,-16231700.897216797,28946554.18395996,42259475.70800781,35441505.432128906,-14285196.304321289,-14649097.442626953,-34228942.87109375,-32242160.79711914,-4669358.730316162,-14682880.401611328,-512692.57068634033,-2176048.0403900146,12393333.435058594,-13405762.672424316,-13502020.835876465,-13326016.426086426,-14374246.597290039,7116650.104522705,-4909111.976623535,14028069.496154785,23435361.862182617,17346851.348876953,-13730494.499206543,-13334949.493408203,-13455342.292785645,5892467.975616455,31863565.44494629,29734216.690063477,30254753.11279297,6331233.024597168,-13196478.843688965,6544272.899627686,37800064.08691406,43324569.70214844
0.465,-131694427.49023438,-137331344.6044922,-117422866.82128906,-90371543.88427734,-44587341.30859375,-61796119.689941406,-42698474.8840332,-41655055.99975586,-40622505.18798828,-53369091.03393555,1002810.5974197388,3854611.1583709717,14562543.869018555,40827709.19799805,-43000221.252441406,-41837165.83251953,-41546611.78588867,-41359363.5559082,-34039142.60864258,-20449762.34436035,18506706.23779297,43967628.479003906,48831184.38720703,-31850511.55090332,-38317806.243896484,-40783256.53076172,-41175640.10620117,-9535590.171813965,-15262356.758117676,29258775.71105957,42096641.540527344,34413661.95678711,-10674123.764038086,-10954370.498657227,-32804904.93774414,-30779756.546020508,-2468891.382217407,-12899114.608764648,840317.3089027405,690552.830696106,15188657.760620117,-9687378.883361816,-9676525.115966797,-9447052.955627441,-10187079.429626465,12964942.932128906,-2642463.9225006104,18176755.905151367,28591093.063354492,21521581.649780273,-9978715.896606445,-9394968.98651123,-9582497.596740723,11756829.261779785,35900798.79760742,34994464.87426758,35673362.731933594,12256831.169128418,-9085662.841796875,12514079.093933105,44390872.955322266,49944820.404052734
0.47,-122785362.24365234,-125307357.78808594,-105288177.49023438,-88291740.41748047,-40672725.677490234,-60487789.154052734,-41488452.91137695,-40472229.00390625,-39286140.44189453,-51244373.3215332,264988.0051612854,3740503.3111572266,13538930.892944336,38696495.056152344,-41721286.77368164,-40521709.44213867,-40260032.653808594,-40096939.08691406,-34020542.14477539,-19549831.39038086,18936603.546142578,44321617.126464844,50603221.89331055,-30110479.3548584,-36014896.392822266,-39453216.552734375,-39892616.271972656,-9102972.984313965,-13565947.532653809,28174512.86315918,40275009.15527344,33339683.532714844,-6104792.11807251,-6171930.78994751,-29392055.51147461,-27180294.036865234,151373.952627182,-12370367.050170898,728539.3476486206,1416194.0813064575,16460666.65649414,-5002960.205078125,-4946343.421936035,-4784244.537353516,-5496822.834014893,18783407.21130371,231250.6139278412,21772638.32092285,32163280.487060547,23785787.58239746,-5370772.838592529,-4814556.121826172,-4747514.247894287,17502395.629882812,40704406.73828125,38937332.15332031,39706676.4831543,18155622.482299805,-4214217.185974121,18358587.26501465,50065235.13793945,54471916.19873047
0.475,-108754096.98486328,-104735710.14404297,-83752777.09960938,-82414695.7397461,-32474945.068359375,-57418037.41455078,-38776691.43676758,-37744220.73364258,-36429481.506347656,-46074707.03125,1099472.6419448853,7548423.290252686,14765419.960021973,38672046.66137695,-40138095.85571289,-37542140.96069336,-37411594.39086914,-37403598.78540039,-32051670.07446289,-16971979.14123535,19726720.809936523,46908691.40625,54429302.21557617,-28329586.029052734,-33309429.168701172,-36697666.16821289,-37074703.216552734,-8311503.4103393555,-11950788.497924805,28524610.51940918,39877803.802490234,32772567.749023438,-4837462.425231934,-4776258.945465088,-26196073.532104492,-24275854.110717773,1274348.1397628784,-13231507.301330566,144823.87900352478,-353610.1281642914,15461646.08001709,-3658727.6458740234,-3678880.453109741,-3647885.322570801,-4158491.611480713,19498893.73779297,1252304.0771484375,22609153.747558594,32110954.28466797,22302001.953125,-4103342.5331115723,-3679175.37689209,-3307246.446609497,18117067.337036133,42263435.36376953,38364025.1159668,39070747.37548828,18920259.475708008,-3009470.224380493,19040397.64404297,49994010.92529297,52501274.10888672
0.48,-102144081.11572266,-96468521.11816406,-76087020.87402344,-78365142.82226562,-29384571.075439453,-54927795.41015625,-37031127.9296875,-35897712.70751953,-34474746.70410156,-42826496.12426758,2270390.033721924,10362155.91430664,15171209.335327148,39680461.88354492,-38834468.841552734,-35598213.19580078,-35510707.85522461,-35596035.00366211,-30016345.977783203,-14604085.922241211,20286176.681518555,48972785.94970703,57164199.82910156,-27431573.86779785,-33113338.470458984,-34933715.8203125,-35191406.25,-7297342.777252197,-10986204.147338867,31001499.17602539,42277496.337890625,32912048.33984375,-6932743.072509766,-6961484.909057617,-25252464.294433594,-23713672.637939453,1314784.4076156616,-13458921.432495117,1149374.7234344482,-1396376.8482208252,15228276.252746582,-5728389.263153076,-5894208.908081055,-5925870.895385742,-4870203.971862793,17239027.02331543,1358973.503112793,23193170.54748535,32264114.379882812,20877679.8248291,-6197469.234466553,-5791437.149047852,-5306929.111480713,15818824.768066406,42654430.3894043,37619384.765625,38203010.55908203,16662590.026855469,-5240263.46206665,16765729.904174805,48247817.99316406,48243053.4362793
0.485,-102969268.79882812,-102326095.58105469,-84971405.02929688,-78327781.6772461,-32423748.016357422,-53118770.599365234,-36995925.90332031,-35800628.662109375,-34339328.76586914,-43920654.296875,2824012.7563476562,9710676.193237305,14730733.871459961,41347953.79638672,-37115501.403808594,-35519557.95288086,-35429729.46166992,-35486679.07714844,-29522579.193115234,-13485864.639282227,20678009.033203125,50445537.56713867,59215187.072753906,-26235200.881958008,-34081024.169921875,-34855075.83618164,-35147232.05566406,-6141835.2127075195,-10038405.418395996,33876483.91723633,46799579.62036133,34507541.65649414,-8621744.155883789,-8874838.829040527,-26206106.185913086,-24652538.299560547,1545616.5075302124,-12326314.926147461,3751809.597015381,847121.8347549438,18450157.165527344,-7484634.876251221,-7721291.542053223,-7694749.355316162,-5141018.390655518,16007795.333862305,1767007.4701309204,25452913.284301758,35326782.2265625,22156658.172607422,-7947844.505310059,-7503334.045410156,-7066958.427429199,14667540.550231934,43455173.49243164,39538829.8034668,40083862.3046875,15403690.338134766,-7004959.1064453125,15553651.809692383,48915603.63769531,47208072.662353516
0.49,-104620918.27392578,-111006607.05566406,-97070327.75878906,-79836494.44580078,-36274887.08496094,-50075290.67993164,-37022518.157958984,-35929477.69165039,-34592849.73144531,-47068908.69140625,3314997.434616089,7588154.315948486,15196771.621704102,43023628.23486328,-33667339.32495117,-35576511.38305664,-35605983.73413086,-35617279.052734375,-30323757.17163086,-13256889.343261719,21441699.981689453,53201976.77612305,62441169.73876953,-23097200.393676758,-32610088.348388672,-34828800.201416016,-35417289.73388672,-4917685.508728027,-8869414.329528809,35154003.14331055,51200359.34448242,37376461.029052734,-6979056.835174561,-7400368.690490723,-26661193.84765625,-25358949.661254883,2105391.025543213,-11463652.610778809,5928402.900695801,4809524.059295654,23679887.771606445,-6006254.67300415,-6176205.635070801,-6061908.24508667,-4833103.179931641,16484323.501586914,2168354.034423828,27898580.55114746,39549007.415771484,24451524.73449707,-6457542.419433594,-6104590.41595459,-5757536.4112854,15308482.17010498,43186088.56201172,41623229.98046875,42233997.3449707,15873280.52520752,-5575949.192047119,16063119.888305664,50402442.932128906,49466270.446777344
0.495,-107404861.45019531,-118413864.13574219,-105892097.47314453,-81574058.53271484,-39242637.634277344,-46657985.68725586,-36116146.087646484,-35215324.40185547,-34126792.907714844,-49431545.25756836,3734327.0778656006,5515535.831451416,15031931.87713623,41998340.60668945,-29438425.064086914,-34691074.37133789,-34926361.083984375,-34939914.70336914,-31419273.376464844,-13809016.227722168,21605171.20361328,55896057.12890625,64823608.3984375,-18772527.69470215,-28297800.064086914,-33879829.40673828,-34822731.018066406,-3992715.1203155518,-8749207.496643066,34170894.622802734,52685977.935791016,39070301.0559082,-2822738.8858795166,-3277766.704559326,-24825231.552124023,-25116495.13244629,2260849.952697754,-12275551.795959473,6062566.28036499,6458449.840545654,26712055.206298828,-2018318.6531066895,-2087424.0398406982,-1965211.5106582642,-4724203.109741211,16996725.08239746,1992187.9768371582,28246210.0982666,41934028.62548828,25120113.372802734,-2438960.7906341553,-2255642.4140930176,-2056963.9205932617,15932846.069335938,41213077.545166016,41143115.99731445,41847667.6940918,16441034.317016602,-1837024.6887207031,16620210.647583008,49405273.4375,51105861.66381836
