time,Fp1,Fpz,Fp2,AF3,AF4,F7,F5,F3,F1,Fz,F2,F4,F6,F8,FT7,FC5,FC3,FC1,FCz,FC2,FC4,FC6,FT8,T7,C5,C3,C1,Cz,C2,C4,C6,T8,TP7,CP5,CP3,CP1,CPz,CP2,CP4,CP6,TP8,P7,P5,P3,P1,Pz,P2,P4,P6,P8,PO7,PO5,PO3,POz,PO4,PO6,PO8,CB1,O1,Oz,O2,CB2
0.0,2044139.3852233887,1931711.4353179932,1498010.277748108,2043331.8614959717,1184888.0052566528,2035321.9509124756,2009006.2618255615,2063285.1123809814,1258073.4491348267,869299.590587616,862808.6447715759,876149.3563652039,881205.3799629211,-766728.5203933716,2026572.7043151855,2040188.5509490967,1445981.8601608276,816629.8866271973,491624.1765022278,450351.8342971802,530802.6075363159,-6879.514548927546,-959208.8460922241,2035243.7496185303,1782219.0523147583,965963.0060195923,975010.097026825,309700.071811676,234108.7907552719,204998.9551305771,-626510.9181404114,-1002021.9087600708,406961.47084236145,434653.1927585602,1438959.8369598389,605340.3615951538,-86245.25368213654,454606.0562133789,494801.8789291382,-90145.14088630676,-533570.5280303955,877418.7564849854,1872172.1172332764,612760.1861953735,466914.26634788513,871479.1536331177,316310.1375102997,-15414.33110833168,258659.36279296875,18845.98284959793,975851.5954017639,979850.2326011658,864170.3128814697,938457.2505950928,617248.8331794739,624680.8767318726,119166.87339544296,1188751.220703125,1182864.4275665283,1026808.2618713379,160020.53022384644,284813.67230415344
0.005,-1482907.1760177612,-857224.16639328,-5811613.082885742,6341178.894042969,2551451.9214630127,7149296.760559082,6935299.873352051,7471139.430999756,6189667.701721191,741075.7541656494,569017.4698829651,908917.1290397644,720347.1064567566,-25847867.965698242,6951306.8199157715,12416641.235351562,5895837.306976318,3414029.359817505,953724.8611450195,-481759.6673965454,1056289.3152236938,-7223062.992095947,-30464117.0501709,7378512.382507324,14038093.566894531,4531960.487365723,2498770.7138061523,2982031.3453674316,-692129.7311782837,-1365270.8530426025,-12859363.555908203,-31487180.709838867,-8693447.11303711,1419926.0473251343,3835546.2551116943,1126193.2849884033,-1108733.057975769,282862.0374202728,-867902.7557373047,-4280904.769897461,-6346681.594848633,-3270677.328109741,1718198.8954544067,964627.742767334,-306571.1259841919,1324441.3137435913,693413.8536453247,-1008826.2557983398,-258525.49076080322,3486614.70413208,-813609.1232299805,-581572.5922584534,-811948.1801986694,1465126.0375976562,1248431.921005249,1236261.9638442993,2817618.3700561523,910030.0073623657,947800.0402450562,3550656.318664551,-2084455.4901123047,-1245086.3122940063
0.01,-12173644.065856934,-6769829.750061035,-11670364.379882812,1521521.2106704712,-112135.26129722595,2507228.374481201,2165024.518966675,3059046.506881714,2378911.9720458984,-2833138.942718506,-3030067.6822662354,-2649550.437927246,-2780563.5929107666,-32081371.307373047,2169576.406478882,10914459.228515625,2349625.3490448,-108758.8220834732,-1538180.7088851929,-3290865.659713745,-1148032.1884155273,-8769453.048706055,-38439472.19848633,2813241.481781006,15420400.619506836,2189392.328262329,-570341.2294387817,1578750.8487701416,-989286.9591712952,-1881068.468093872,-14704068.183898926,-39867702.48413086,-16105199.813842773,838579.8931121826,1746309.518814087,-101667.27006435394,-1444323.4205245972,555126.3093948364,-612327.4564743042,-3477408.1707000732,-4389638.423919678,-5314361.095428467,-929774.5823860168,869230.5088043213,-867854.7739982605,1691354.8707962036,2129149.4369506836,1606179.118156433,2503541.2311553955,10035696.029663086,-565675.1394271851,-331802.93440818787,-269385.9934806824,2708654.1652679443,4467097.759246826,4532940.864562988,8869553.565979004,2405121.326446533,2478680.372238159,6717842.578887939,577343.225479126,1471049.5471954346
0.015,-22278396.606445312,-11519466.400146484,-13746533.393859863,-6502056.59866333,-3704057.9319000244,-4509981.155395508,-4912813.663482666,-3781014.919281006,-5549952.507019043,-7291919.231414795,-7467138.290405273,-7186984.062194824,-7105371.475219727,-22885902.404785156,-4782434.940338135,3872784.8529815674,-4129943.84765625,-6327984.809875488,-5283641.338348389,-6450684.547424316,-4484815.1206970215,-5682230.9494018555,-28670299.530029297,-4110552.7877807617,10972286.224365234,-1964792.4900054932,-4913057.804107666,-2204308.032989502,-920936.2268447876,-1605995.2974319458,-8768659.591674805,-29942516.326904297,-16841489.791870117,1141498.2080459595,-1045320.3916549683,-1432510.3759765625,-1272708.0583572388,918711.3642692566,780452.3706436157,806357.0261001587,3433761.8350982666,-2448796.7491149902,-2130651.4739990234,1953253.0307769775,-180945.35171985626,2614928.4839630127,3822188.138961792,5560742.8550720215,6582396.030426025,17056041.717529297,2916947.364807129,3039386.510848999,3114276.885986328,5190225.124359131,8536978.721618652,8740653.991699219,15699429.512023926,7088940.143585205,7085254.669189453,11286984.44366455,6869074.821472168,8265603.065490723
0.02,-17474069.595336914,-7612868.309020996,-10138715.744018555,-3742094.2783355713,-1847025.3944396973,1624460.9355926514,1189075.5891799927,2492387.294769287,-5373326.301574707,-7035024.166107178,-7304640.293121338,-6971690.1779174805,-6781782.627105713,-16123905.181884766,1679353.5947799683,7402981.758117676,-1710869.6699142456,-6493973.255157471,-5941483.974456787,-6671432.018280029,-4951918.125152588,-3222061.6340637207,-21291118.621826172,2335875.7495880127,14434572.219848633,1048494.6966171265,-3340783.5960388184,-3284132.480621338,-1067689.5380020142,-1489364.504814148,-5382641.315460205,-22330539.70336914,-7475097.179412842,6172492.980957031,2991787.910461426,354707.65829086304,-1266090.989112854,816257.7748298645,1768651.6046524048,3312562.2272491455,8682984.352111816,6377435.684204102,4323997.497558594,6549157.14263916,3151175.2605438232,5139786.243438721,4463275.43258667,6077435.01663208,7611034.393310547,19206363.677978516,9704113.960266113,9838305.473327637,9209935.188293457,9458445.54901123,10219970.703125,10480788.230895996,17995254.516601562,15138482.093811035,14913649.559020996,17822179.794311523,11881952.285766602,15400348.663330078
0.025,1723964.6911621094,4272439.956665039,-2677510.976791382,11577574.729919434,5392649.173736572,21040262.22229004,20557933.807373047,21953189.849853516,5418216.705322266,-1568960.189819336,-2016638.7557983398,-1510502.0999908447,-1355627.0599365234,-20131557.46459961,21440366.744995117,23748512.268066406,10874744.415283203,1119449.496269226,-2653182.7449798584,-3621026.039123535,-1832608.8190078735,-3911473.274230957,-25614351.272583008,22103937.14904785,28066625.595092773,11740368.843078613,4650537.967681885,-246653.6909341812,-1496460.9146118164,-1899285.078048706,-8386714.935302734,-26697256.088256836,6332691.669464111,14884814.262390137,13718122.482299805,5266374.588012695,-1643546.5812683105,326993.6740398407,1757963.4189605713,2048793.3158874512,6882927.417755127,17012113.571166992,16971857.07092285,13977566.719055176,8890722.274780273,9134844.779968262,4297631.740570068,2947581.7680358887,4952440.26184082,15425006.866455078,17859123.22998047,18124654.76989746,17442558.28857422,15341315.269470215,9757399.559020996,9911944.389343262,14937066.078186035,23994192.123413086,23597143.173217773,25267347.33581543,13600740.432739258,19454961.7767334
0.03,16548833.847045898,12899037.36114502,2340545.177459717,24160507.202148438,10156054.496765137,35005981.4453125,34439247.131347656,35827789.306640625,15160640.716552734,2827909.231185913,2259541.2731170654,2835778.7132263184,2968939.781188965,-27517423.629760742,35454807.28149414,36616397.857666016,20986507.415771484,8233608.245849609,345346.6296195984,-1028089.8809432983,911897.7785110474,-6151241.779327393,-33348808.28857422,36118423.46191406,38706771.85058594,20109189.987182617,11263195.991516113,2975526.809692383,-2051622.6291656494,-2641150.951385498,-12661885.261535645,-34645458.22143555,13119353.294372559,20807825.088500977,21878484.72595215,9267655.372619629,-2049644.947052002,-130166.56041145325,1042594.4328308105,-605445.8022117615,1289015.6507492065,22051937.103271484,25940462.112426758,19747020.721435547,14075925.827026367,12468194.007873535,4415317.058563232,476248.6517429352,2011038.5417938232,10033931.732177734,23177219.39086914,23541051.864624023,25027275.08544922,20656261.444091797,9982758.522033691,9934199.333190918,10931181.907653809,28808389.66369629,28495859.146118164,30270425.79650879,13874186.515808105,19411731.719970703
0.035,10998984.336853027,8319350.242614746,-593564.2719268799,19711601.25732422,6449442.386627197,28411420.822143555,27745738.983154297,29111396.78955078,12660793.30444336,698773.1456756592,87914.07942771912,648801.6843795776,806055.9630393982,-29910079.956054688,28623781.204223633,31862386.70349121,17661216.735839844,7078319.549560547,-889963.3884429932,-2206838.1309509277,-316566.25866889954,-8132603.645324707,-35444210.052490234,29270551.681518555,35024494.17114258,17919561.3861084,10018760.681152344,2661332.845687866,-2813355.2074432373,-3572780.3707122803,-13687412.26196289,-36821811.67602539,7772110.939025879,19023380.279541016,20036752.700805664,8812796.592712402,-2191897.6306915283,-560015.2015686035,-330358.8926792145,-2413895.1301574707,-2692527.0557403564,17881986.618041992,23619398.11706543,19639883.041381836,14961218.83392334,12542207.717895508,4593410.491943359,1082358.956336975,1164677.619934082,7336179.733276367,21880910.873413086,22296310.424804688,27087882.99560547,21945466.995239258,11381415.367126465,11187502.86102295,9602128.028869629,26210103.98864746,26157592.7734375,29511644.36340332,14012542.724609375,16060747.146606445
0.04,-8816870.68939209,-5514084.815979004,-9214236.25946045,3027571.678161621,-1774623.7516403198,8828898.429870605,8132665.634155273,9554821.968078613,1523525.9532928467,-5468005.657196045,-6082366.466522217,-5452376.842498779,-5350025.177001953,-28081666.946411133,8824907.302856445,15467928.886413574,5430981.159210205,231804.35597896576,-4636272.430419922,-5587255.477905273,-3869764.566421509,-9420181.274414062,-33222827.911376953,9444862.365722656,21967115.40222168,8799985.885620117,3620168.2090759277,68783.84947776794,-3480629.6825408936,-4286158.561706543,-12626488.68560791,-34463172.912597656,-2762418.270111084,12107338.905334473,11439196.586608887,4953282.356262207,-2119742.3934936523,-1108660.8171463013,-2117631.196975708,-3355419.874191284,-3153121.7098236084,9019031.524658203,13504325.866699219,14410019.874572754,10831080.436706543,9135427.474975586,3591824.769973755,2642746.925354004,1454017.2815322876,7716952.323913574,15101668.357849121,15595660.209655762,21606260.299682617,17991310.119628906,11479595.184326172,11318397.521972656,10233037.948608398,18446741.104125977,18551834.106445312,23665893.5546875,13044363.975524902,11378520.965576172
0.045,-21574020.385742188,-13929589.27154541,-14194176.67388916,-7323117.733001709,-4897272.109985352,-2736946.8212127686,-3315911.7698669434,-1816365.4804229736,-4586479.663848877,-7993368.625640869,-8497502.326965332,-7794392.108917236,-7815470.218658447,-26200389.862060547,-2760465.145111084,5434514.52255249,-1619368.553161621,-3148547.887802124,-5474786.281585693,-6350193.977355957,-4727179.050445557,-9134421.348571777,-31429698.944091797,-2208384.5138549805,13709918.975830078,3176866.292953491,-7572.48792797327,-790071.0701942444,-2984514.4748687744,-3769177.198410034,-11656679.153442383,-32508922.576904297,-8080009.460449219,7147515.773773193,5487847.328186035,1823679.3279647827,-1924098.3724594116,-1327077.7463912964,-3022106.170654297,-3565901.756286621,-1600793.8385009766,3560260.29586792,5814843.17779541,9152409.553527832,5159480.571746826,5022296.905517578,1432515.3827667236,2576053.6193847656,1306891.5605545044,9077865.600585938,8924282.07397461,9478688.24005127,13129672.050476074,11811636.924743652,9177708.625793457,9224933.624267578,10480020.523071289,12072677.612304688,12121038.436889648,17585596.084594727,10524436.950683594,8025906.562805176
0.05,-15300554.275512695,-8161938.667297363,-9256243.705749512,-1048021.9125747681,956606.4476966858,3133648.39553833,2781563.0435943604,4236904.144287109,951773.9415168762,-3378496.4084625244,-3593005.895614624,-3057756.185531616,-3049192.9054260254,-24814624.786376953,3152976.0360717773,9711985.58807373,2903909.206390381,848411.6792678833,-1299276.2327194214,-2505467.8916931152,-890280.4255485535,-6358134.2697143555,-30324483.87145996,3595354.3186187744,16198949.813842773,5586614.608764648,2456788.3014678955,1378233.3135604858,-857137.4416351318,-1606715.7983779907,-10381973.266601562,-31413640.97595215,-6318259.239196777,7461969.375610352,6476871.490478516,1735031.9623947144,-1625135.7793807983,-623986.6614341736,-2057629.3468475342,-2620149.850845337,-345785.2900028229,4270357.608795166,5577340.126037598,7668073.654174805,2012432.8136444092,3073719.024658203,-264194.19050216675,1340888.9770507812,754540.5626296997,9678361.892700195,7821530.818939209,8344414.710998535,8295733.451843262,7601690.769195557,6549249.649047852,6842200.756072998,9738509.178161621,10989408.493041992,10914878.845214844,15095762.252807617,7959966.18270874,7308907.032012939
0.055,346292.108297348,4407042.503356934,522200.70362091064,12618602.752685547,9322237.014770508,15403038.024902344,15215196.60949707,16521369.934082031,10375055.313110352,3294345.6172943115,3377135.5152130127,3570244.789123535,3867485.284805298,-23432300.567626953,15370301.246643066,19021547.317504883,11409732.818603516,6604452.610015869,3696121.6926574707,2242144.823074341,3850576.639175415,-3033433.198928833,-28981544.494628906,15773856.163024902,22342988.967895508,10794665.336608887,6770948.886871338,3878628.0155181885,1400883.436203003,723806.8580627441,-8757673.263549805,-30211248.39782715,-3827545.404434204,9740091.323852539,10190342.903137207,3237577.199935913,-1403737.4258041382,611626.4462471008,-426406.5623283386,-1330532.7892303467,-810657.5012207031,6574344.635009766,8549660.682678223,8945830.345153809,2062806.8447113037,3499607.563018799,-365870.2075481415,741316.1993026733,345206.23087882996,9002375.602722168,9668785.095214844,10156665.802001953,8396022.79663086,6486093.997955322,5705943.1076049805,6084838.390350342,8785605.430603027,12459398.26965332,12339246.74987793,15106619.834899902,6651885.986328125,7619509.220123291
0.06,7519191.741943359,9215456.008911133,3902923.583984375,17491821.2890625,10855279.922485352,18979724.884033203,18746162.41455078,19994915.008544922,12276265.144348145,4271467.685699463,4395520.6871032715,4446125.507354736,5062279.70123291,-24008234.02404785,18891038.89465332,21341144.561767578,13513915.061950684,6940544.605255127,3993781.328201294,2705194.7116851807,4332785.606384277,-3098490.9534454346,-29449756.622314453,19439184.188842773,23714429.85534668,12155196.189880371,7645129.203796387,3939974.784851074,1643575.5491256714,1068029.284477234,-8866695.404052734,-30746253.967285156,-4487211.227416992,9983631.134033203,11335650.444030762,4036899.5666503906,-1533486.4854812622,1242389.9173736572,-225033.9239835739,-1414771.6760635376,-2457977.294921875,6211964.130401611,9307781.219482422,10138525.009155273,3346078.1574249268,4787432.1937561035,695992.7082061768,1204105.019569397,138453.1408548355,7813498.973846436,10077008.247375488,10623052.597045898,9814889.907836914,6998204.708099365,6547777.17590332,6756711.483001709,8382356.643676758,12282381.057739258,12162405.967712402,14897792.81616211,6550984.859466553,7040766.23916626
0.065,1453593.0156707764,1926413.655281067,-3071471.4527130127,10107584.953308105,3807698.0113983154,13592408.180236816,13133086.204528809,14516697.883605957,5640023.708343506,-1861930.7279586792,-1941635.251045227,-1701297.2831726074,-1048884.9878311157,-27590040.20690918,13625463.485717773,17143838.88244629,9022139.549255371,2129977.4646759033,-636591.0172462463,-1630686.7599487305,105085.5964422226,-7274687.29019165,-32942363.739013672,14434301.376342773,21412155.151367188,10123699.188232422,5440726.757049561,2140495.0618743896,-218811.70570850372,-754811.4061355591,-11310045.24230957,-34129863.73901367,-4236048.221588135,9449720.38269043,10740211.486816406,4216452.598571777,-1972512.8412246704,877212.0475769043,-1348121.5238571167,-2650412.5595092773,-3013425.588607788,5796566.486358643,9341512.680053711,11200342.178344727,4987771.034240723,6399223.804473877,2075086.3552093506,2095671.1769104004,488517.3738002777,7864095.687866211,9843648.910522461,10410683.631896973,11073965.072631836,8642115.592956543,8340574.264526367,8257699.012756348,9271443.367004395,11918957.710266113,11775830.268859863,15350087.16583252,7777422.4281311035,7073636.054992676
0.07,-6403323.173522949,-7264936.447143555,-12125535.96496582,1940314.2929077148,-4404582.0236206055,10981358.528137207,10273198.127746582,11831487.655639648,-431874.96066093445,-8805879.592895508,-9056790.351867676,-8595364.570617676,-8209078.788757324,-31049303.05480957,11256438.255310059,15902780.532836914,6250100.612640381,-1439117.5508499146,-5137093.067169189,-6132343.292236328,-4248189.926147461,-11295417.785644531,-36186687.46948242,12248746.871948242,22205549.240112305,10080391.883850098,4642021.656036377,1209292.8886413574,-2057385.6830596924,-2666057.348251343,-13276456.832885742,-37221416.47338867,1310439.8250579834,11852131.843566895,12617202.758789062,5301766.872406006,-2338586.0919952393,233899.74236488342,-1793875.5750656128,-3000444.8890686035,-1294807.5532913208,10007804.870605469,13144305.229187012,13803709.030151367,7452448.36807251,8469420.433044434,3101964.4737243652,2784321.069717407,1619362.235069275,9794676.780700684,12968146.324157715,13353822.708129883,13978038.787841797,11604358.673095703,10507525.444030762,10289333.34350586,11431496.620178223,15672731.399536133,15503401.756286621,18781627.655029297,10391291.618347168,10362786.293029785
0.075,-5007744.312286377,-6958959.102630615,-12493614.196777344,3138462.543487549,-5426785.945892334,16336154.93774414,15491348.266601562,17064796.447753906,749554.0976524353,-9818138.122558594,-10059206.008911133,-9600154.876708984,-9505042.07611084,-30660152.435302734,16696641.92199707,20837177.276611328,9487887.382507324,30661.59412264824,-5170203.20892334,-6415796.756744385,-4439018.249511719,-10932388.305664062,-35493629.455566406,17701814.651489258,27017807.006835938,13542671.203613281,7013827.800750732,2437530.755996704,-2172961.711883545,-2889585.7334136963,-12501177.787780762,-36533790.588378906,7969361.305236816,16098390.579223633,16576250.076293945,6987626.075744629,-2392056.703567505,-178418.05517673492,-1229321.002960205,-2283245.56350708,483817.33894348145,16098154.067993164,18413583.755493164,16396650.314331055,9092308.99810791,9234102.249145508,2542474.9851226807,2263001.6803741455,1869923.2339859009,11189510.345458984,17609821.319580078,17759963.989257812,16896240.234375,13174316.40625,10904001.235961914,10854179.382324219,12506300.926208496,21342235.565185547,21160547.256469727,22373977.661132812,12016809.463500977,14548773.765563965
0.08,3321103.811264038,2517842.2927856445,-2779791.3551330566,10662113.189697266,1978682.279586792,21262289.04724121,20446241.37878418,21891216.278076172,6202431.678771973,-4346559.047698975,-4528133.869171143,-4171606.0638427734,-4136299.6101379395,-26693798.065185547,21406309.127807617,24437299.728393555,13627715.110778809,3856496.810913086,-1162555.21774292,-2534238.815307617,-536112.368106842,-6744061.470031738,-31569984.436035156,22327684.40246582,29030471.801757812,15737318.992614746,9320647.239685059,4577307.224273682,-864723.6824035645,-1628726.601600647,-10367022.514343262,-32782047.271728516,7387870.311737061,16397602.081298828,16992172.241210938,6983296.3943481445,-2252974.74861145,-643274.2476463318,-1625605.3447723389,-2732910.633087158,-501886.0697746277,15511585.235595703,16966726.303100586,14575233.459472656,6327874.183654785,5963923.931121826,-627337.1577262878,-349811.1665248871,-985625.8034706116,9046530.723571777,16071954.727172852,16239366.53137207,13760352.13470459,9144089.698791504,6846308.23135376,7106702.3277282715,9503793.716430664,20553064.346313477,20312467.575073242,19629747.39074707,9163829.803466797,13151638.03100586
0.085,8949397.087097168,11894592.28515625,9031259.536743164,15012135.50567627,12042295.455932617,17308530.807495117,16681024.551391602,18019592.28515625,9312974.92980957,2877632.1411132812,2685039.0434265137,3033436.5367889404,3244732.8567504883,-21827032.0892334,17117023.468017578,20309570.3125,12449618.339538574,5728319.16809082,3526154.041290283,2267162.799835205,4254986.28616333,-2177452.0874023438,-27207054.138183594,17952571.868896484,23992406.845092773,12819832.801818848,8390023.231506348,5919227.123260498,835098.6838340759,78609.80927944183,-8820274.353027344,-28571882.247924805,-898773.1337547302,10758605.95703125,11394409.1796875,4547852.993011475,-2054190.6356811523,-1112846.9705581665,-3458701.6105651855,-4658076.286315918,-2817506.5517425537,6327885.627746582,7020227.909088135,7935171.127319336,-736404.4785499573,-411815.3154850006,-4887689.113616943,-3667758.7032318115,-5645713.806152344,4721181.392669678,6546863.555908203,6980534.553527832,3671687.602996826,665873.646736145,-139781.95190429688,273399.56164360046,3590950.4890441895,11200909.614562988,10849200.248718262,10337852.478027344,2751795.768737793,5174948.692321777
0.09,8823407.173156738,15368428.230285645,15417470.932006836,13845255.851745605,18482233.04748535,9488614.082336426,9119034.767150879,10432435.035705566,8959140.77758789,7482838.153839111,7301993.846893311,7671971.797943115,8102199.554443359,-17308963.775634766,9138711.929321289,13460015.296936035,7885225.772857666,5360319.137573242,6459018.707275391,5292744.159698486,7267270.565032959,994292.3784255981,-23060825.34790039,9912466.049194336,17547023.77319336,8172194.480895996,5987001.419067383,6250633.716583252,2617187.261581421,1880906.105041504,-6956400.394439697,-24421356.201171875,-7315369.129180908,5320749.759674072,5640857.219696045,2357323.169708252,-1738787.293434143,-617865.4432296753,-3880866.527557373,-4584477.424621582,-1610259.771347046,-1736588.5972976685,-1446847.677230835,2898135.185241699,-5977479.457855225,-4411506.175994873,-6602484.703063965,-4352459.907531738,-7262854.57611084,3620801.6872406006,-1488138.5564804077,-867635.7269287109,-4165355.2055358887,-4479610.919952393,-3831711.0538482666,-3510494.2321777344,545631.2894821167,3297214.984893799,2916162.9676818848,3596181.631088257,-1051623.4636306763,-758309.9007606506
0.095,7757152.557373047,15143798.828125,15662618.637084961,12537681.579589844,19468126.29699707,8663440.704345703,8446393.966674805,9723734.855651855,8759668.350219727,8463607.788085938,8425120.35369873,8732803.344726562,9233619.689941406,-13173918.724060059,8413400.650024414,12999567.031860352,6410904.407501221,5170989.036560059,7115482.330322266,5843952.655792236,7854815.483093262,3173600.196838379,-18687500.0,9158818.244934082,17751203.536987305,7837708.950042725,5986984.729766846,6239037.990570068,4306685.447692871,3620448.350906372,-3440377.950668335,-19960939.407348633,-4771070.957183838,6551167.4880981445,6642882.347106934,3136561.393737793,-1359346.3897705078,1144193.5300827026,-1006755.5904388428,-426181.73360824585,4542049.407958984,274777.889251709,768629.5509338379,4957401.275634766,-4380941.390991211,-2482134.3421936035,-4541312.694549561,-1542294.0254211426,-3891970.8728790283,8023580.551147461,355631.41107559204,901394.5460319519,-1880895.1377868652,-1452924.7283935547,-1064019.9184417725,-866640.2697563171,3545652.6279449463,6066463.947296143,5837378.025054932,6218657.01675415,1373025.894165039,2953630.4473876953
0.1,8782203.674316406,14978664.39819336,13272831.916809082,13944985.389709473,17137462.615966797,15126843.452453613,14849170.684814453,16026254.653930664,9986014.366149902,6956598.75869751,7093166.828155518,7366722.106933594,7760561.943054199,-10813576.698303223,15065459.251403809,18624528.884887695,9003432.273864746,5718664.169311523,5893340.110778809,4463968.753814697,6631336.688995361,4222609.519958496,-15860305.786132812,15844309.80682373,23567106.246948242,11757160.186767578,8414871.215820312,6054688.930511475,5038400.173187256,4438643.932342529,-328133.4340572357,-17132890.701293945,2054096.4603424072,12098793.029785156,12609795.570373535,5787039.756774902,-1218276.3814926147,2651731.7295074463,2250670.909881592,4023992.0616149902,10403376.579284668,8077149.391174316,9047847.747802734,10792985.916137695,809271.3952064514,1960857.5105667114,-2047958.6124420166,1011811.8524551392,-185094.8929786682,12907468.795776367,6925279.61730957,7302535.057067871,5075915.813446045,4374833.106994629,3111038.92326355,3363018.51272583,7974864.482879639,14284361.839294434,14272145.27130127,12782923.698425293,5530766.487121582,11557801.246643066
0.105,9653938.293457031,14916423.797607422,10802241.325378418,14933175.086975098,14365774.154663086,19137002.94494629,18693391.799926758,19786575.317382812,10193215.370178223,4552112.579345703,4724722.385406494,5124292.373657227,5367639.541625977,-12140729.904174805,19175579.071044922,21758110.04638672,10453511.238098145,5530922.412872314,3929298.162460327,2453288.793563843,4844378.471374512,3152035.713195801,-17129930.49621582,20035877.227783203,26762847.900390625,14160373.68774414,9734786.987304688,5592122.554779053,4279229.164123535,3713889.3604278564,-920086.681842804,-18529148.10180664,4304379.463195801,14256085.395812988,15722934.72290039,7049824.7146606445,-1439483.2849502563,2392797.4700927734,1839383.3637237549,3562926.2924194336,10189416.885375977,10760964.393615723,11824881.553649902,12796316.146850586,2534710.168838501,3290459.8712921143,-2493161.678314209,-153728.73842716217,-1231146.9316482544,12212989.807128906,7335888.862609863,7656517.98248291,5578114.032745361,4850623.13079834,2453783.0352783203,2851278.781890869,7402726.173400879,15907139.778137207,15978544.235229492,13667385.10131836,5236816.40625,14055707.931518555
0.11,9277372.360229492,13908057.21282959,8724302.291870117,13606690.406799316,12624315.26184082,16862430.572509766,16345972.061157227,17455633.16345215,8604729.652404785,2869530.200958252,2922776.460647583,3468285.322189331,3651439.666748047,-16574626.922607422,16894479.751586914,19165271.759033203,8434187.889099121,4619318.48526001,3002382.0400238037,1486818.552017212,3962983.6082458496,315398.78249168396,-21836118.698120117,17826318.740844727,24371925.354003906,12527825.355529785,8796191.215515137,5377479.553222656,2975188.0168914795,2332361.2213134766,-4711783.885955811,-23361742.01965332,1616431.3554763794,11195253.372192383,13706244.468688965,6371382.713317871,-1687448.7400054932,1223186.3737106323,-1252271.294593811,-889664.2923355103,4935781.955718994,6804581.642150879,7785933.971405029,10058077.812194824,215633.15391540527,1747033.8344573975,-4233259.201049805,-2870238.5425567627,-4929834.365844727,7289418.2205200195,1901777.0290374756,2263717.6513671875,-10128.787718713284,1124869.3466186523,-856597.363948822,-488229.9304008484,2930092.5731658936,10465197.563171387,10466562.271118164,9679894.44732666,2032515.525817871,8939460.754394531
0.115,10498242.378234863,13250250.816345215,7419743.537902832,13126763.343811035,11928494.453430176,15388451.57623291,14909212.112426758,16105129.24194336,8095509.5291137695,2921323.537826538,2804141.9982910156,3310467.004776001,3507735.252380371,-20858524.322509766,15365571.975708008,17146549.224853516,7155374.050140381,4941272.735595703,3917836.1892700195,2209636.2113952637,4512957.572937012,-2280824.661254883,-26147197.723388672,16334928.512573242,22272026.06201172,11002297.401428223,8568353.652954102,6020905.9715271,2466321.4683532715,1751245.617866516,-7712038.516998291,-27655935.287475586,792703.8073539734,8897991.180419922,12440826.416015625,6356552.1240234375,-1629380.464553833,1216203.212738037,-2310416.9368743896,-3458536.8633270264,834452.6886940002,4879916.191101074,6678412.914276123,9030760.765075684,-47631.219029426575,2265407.3238372803,-3254161.596298218,-2372017.3835754395,-5136098.861694336,4856597.900390625,1250843.4057235718,1660112.5001907349,-381354.80880737305,1530565.3810501099,370980.6203842163,471230.0896644592,1456777.3342132568,9355823.516845703,9283209.800720215,10275900.840759277,2663860.082626343,5782749.652862549
0.12,13757605.55267334,14209659.576416016,7829091.0720825195,15319052.696228027,11770360.946655273,19076433.181762695,18577173.233032227,19849725.7232666,10145565.9866333,4114713.191986084,3841370.8209991455,4222154.61730957,4403629.302978516,-22110303.87878418,18979293.823242188,19921421.05102539,9731225.01373291,6870004.653930664,5305664.539337158,3378223.180770874,5394576.549530029,-3233749.6280670166,-27070886.611938477,19965120.315551758,24602981.567382812,13010051.727294922,10709715.843200684,6915437.698364258,2677644.0143585205,2033447.7424621582,-7708577.632904053,-28429117.20275879,3974121.570587158,11231719.970703125,15629270.553588867,8100708.0078125,-1429979.0859222412,2426371.5744018555,-155050.3522157669,-1822654.0088653564,1164061.188697815,9017133.712768555,12559690.475463867,12822872.161865234,4117924.690246582,5814424.03793335,175726.90546512604,1258072.3762512207,-1371363.7590408325,7234629.154205322,8723750.114440918,9165358.543395996,8305736.541748047,8004590.98815918,6405642.986297607,6250473.0224609375,4967711.448669434,17115957.260131836,17051372.528076172,17759750.366210938,8123691.558837891,10114533.424377441
0.125,13615317.344665527,14614746.09375,9716998.100280762,15781341.552734375,11643891.334533691,20617507.934570312,19988765.716552734,21306470.87097168,11368684.768676758,4591066.360473633,4207293.510437012,4628143.787384033,4764585.971832275,-20220525.74157715,20467557.907104492,21680530.548095703,12069473.266601562,7760359.764099121,5136617.183685303,3262389.1830444336,5105283.260345459,-2988346.576690674,-24966079.711914062,21410392.76123047,26484979.6295166,15242254.257202148,12051725.387573242,6598454.95223999,2470752.239227295,1937843.7995910645,-6463598.728179932,-26206991.19567871,5584782.600402832,14031513.214111328,18295825.958251953,9055440.902709961,-1441503.643989563,2711494.4458007812,1033574.104309082,-163597.56886959076,3005599.021911621,12300831.79473877,16550720.21484375,16131254.196166992,7054037.570953369,7355429.649353027,1472040.6532287598,2920575.3803253174,128960.5051279068,9468085.289001465,14359090.805053711,14786638.259887695,15296228.408813477,12474478.721618652,9253419.876098633,9109120.36895752,7443021.297454834,23462686.53869629,23440736.770629883,22675113.677978516,11625535.011291504,15090420.722961426
0.13,6734244.346618652,11695631.980895996,11002929.6875,10538587.57019043,11021605.491638184,13141996.383666992,12443575.859069824,13790131.568908691,8240826.606750488,3164434.4329833984,2788050.1747131348,3377707.7198028564,3559233.9038848877,-17565950.393676758,13051326.751708984,16269741.05834961,9130438.804626465,5614746.570587158,3258021.831512451,1756752.848625183,3576234.1022491455,-2635530.2333831787,-22443283.081054688,13819965.362548828,22479349.13635254,13249805.450439453,9553236.961364746,4788397.312164307,1622304.916381836,1018239.1405105591,-6221763.134002686,-23746059.41772461,2486711.025238037,12411625.862121582,15174873.352050781,7250964.164733887,-1603169.9180603027,1231548.4285354614,-1439720.1538085938,-2093234.5390319824,2599323.511123657,8954507.827758789,11368556.022644043,13968827.247619629,4136237.621307373,4115190.9828186035,-1134415.1496887207,406636.17849349976,-3697679.7580718994,7511384.4871521,10388144.493103027,10697991.371154785,11336608.88671875,9215604.782104492,4987926.006317139,5064341.068267822,4458532.333374023,19134819.03076172,19154268.264770508,18098609.924316406,8893783.569335938,12583734.512329102
0.135,-1106685.1615905762,7131647.58682251,10265317.916870117,3586290.8363342285,9582875.25177002,3183084.726333618,2582027.9121398926,3935129.8809051514,2798690.7958984375,524988.5320663452,306461.96007728577,902944.1475868225,1244051.0988235474,-16380487.442016602,3271205.6636810303,8340830.8029174805,3401389.3604278564,2187053.2035827637,1402063.6081695557,281380.295753479,2114404.4399261475,-2439967.632293701,-21381435.39428711,3771790.2660369873,16419000.625610352,9143011.093139648,5689535.140991211,3041996.717453003,1327368.6170578003,514260.76889038086,-6387909.889221191,-22865795.135498047,-593086.0638618469,8705223.083496094,9871191.97845459,4822556.972503662,-1581781.9833755493,70090.97933769226,-4123274.803161621,-4769959.449768066,900906.3243865967,3930320.2629089355,3524186.611175537,9621157.6461792,-794788.0625724792,406650.24518966675,-3658018.3506011963,-1950143.6948776245,-7437674.522399902,4516078.948974609,2959334.135055542,3125967.9794311523,2317796.468734741,3281566.858291626,210956.4244747162,455212.2950553894,217562.4817609787,10065112.113952637,10153557.777404785,10029198.64654541,4395256.042480469,5720071.792602539
0.14,-1186225.7719039917,5781306.266784668,9239927.291870117,2480628.01361084,7994534.492492676,2496937.9901885986,2005668.4017181396,3338901.2813568115,484846.3237285614,-1490694.6420669556,-1510849.3566513062,-1147777.795791626,-694690.8831596375,-16462062.83569336,2715930.223464966,7383869.171142578,1872107.744216919,854478.5380363464,1035264.253616333,-16667.410731315613,1838185.0719451904,-1909793.734550476,-21267639.16015625,3026131.1531066895,16122636.795043945,8611047.744750977,5225723.2666015625,2959178.2093048096,2486913.4426116943,1646479.3682098389,-5101222.515106201,-22837184.90600586,946948.3494758606,8296199.798583984,9496105.194091797,4844538.21182251,-1394461.8701934814,1159045.934677124,-2556847.095489502,-3382440.8054351807,1584202.6472091675,4472095.012664795,3259407.9971313477,9041463.851928711,-1746472.0010757446,787742.6147460938,-2545163.631439209,70839.5466208458,-5246508.1214904785,5547383.785247803,1812787.2943878174,1989879.0121078491,-646909.1176986694,1846620.5596923828,1956989.049911499,2194655.418395996,827262.5803947449,7816022.872924805,7975911.1404418945,7825713.634490967,4037029.74319458,3567775.9647369385
0.145,7152244.567871094,9331298.828125,11047538.757324219,8421339.988708496,7934267.044067383,11438336.372375488,10898032.188415527,12225572.58605957,3435920.238494873,-1387814.6409988403,-1324730.8731079102,-1174528.1219482422,-780162.6324653625,-15828194.618225098,11583677.291870117,14195423.126220703,6361608.505249023,2633155.584335327,2229693.651199341,932893.3954238892,2879631.280899048,-699549.5557785034,-20372722.625732422,11904414.176940918,21751777.64892578,12349460.60180664,8413794.51751709,4470352.1728515625,4369883.060455322,3795630.931854248,-2595954.179763794,-21835798.263549805,4301617.622375488,11077496.528625488,13794972.41973877,6659650.802612305,-1417654.275894165,3213790.6551361084,1773483.6339950562,1162900.2094268799,4989637.851715088,8693859.100341797,9173569.679260254,11583105.087280273,235254.4665336609,2940423.4886169434,-152744.27831172943,3888587.9516601562,116624.22120571136,9395990.371704102,5862402.91595459,6190519.8097229,2518790.0066375732,3418442.964553833,7035625.457763672,7211840.629577637,4747015.953063965,12777222.633361816,12918334.007263184,10929252.624511719,6657016.754150391,7693287.372589111
0.15,16962888.717651367,14412423.133850098,15519129.753112793,16140064.239501953,10364945.411682129,20496551.513671875,19849300.384521484,21209775.924682617,9020769.119262695,1128627.7770996094,1134628.0574798584,1289575.0999450684,1562299.9668121338,-14325200.080871582,20455610.275268555,21472087.860107422,12378334.999084473,6017802.715301514,4405972.003936768,2810795.307159424,4871626.853942871,731605.052947998,-18963350.296020508,20931060.791015625,26925281.524658203,16082843.780517578,11606198.31085205,6458741.664886475,5467221.260070801,5128661.155700684,-1351547.9564666748,-20305019.37866211,5242965.221405029,12787339.210510254,16871002.197265625,7495766.639709473,-1759999.0367889404,3601206.5410614014,3587564.468383789,3209420.2041625977,6830092.906951904,10286471.366882324,12652873.039245605,12424038.887023926,270173.96688461304,2278634.548187256,-734672.6655960083,3853945.732116699,1317756.6528320312,10230040.550231934,7580206.871032715,7957611.083984375,3979466.199874878,2372609.6153259277,7625902.17590332,7807585.2394104,5420029.163360596,16355495.45288086,16397876.739501953,12363043.785095215,7269750.118255615,11377873.420715332
0.155,23138109.20715332,17565654.754638672,18582916.259765625,22003931.045532227,14052662.84942627,25069389.34326172,24476827.62145996,25857721.32873535,14236658.096313477,5084872.722625732,4987091.064453125,5237291.33605957,5503524.7802734375,-14747900.96282959,24953720.092773438,25435091.018676758,16536869.049072266,9612584.114074707,6969242.572784424,5285522.937774658,7315623.2833862305,1356133.4609985352,-19784063.3392334,25590047.83630371,29126483.917236328,17896694.18334961,13384321.212768555,8249494.552612305,5224881.649017334,4777556.419372559,-2964881.420135498,-21206855.77392578,5600841.999053955,12571253.776550293,17345462.799072266,7239000.7972717285,-2055168.1518554688,2231333.2557678223,1463990.9267425537,223129.80890274048,3522616.386413574,9392658.233642578,12519172.668457031,11280648.231506348,-1355546.1168289185,52059.777081012726,-3724583.864212036,-505351.2454032898,-3018204.689025879,6058515.0718688965,5940162.181854248,6170682.430267334,2133380.889892578,-582669.6753501892,3277923.583984375,3476049.6616363525,1125841.498374939,15166223.526000977,15180212.020874023,10457863.807678223,4938856.12487793,10032669.067382812
0.16,27111219.40612793,19708431.243896484,18273056.030273438,27614831.924438477,17218986.51123047,29700853.34777832,29300479.888916016,30630229.949951172,19164096.83227539,9314922.332763672,9136277.198791504,9370841.026306152,9723546.981811523,-18732789.993286133,29656717.30041504,29507507.32421875,20434625.62561035,13478048.324584961,9472549.438476562,7986389.636993408,9791596.412658691,846202.7311325073,-24045639.038085938,30386301.040649414,32080310.821533203,20438739.776611328,16085643.768310547,9930944.442749023,4558156.0134887695,3814644.0982818604,-5979941.368103027,-25697828.29284668,9372723.579406738,13706919.67010498,19718814.849853516,8333417.892456055,-2011523.2467651367,1555230.3791046143,-588375.6279945374,-4032532.215118408,-2968235.492706299,10919975.280761719,15230136.87133789,12348217.010498047,-7117.786910384893,1141530.0369262695,-4915874.004364014,-4112992.763519287,-7001150.608062744,1205255.8660507202,5974349.9755859375,6098331.928253174,2450940.6089782715,-110296.74112796783,567614.8533821106,689300.6563186646,-3264382.6007843018,13547531.127929688,13664376.258850098,9368466.3772583,2693488.121032715,5840461.730957031
0.165,31902862.548828125,23706399.91760254,18640581.130981445,34701911.92626953,20360788.345336914,37080841.064453125,36781909.94262695,38028266.90673828,25159204.483032227,13729742.050170898,13504461.288452148,13633193.969726562,14002801.895141602,-22558280.94482422,37072502.13623047,35780456.54296875,25930521.01135254,17861965.17944336,11949981.689453125,10797595.024108887,12347988.12866211,716537.9524230957,-27813087.463378906,37798740.38696289,37412708.2824707,25028802.8717041,20682106.018066406,11553402.9006958,4811305.046081543,3965855.598449707,-7112139.2250061035,-29580276.489257812,14655975.341796875,17159149.169921875,25291170.120239258,11149596.214294434,-1782831.7880630493,2809853.0769348145,580260.5748176575,-4838943.4814453125,-6840049.266815186,14560469.627380371,21774108.88671875,16283008.575439453,4372662.06741333,5158980.369567871,-3287111.759185791,-3738068.8190460205,-6347416.877746582,105353.2287478447,8206565.856933594,8470344.543457031,5807703.018188477,3525360.8226776123,2278214.931488037,2269348.382949829,-3998727.798461914,13554389.953613281,13744842.529296875,10137219.429016113,1707335.2336883545,2281601.905822754
0.17,36810337.06665039,29146327.97241211,24144498.825073242,40997104.64477539,25236961.364746094,42414241.790771484,42059341.43066406,43268436.431884766,31507085.8001709,18765888.214111328,18537216.186523438,18625970.8404541,18922300.338745117,-20408401.489257812,42326351.165771484,40421848.29711914,31003482.818603516,21939798.35510254,14818558.692932129,13868432.998657227,15295347.213745117,3105224.609375,-25448299.407958984,42905109.40551758,41200664.52026367,28701854.705810547,24247306.82373047,12750528.335571289,6398251.533508301,5691664.218902588,-4437626.838684082,-27105812.072753906,16113849.639892578,19934665.67993164,29082876.205444336,12970876.693725586,-1613118.290901184,4346429.824829102,3136658.191680908,-2013352.870941162,-4618733.882904053,15158946.03729248,25079177.856445312,18779304.50439453,6178315.162658691,6191915.512084961,-2358437.5381469727,-1691222.4292755127,-3468851.089477539,2336632.72857666,8091044.4259643555,8588034.629821777,6430970.191955566,4146119.1177368164,4101741.7907714844,4026796.817779541,-2672486.3052368164,12188763.618469238,12276623.725891113,9385066.986083984,634387.0162963867,133243.57569217682
0.175,37912616.72973633,31453550.338745117,31121614.456176758,42469417.572021484,30337245.94116211,41040271.7590332,40637145.99609375,41840114.59350586,34826530.45654297,22930992.126464844,22735065.460205078,22909637.451171875,23185871.124267578,-12354348.182678223,40902698.5168457,39538650.51269531,32077754.974365234,23910196.30432129,17441314.697265625,16423236.846923828,17822937.01171875,7476078.510284424,-17225166.32080078,41207187.65258789,40246559.143066406,28543546.676635742,23792510.986328125,12989776.611328125,8263629.913330078,7634315.967559814,455787.15205192566,-18712610.244750977,13616504.669189453,20207695.00732422,27398256.301879883,12040182.113647461,-1465347.8860855103,4197233.6769104,3550848.7224578857,1016347.7659225464,1237744.688987732,12130876.541137695,21506805.419921875,17632314.682006836,2736750.1258850098,1876512.2890472412,-4495767.593383789,-1450982.2130203247,-2744876.1463165283,4744844.913482666,5099390.506744385,5654864.311218262,2295988.5597229004,-171007.06696510315,2523182.8689575195,2461650.1331329346,-2078520.7748413086,8943679.809570312,8873940.467834473,6575378.41796875,-310730.81493377686,-428134.560585022
0.18,31796369.552612305,26177141.189575195,29744035.720825195,37334503.173828125,30078348.15979004,34973411.560058594,34605400.08544922,35752574.9206543,31855911.254882812,22479316.71142578,22282188.415527344,22613672.256469727,22965486.526489258,-6052296.161651611,34923259.73510742,34437606.81152344,28196706.771850586,22175712.58544922,17508653.64074707,16309947.967529297,17658506.393432617,9692296.981811523,-10772171.974182129,35003463.74511719,36436084.74731445,25370868.682861328,19939565.658569336,11938077.926635742,8660251.61743164,7900034.9044799805,3498080.015182495,-12194945.335388184,11995295.524597168,19521968.841552734,22788705.825805664,9772074.699401855,-1258991.2414550781,2654503.107070923,1217920.6609725952,1390717.0295715332,4952409.267425537,10554250.717163086,16102685.928344727,15603357.315063477,-1906644.9403762817,-2965192.5563812256,-7607746.124267578,-3090732.8128814697,-4837794.780731201,5512504.100799561,3743343.8301086426,4205015.182495117,-1384093.8806533813,-3952537.5366210938,-298116.2965297699,-339989.3045425415,-2303393.602371216,7744964.122772217,7694162.368774414,5426294.803619385,620673.3584403992,1259646.0580825806
0.185,19800651.55029297,13982313.15612793,16128555.297851562,28340770.721435547,21362154.006958008,30339260.10131836,29926763.5345459,30972120.28503418,23933101.654052734,15997839.92767334,15699211.120605469,16184358.596801758,16557817.459106445,-8547244.07196045,30412336.349487305,29987913.131713867,22544591.903686523,17586231.231689453,13836279.86907959,12610027.313232422,13884837.15057373,6252815.723419189,-13020588.874816895,30515644.073486328,33850028.99169922,22273221.969604492,16037778.854370117,10122175.216674805,6918430.805206299,6037312.030792236,1837385.892868042,-14410057.067871094,13653445.24383545,19523630.142211914,19928756.713867188,8381952.285766602,-1176341.2952423096,1484382.3909759521,-1660809.04006958,-1113055.5868148804,3169755.458831787,12886617.660522461,14668759.3460083,15298558.235168457,-3241024.2557525635,-3366068.124771118,-8658546.447753906,-4621531.4865112305,-7439578.056335449,4708031.65435791,5511317.729949951,5948630.809783936,-914782.2260856628,-2901178.5984039307,-1154842.9727554321,-1177229.0468215942,-2462502.7179718018,10159564.971923828,10288955.688476562,7523680.210113525,2916089.2963409424,4294970.512390137
0.19,9282039.642333984,1435139.4176483154,-1438761.4727020264,22210899.353027344,9513964.653015137,31907979.96520996,31269184.112548828,32272949.21875,18020975.11291504,8388594.627380371,7927798.271179199,8489908.218383789,8731341.361999512,-18117961.883544922,32024066.925048828,30536134.719848633,20549409.866333008,14257927.894592285,9315903.663635254,8231136.322021484,9504887.580871582,-772040.3671264648,-22277807.235717773,32363212.58544922,34966236.11450195,21826902.389526367,15144332.885742188,9148255.348205566,4468233.585357666,3684783.458709717,-3132285.5949401855,-23506643.295288086,16951118.46923828,20157402.03857422,20587650.299072266,8478274.34539795,-1403017.8785324097,1584552.526473999,-3132273.4355926514,-4655529.975891113,-1977459.9075317383,16318943.02368164,17206501.007080078,15896021.842956543,-1700288.6533737183,-494443.6848163605,-7747271.537780762,-5365499.496459961,-8865415.573120117,3078884.6015930176,7186744.213104248,7707397.937774658,993033.9455604553,425304.651260376,-478087.2166156769,-426556.5574169159,-2865783.452987671,13175941.467285156,13390586.853027344,10276408.195495605,4095667.3622131348,6588431.835174561
0.195,7973570.823669434,-3774346.113204956,-10819900.512695312,24754573.822021484,4027199.7451782227,40274700.16479492,39427074.43237305,40477001.19018555,20560382.843017578,6865760.803222656,6274122.23815918,6795994.281768799,6867874.622344971,-26165397.64404297,40396835.32714844,37244350.43334961,25390037.536621094,16095859.52758789,8532698.631286621,7495303.630828857,8834713.93585205,-5218170.642852783,-30072067.260742188,40928615.57006836,40140296.936035156,25047267.91381836,18083038.330078125,10297403.335571289,3511156.3205718994,2916854.8583984375,-6963706.016540527,-31047353.744506836,20715047.83630371,21689868.927001953,24161470.413208008,9720580.101013184,-1737083.5542678833,2356806.2782287598,-2950425.148010254,-6786323.070526123,-5464323.043823242,18963945.388793945,21340023.040771484,16567840.576171875,253264.27817344666,1548873.1861114502,-6974812.5076293945,-5870192.050933838,-8880117.416381836,1764874.5775222778,8106914.520263672,8639591.217041016,1926271.915435791,2129842.0429229736,70531.4427614212,208621.38271331787,-3635544.538497925,15294781.684875488,15380495.071411133,12202694.8928833,3930997.133255005,8033106.803894043
0.2,14851987.838745117,53822.62170314789,-8626742.362976074,33770393.37158203,7777513.027191162,50343620.30029297,49549530.029296875,50599403.381347656,29325990.676879883,12179224.967956543,11508689.880371094,11947620.391845703,11964529.991149902,-26695220.947265625,50495147.705078125,46027420.04394531,33621612.548828125,21663425.44555664,11862389.56451416,10607331.275939941,11946867.942810059,-3946925.640106201,-30476530.075073242,51015041.35131836,46939353.942871094,30266395.568847656,22590471.267700195,12561689.376831055,4472571.37298584,3892274.3797302246,-6890269.2794799805,-31314371.10900879,25021610.260009766,24809526.443481445,29103557.586669922,11714972.496032715,-1801539.1826629639,2886815.309524536,-2008670.5684661865,-6363310.33706665,-4892306.327819824,22310335.159301758,26181093.215942383,18710283.279418945,2312368.631362915,1784367.2037124634,-7010344.0284729,-5844605.445861816,-7671822.071075439,1801444.0536499023,11810629.844665527,12200573.921203613,4534853.458404541,3049455.6427001953,1205256.700515747,1313701.5104293823,-3529006.4811706543,18688861.846923828,18623741.149902344,14981526.374816895,4898432.731628418,10181675.910949707
0.205,19619260.787963867,6126966.47644043,-2427828.311920166,39306041.7175293,13391314.506530762,53931930.54199219,53367668.15185547,54259929.65698242,34613979.33959961,16952577.590942383,16223415.37475586,16659135.818481445,16707441.329956055,-22339590.072631836,54087696.07543945,49505157.470703125,37283515.93017578,24820652.00805664,14409750.938415527,12836733.8180542,14056696.891784668,-683477.3421287537,-26080297.470092773,54518688.2019043,50386013.03100586,33201923.370361328,24577322.006225586,13228112.22076416,5437958.717346191,4660079.479217529,-4788089.752197266,-26998785.0189209,28156513.214111328,28135078.43017578,32566246.032714844,13464529.991149902,-1579766.1542892456,2969244.7185516357,-1383697.509765625,-4711190.700531006,-2636985.5403900146,26370679.85534668,30552602.767944336,22643507.00378418,5051478.385925293,2353748.083114624,-6512259.006500244,-4200037.956237793,-5554046.630859375,3086730.95703125,18582357.40661621,18805894.85168457,10701869.010925293,5894242.763519287,4622764.587402344,4587559.700012207,-1590460.0620269775,23530668.258666992,23508363.723754883,18977334.97619629,8075631.141662598,12699214.935302734
0.21,14790149.688720703,5732604.026794434,-1624885.9167099,34872928.619384766,12274177.551269531,48676181.79321289,48203670.501708984,48883769.98901367,30721546.173095703,14778833.389282227,14031400.680541992,14514121.055603027,14573921.203613281,-20339208.602905273,48819656.37207031,45155502.31933594,33017601.013183594,22054962.158203125,12278728.485107422,10576559.066772461,11694939.613342285,-1057474.6131896973,-24031486.51123047,49299659.729003906,48100875.85449219,31291399.002075195,22314115.524291992,11171585.083007812,4635069.847106934,3658634.1857910156,-4405498.98147583,-25107898.712158203,28179996.490478516,29210302.352905273,32421981.811523438,13806343.078613281,-1415314.4359588623,3074186.325073242,-1396322.6079940796,-3945951.223373413,-2084252.8343200684,28401603.69873047,32524173.736572266,25770803.451538086,7470218.181610107,4491678.237915039,-4308129.31060791,-853247.4040985107,-2847474.5750427246,4982518.672943115,23084077.835083008,23262296.676635742,16395727.157592773,9896702.766418457,9949108.123779297,9837322.235107422,1716471.791267395,26071487.426757812,26223407.745361328,21490257.263183594,11598503.112792969,13647483.825683594
0.215,5521123.886108398,-1566643.238067627,-7882733.8218688965,26153484.344482422,5202793.598175049,42543621.06323242,41926647.1862793,42542961.12060547,23012115.478515625,8368189.811706543,7696455.955505371,8104846.000671387,8169279.098510742,-23569322.58605957,42819015.50292969,39677619.93408203,26762214.66064453,16916509.6282959,7782292.84286499,6223929.882049561,7406285.762786865,-5109716.415405273,-27146459.579467773,43485050.201416016,44466453.552246094,27610612.869262695,18939071.655273438,8511962.890625,2842851.161956787,1850870.4900741577,-6216679.573059082,-28249763.48876953,27214250.564575195,28375587.463378906,30592754.364013672,13074727.058410645,-1478857.0404052734,3711329.936981201,-1192860.9609603882,-4029233.932495117,-2912153.720855713,27971088.409423828,32635807.037353516,26113334.65576172,8229346.27532959,7091837.406158447,-1027482.7480316162,2699427.843093872,414780.52735328674,7834931.373596191,22078458.786010742,22343048.095703125,16806430.81665039,11905377.388000488,14816266.059875488,14790572.166442871,5538020.133972168,24608625.411987305,24837137.22229004,21010763.16833496,13492272.37701416,13152996.063232422
0.22,3260426.2828826904,-5941112.995147705,-13037198.066711426,23652427.673339844,1484935.8797073364,43312488.5559082,42558193.20678711,43299804.6875,20213582.99255371,5814406.394958496,5284559.24987793,5479660.0341796875,5606109.619140625,-26682924.270629883,43886928.55834961,39807888.03100586,25561529.1595459,14914418.22052002,6357991.2185668945,5067989.826202393,6421159.267425537,-7033374.786376953,-30136804.580688477,44672950.744628906,44511932.373046875,26734802.24609375,18364599.227905273,7963146.209716797,2524724.006652832,1687970.6382751465,-6661473.274230957,-31103364.944458008,28262420.654296875,27726924.896240234,30365407.943725586,12528232.57446289,-1559279.0842056274,4780468.463897705,67923.11370372772,-3007048.8452911377,-1891042.3517227173,27393400.192260742,32717716.217041016,24432058.334350586,7155532.8369140625,8186170.57800293,1162429.3327331543,4494646.5492248535,3532143.1159973145,11836874.961853027,18446918.487548828,18856155.395507812,12571427.345275879,10521889.686584473,16518482.208251953,16569869.995117188,8604978.561401367,21873165.130615234,21990322.11303711,18893909.454345703,13062014.57977295,12852033.615112305
0.225,12052575.11138916,2693400.6214141846,-5731094.837188721,28829954.147338867,8193483.352661133,46175086.975097656,45515075.68359375,46418624.87792969,22897781.372070312,10447802.543640137,10039581.298828125,10129860.877990723,10301015.853881836,-22223045.349121094,46888710.021972656,41402408.599853516,27490400.314331055,16301767.349243164,9752495.765686035,8672511.100769043,10128509.521484375,-2408179.521560669,-25754131.317138672,47615821.838378906,44967708.587646484,27424850.463867188,19612247.467041016,9526719.093322754,4784004.688262939,4139981.746673584,-2919016.5996551514,-26592132.568359375,28016916.275024414,25984086.990356445,30159259.796142578,11822771.072387695,-1481231.8086624146,5514319.896697998,1628332.3764801025,-449322.1938610077,1932477.4742126465,25498313.903808594,30582143.783569336,21165756.225585938,4020009.5176696777,6274300.575256348,223213.68753910065,3385751.724243164,4178783.416748047,14458498.001098633,14521394.729614258,15027257.919311523,6891661.643981934,6323142.051696777,13120018.95904541,13028299.331665039,8118000.030517578,19008604.049682617,18937477.111816406,15411275.863647461,9471453.666687012,11518443.10760498
0.23,26361373.901367188,23590007.781982422,17469985.961914062,34269542.6940918,22733472.82409668,40812614.44091797,40375114.44091797,41368751.525878906,24997213.36364746,18069196.701049805,17761013.03100586,18026601.791381836,18102279.663085938,-10279116.6305542,41190864.56298828,35762794.494628906,25770162.58239746,17414121.627807617,14842709.5413208,13810243.606567383,15294575.691223145,6464093.6851501465,-14294423.10333252,41794971.46606445,38676101.68457031,24667142.868041992,18879348.754882812,11229348.182678223,8048311.233520508,7523577.2132873535,3060261.011123657,-15206597.328186035,19916383.743286133,19398225.784301758,25421337.127685547,9437392.234802246,-1458439.4693374634,5326426.5060424805,1908527.2550582886,1329191.4463043213,5016098.0224609375,17470602.03552246,22076534.271240234,15035300.254821777,-1562220.6926345825,1470277.190208435,-3628890.037536621,-195547.52111434937,582655.0126075745,12051407.814025879,7502593.994140625,7941558.837890625,136724.26342964172,102599.51651096344,5220389.366149902,4833716.39251709,1863415.7180786133,12786561.965942383,12582258.224487305,8771071.434020996,2368396.997451782,5773725.986480713
0.235,40107788.0859375,45612503.05175781,46070831.298828125,36467613.220214844,36379764.556884766,29331560.134887695,28981864.92919922,30060266.494750977,24599895.477294922,23603221.893310547,23453083.038330078,23972341.537475586,23904882.431030273,302862.10775375366,29094232.5592041,25336191.177368164,20976383.209228516,17380670.54748535,18418542.861938477,17269756.317138672,18890062.33215332,13438422.203063965,-4516562.461853027,29662971.49658203,27770790.100097656,19035331.72607422,16593652.725219727,12246078.491210938,9967035.293579102,9467316.627502441,6640501.499176025,-5724245.548248291,5686449.05090332,9151051.52130127,17680299.758911133,6166656.017303467,-1786381.8407058716,4697500.228881836,1005518.3172225952,596903.8605690002,3676926.612854004,3869785.785675049,10081875.801086426,7054820.537567139,-7476143.360137939,-3369272.7088928223,-7364353.656768799,-4172813.4155273438,-5022633.075714111,5204357.147216797,-4141848.087310791,-3927510.976791382,-8231340.408325195,-6408442.974090576,-2747107.50579834,-3297584.7721099854,-7545676.708221436,2235279.5600891113,2000327.5871276855,-105730.77946901321,-5685040.473937988,-3785276.8898010254
0.24,50528186.7980957,57503993.98803711,62913318.6340332,39419704.43725586,42677890.77758789,24953687.66784668,24508945.46508789,25745521.545410156,25740842.819213867,26140539.169311523,26192277.908325195,26717515.94543457,26714733.123779297,1683437.466621399,24365217.208862305,22099651.336669922,20606092.45300293,18579067.23022461,20081960.678100586,18787015.914916992,20705223.083496094,15186367.03491211,-3820592.6418304443,24959320.068359375,23114271.16394043,17229024.88708496,17212232.58972168,13241454.124450684,9886929.512023926,9370303.1539917,5848629.951477051,-5369812.01171875,-3892370.2239990234,2404124.0215301514,14859482.765197754,5220156.669616699,-2318908.929824829,4731907.844543457,811276.1974334717,-1207051.8732070923,-996519.6251869202,-6525244.71282959,4215803.623199463,2143543.9586639404,-9396297.454833984,-4253527.1644592285,-7766150.951385498,-6159458.637237549,-7804581.642150879,-507589.4594192505,-14709274.291992188,-14665438.652038574,-15096791.26739502,-9760431.289672852,-5621978.759765625,-6054698.467254639,-13760845.184326172,-6850321.292877197,-7009230.136871338,-6059125.900268555,-10465838.432312012,-11455539.70336914
0.245,53515945.43457031,55560230.25512695,59659881.591796875,43446079.25415039,40868370.056152344,30659465.789794922,30148242.950439453,31521795.27282715,28692144.3939209,26213909.149169922,26353399.2767334,26650955.200195312,26950090.408325195,-4075394.630432129,30230442.04711914,28370235.443115234,25473518.37158203,20466566.08581543,20105417.251586914,18835763.931274414,20972637.176513672,13287828.44543457,-9706235.885620117,30773618.698120117,27934774.39880371,21155899.047851562,21016578.674316406,13878157.615661621,8970540.046691895,8449673.652648926,3069025.5165100098,-11439129.829406738,-2881003.3798217773,3122035.503387451,19638076.782226562,7471310.615539551,-2523461.34185791,5746146.202087402,2111729.145050049,-1821278.0952453613,-4501496.315002441,-7085663.318634033,8260539.0548706055,3502413.511276245,-5883406.162261963,-274507.43317604065,-4797532.081604004,-5473200.32119751,-6136607.1701049805,-1023346.4241027832,-16819290.161132812,-16690984.725952148,-15663093.566894531,-7459170.818328857,-2901626.8253326416,-3053876.1615753174,-13639538.764953613,-8174203.872680664,-8182547.569274902,-5386356.830596924,-10410520.553588867,-13041337.966918945
0.25,44384559.631347656,43224082.946777344,43843448.638916016,40556903.83911133,33482753.75366211,32744499.20654297,32345695.49560547,33659400.939941406,26666429.51965332,22537210.46447754,22545436.85913086,22712444.305419922,23226783.752441406,-8745175.3616333,32711273.193359375,31362453.46069336,26073028.564453125,18543512.34436035,17634912.490844727,16593166.35131836,18633514.404296875,10637067.794799805,-13954797.744750977,33106433.868408203,31887887.954711914,23680603.02734375,22045101.165771484,12522699.356079102,8319565.773010254,7815181.732177734,1420490.9801483154,-15657524.108886719,2369642.0192718506,6819633.960723877,24535509.10949707,9624634.742736816,-2127520.0843811035,6877128.601074219,3299030.065536499,-1467014.4319534302,-4385519.504547119,-1174913.4063720703,15062854.766845703,8388345.718383789,-486307.62100219727,5234618.186950684,-1196085.2146148682,-3349323.272705078,-3287286.7584228516,1690904.8557281494,-9764241.218566895,-9386527.061462402,-8768536.567687988,-571912.8251075745,1619461.2979888916,1707057.5952529907,-10077865.600585938,-1974856.6150665283,-1864210.3672027588,423236.31048202515,-6944437.026977539,-9686533.92791748
0.255,26959451.67541504,27669830.322265625,29425220.489501953,27154058.4564209,23920087.814331055,22275712.966918945,22038269.04296875,23092418.670654297,16377691.268920898,14795187.950134277,14562317.848205566,14862483.024597168,15244533.53881836,-9013541.221618652,22519561.767578125,22717105.865478516,16980339.05029297,11580684.661865234,12758265.495300293,11905176.162719727,13663125.991821289,8021477.699279785,-13704318.046569824,22808471.6796875,26875251.77001953,19522470.474243164,17185943.603515625,9215596.199035645,7742821.69342041,7258217.334747314,1059619.1883087158,-15260982.513427734,4034723.7586975098,7900217.056274414,23210542.678833008,9116401.672363281,-1499300.241470337,7288442.611694336,2963607.3112487793,-1767113.208770752,-2322957.5157165527,4530999.660491943,18113708.49609375,12464317.321777344,3254444.122314453,8919049.263000488,1265815.9732818604,-946308.5532188416,-1993549.4661331177,3867340.564727783,1609177.3509979248,2134072.0653533936,2611485.242843628,7721082.2105407715,6047055.244445801,6234118.461608887,-6377890.110015869,7428544.521331787,7523175.7164001465,8184875.48828125,-840794.5036888123,-3968289.852142334
0.26,14643811.225891113,17213668.823242188,23459243.774414062,13665134.42993164,16282941.818237305,10404710.76965332,10156005.859375,10984221.458435059,5563544.750213623,7082268.714904785,6717036.724090576,7192370.414733887,7283190.2503967285,-9183194.160461426,10752260.208129883,12281165.12298584,6594259.738922119,5209677.696228027,8217000.961303711,7278923.511505127,8916174.88861084,4933589.935302734,-13662736.892700195,11071120.262145996,19649492.263793945,13936820.983886719,11971939.086914062,6732237.815856934,6595112.323760986,6125987.0529174805,109954.03677225113,-15082246.780395508,3774525.6423950195,7379865.646362305,20047147.750854492,7986218.452453613,-1219931.3640594482,7221713.066101074,2264044.0464019775,-2447543.3826446533,-795116.126537323,8940159.797668457,20585447.311401367,15255894.660949707,5892074.108123779,10899158.477783203,3422809.362411499,1955172.8963851929,-337467.16380119324,5856943.607330322,12837796.211242676,13332994.46105957,14272605.895996094,14697470.664978027,12413062.09564209,12569969.177246094,-1562396.0494995117,16921710.968017578,16918609.619140625,16096036.911010742,7810536.3845825195,3090242.624282837
0.265,16905103.68347168,17555742.263793945,24388942.71850586,13072546.005249023,14309911.727905273,11934968.948364258,11518003.463745117,12378482.818603516,4022625.44631958,4639150.142669678,4348487.377166748,4774180.889129639,4806696.891784668,-12785536.766052246,12316833.49609375,13305981.636047363,5704446.792602539,4977805.614471436,6888998.508453369,5698291.301727295,7475350.856781006,2028796.672821045,-17349020.00427246,12722003.936767578,20587823.86779785,14559103.965759277,12892142.295837402,7282651.424407959,5255573.272705078,4776409.62600708,-1952463.2692337036,-18713788.986206055,6544676.780700684,8677141.189575195,22177854.537963867,9214609.146118164,-1386119.6041107178,7475760.936737061,3195223.569869995,-1718998.3129501343,-203434.22889709473,13311875.343322754,26742248.53515625,17871379.852294922,8763756.75201416,12618224.143981934,6110554.218292236,5479241.371154785,4234155.654907227,9967783.92791748,20442249.298095703,20892662.048339844,21674535.751342773,18151636.123657227,20745639.80102539,20814147.94921875,5462967.872619629,23729116.439819336,23730764.389038086,21454843.521118164,15527373.313903809,9003213.882446289
0.27,28314907.07397461,26770503.997802734,29281192.779541016,23527698.516845703,18281326.293945312,22393934.24987793,21908367.156982422,23022127.151489258,10629158.020019531,7678331.8519592285,7581792.35458374,7809645.175933838,8050675.392150879,-16386493.682861328,22737634.658813477,21979804.99267578,11983694.076538086,8920441.627502441,8455817.222595215,7168190.956115723,9095968.246459961,1134850.5020141602,-21071107.864379883,23164346.69494629,26681943.893432617,19269308.09020996,17764150.619506836,9538027.7633667,4981379.508972168,4409595.966339111,-3428029.5372009277,-22501558.303833008,9126380.920410156,9744131.088256836,27043684.005737305,11487982.749938965,-1574211.1206054688,8198669.43359375,5378468.036651611,264667.21296310425,-33370.863646268845,14045707.702636719,31082050.323486328,18310575.485229492,9742440.223693848,13344317.436218262,7832928.18069458,7876654.148101807,9126092.910766602,14299374.5803833,20183473.587036133,20645469.665527344,20701658.248901367,16419769.287109375,25378213.88244629,25399461.74621582,10470839.500427246,23615470.88623047,23798004.150390625,20263582.229614258,16340612.411499023,8922704.696655273
0.275,35488365.173339844,35683925.62866211,36354011.53564453,30892583.8470459,24080486.297607422,24648181.915283203,24350406.646728516,25698093.41430664,15541379.928588867,11544159.889221191,11606572.151184082,11789067.268371582,12139966.011047363,-14835411.071777344,24834564.208984375,23443489.07470703,14140521.049499512,10873112.678527832,10306074.142456055,9188285.827636719,11058268.547058105,2985160.1123809814,-19602626.80053711,25229955.673217773,26150445.93811035,19597639.083862305,19235374.450683594,10550253.868103027,6100645.065307617,5344057.559967041,-2943547.7256774902,-21209457.397460938,4161183.8340759277,5759781.360626221,26146907.806396484,11129780.769348145,-1501826.1671066284,8631168.365478516,6208426.952362061,755683.6605072021,-861627.9363632202,6676023.483276367,25305213.928222656,13985243.797302246,6269549.369812012,11475608.825683594,6592301.368713379,6737538.3377075195,8738984.107971191,13651612.281799316,11028496.742248535,11424039.840698242,11926455.4977417,10853463.172912598,21289455.41381836,21344964.9810791,7752828.121185303,15713851.928710938,16086763.381958008,12924543.380737305,9386012.077331543,1974812.626838684
0.28,32192306.518554688,36247894.287109375,41725078.58276367,27128292.083740234,26855800.62866211,13748486.518859863,13728064.53704834,15132570.266723633,13534070.96862793,12738153.457641602,12829066.276550293,13220708.847045898,13360282.897949219,-9321436.882019043,13750392.91381836,13767279.624938965,8277837.753295898,8978981.971740723,10936406.135559082,10024839.401245117,11711096.76361084,5824619.770050049,-14249222.755432129,14139246.940612793,16588729.858398438,13655169.486999512,15443731.307983398,9615818.977355957,7080660.343170166,6174342.632293701,-1573362.3504638672,-16021442.413330078,-6811902.99987793,-2147807.836532593,18603425.979614258,7948446.273803711,-1416281.1040878296,7998661.041259766,4069355.9646606445,-2021776.9145965576,-3370445.2514648438,-4943861.961364746,12529380.798339844,7423772.33505249,684906.1250686646,8083797.454833984,3010182.6190948486,2063928.8425445557,2021437.406539917,6970203.399658203,-414523.4525203705,-211209.32698249817,2690691.4710998535,6401040.077209473,11809988.975524902,11899908.065795898,-1530709.3858718872,6681492.805480957,7044032.096862793,6507468.700408936,1778943.7770843506,-5182492.733001709
0.285,23995697.021484375,29798858.642578125,40927043.91479492,18838731.76574707,25573812.48474121,2606965.0650024414,2660364.1510009766,4009929.656982422,9307642.936706543,12122035.026550293,12118625.64086914,12741373.062133789,12588538.16986084,-6265518.665313721,2545392.0364379883,4465708.7326049805,2001267.1947479248,7007802.486419678,10899227.142333984,9992320.06072998,11574647.903442383,6788459.777832031,-11386098.861694336,2912648.916244507,8372414.588928223,8455686.569213867,11725491.523742676,8655415.534973145,6265163.421630859,5398301.124572754,-1652113.676071167,-13155450.820922852,-13358462.3336792,-7018088.340759277,12846192.359924316,5655364.513397217,-1638347.0296859741,6513914.585113525,356107.5031757355,-6320958.137512207,-6490176.677703857,-10980869.29321289,5230963.706970215,4557992.458343506,-1677838.5639190674,6333866.596221924,15281.608328223228,-2956500.768661499,-5422056.198120117,-227135.43474674225,-5073244.094848633,-4998672.962188721,646843.3141708374,6848873.138427734,5713227.272033691,5749840.259552002,-9495680.809020996,4425559.520721436,4602795.600891113,6944861.41204834,587594.0918922424,-5843043.804168701
0.29,20388771.057128906,25119470.596313477,35641132.35473633,17054176.330566406,23401699.06616211,3467397.2129821777,3338341.474533081,4648315.906524658,9716273.307800293,12267125.129699707,12132923.126220703,12745872.497558594,12568602.561950684,-9065646.171569824,3458191.394805908,5809524.059295654,2950361.967086792,8380879.4021606445,11146734.237670898,10090304.374694824,11704852.104187012,4827661.514282227,-14152212.142944336,3676791.6679382324,10025949.478149414,9754734.992980957,12576418.87664795,9330120.086669922,4306186.676025391,3631197.214126587,-3826992.7501678467,-15766076.08795166,-9858408.92791748,-5007871.150970459,14833159.446716309,6646078.586578369,-1989977.7173995972,5405105.113983154,-1891793.966293335,-8835882.186889648,-8283503.532409668,-7520887.37487793,9379798.889160156,7255001.544952393,673470.139503479,7414494.99130249,-422277.5399684906,-4871387.004852295,-7586055.278778076,-2391066.312789917,-1369180.679321289,-1233192.0862197876,5370437.145233154,10336127.281188965,7196242.332458496,7156758.785247803,-10620612.144470215,8678950.309753418,8734225.273132324,11573039.054870605,4592115.879058838,-1873561.6207122803
0.295,25602819.442749023,28230470.657348633,33486660.00366211,24640010.833740234,24014402.389526367,14370145.797729492,14047755.241394043,15338798.522949219,15828675.270080566,14406928.062438965,14196387.29095459,14586226.463317871,14642239.570617676,-14240361.213684082,14381350.51727295,15480965.614318848,10310832.977294922,12648598.670959473,12243592.262268066,11094247.817993164,12797828.674316406,2285344.123840332,-19021331.787109375,14385656.356811523,18687658.309936523,15754412.651062012,16900041.580200195,11373166.08428955,3744879.4841766357,3193412.5423431396,-6004697.322845459,-20544031.143188477,-2036233.66355896,604315.996170044,21344863.891601562,9369380.950927734,-2015519.8574066162,5768347.74017334,-865025.8779525757,-8145626.068115234,-8018799.781799316,-305393.87464523315,18407133.102416992,11446483.612060547,3943429.470062256,9266998.291015625,860343.1582450867,-3282836.437225342,-4164047.2412109375,211310.68468093872,4189286.708831787,4401107.311248779,9771933.555603027,12013029.098510742,12257670.402526855,12252118.110656738,-7063631.534576416,12569159.507751465,12707792.282104492,13603087.425231934,7354050.159454346,-157173.43986034393
0.3,35535430.908203125,35981250.76293945,37737724.30419922,35453952.78930664,28069704.055786133,25456390.380859375,25159873.962402344,26416442.87109375,23589006.423950195,18391141.891479492,18180755.615234375,18384355.545043945,18643377.30407715,-15861468.315124512,25376813.888549805,25008928.298950195,18381729.125976562,17473737.716674805,14704980.850219727,13606760.025024414,15385428.428649902,3004284.143447876,-20411149.978637695,25358575.82092285,26537933.349609375,21515556.33544922,21308668.13659668,13542368.88885498,5875362.873077393,5253859.519958496,-5387206.077575684,-22047082.901000977,2064447.1645355225,4883003.234863281,26188226.6998291,11236259.460449219,-1675410.270690918,7344526.290893555,2576853.2752990723,-5304140.090942383,-6080360.889434814,4135334.014892578,23813087.463378906,13134171.485900879,4619757.652282715,9724407.196044922,1712793.8270568848,-751744.7471618652,594702.4822235107,3857851.982116699,6374197.483062744,6464410.781860352,9572319.984436035,10351049.423217773,14996845.245361328,15106894.493103027,-4032842.1592712402,12566747.665405273,12863654.136657715,11617350.578308105,6187082.767486572,-2442055.2253723145
0.305,41756191.25366211,40861076.35498047,42073081.970214844,42031917.572021484,32931728.36303711,30749202.728271484,30644292.8314209,31932680.130004883,28678678.512573242,23071836.471557617,22887845.993041992,23088937.759399414,23378582.000732422,-11956377.029418945,30564723.96850586,29854774.475097656,23128797.53112793,20898464.20288086,18185914.993286133,17208095.55053711,18997673.03466797,8014758.110046387,-16580188.751220703,30828620.91064453,30149806.97631836,24710775.37536621,24038377.76184082,14861454.963684082,9030359.268188477,8294957.160949707,-1549203.872680664,-18392496.10900879,1805474.6389389038,6676364.421844482,27757600.784301758,11783836.364746094,-1412384.033203125,8814595.222473145,6031998.157501221,-1996202.826499939,-2655817.0318603516,5826431.2744140625,25091283.798217773,12910360.336303711,3605137.586593628,9256135.940551758,1291193.7236785889,387049.76439476013,3284758.3293914795,6689640.045166016,6851904.392242432,6726950.168609619,7759869.575500488,8391772.270202637,14278545.379638672,14420505.52368164,-3257117.748260498,11895435.333251953,12217085.838317871,10033641.815185547,4210400.104522705,-3988295.078277588
0.31,41009284.97314453,40874240.87524414,40040100.09765625,42630809.78393555,35436496.73461914,31540441.513061523,31550968.170166016,33028739.92919922,29767734.52758789,26151895.52307129,25974466.32385254,26251056.671142578,26505161.28540039,-6351093.769073486,31370452.880859375,31075239.181518555,24131265.64025879,21814638.137817383,20584276.19934082,19702131.271362305,21390604.01916504,13329295.15838623,-11043392.181396484,31961204.528808594,31261222.83935547,25903654.098510742,24978521.3470459,14929695.129394531,10539265.632629395,9879978.17993164,2516574.8596191406,-12867491.722106934,1744041.3236618042,7674895.286560059,28459365.844726562,12209553.718566895,-1482721.9247817993,9335114.479064941,7699925.422668457,428324.01394844055,1397214.651107788,8134469.032287598,26722932.815551758,13553269.386291504,3915878.5343170166,9753870.010375977,632587.8500938416,158748.2988834381,3720413.2080078125,8760295.867919922,9370479.583740234,9214190.483093262,8947546.005249023,8994397.163391113,12941550.254821777,13002256.393432617,-3312165.0218963623,13823840.141296387,14035718.91784668,11452823.638916016,4471517.562866211,-1994270.2054977417
0.315,41584953.30810547,42220275.87890625,35279796.6003418,42872837.06665039,35047222.13745117,33820350.646972656,33739368.4387207,35415073.39477539,29554122.924804688,25934494.018554688,25742929.458618164,26009126.663208008,26242645.263671875,-5514471.054077148,33756313.32397461,32595081.329345703,24184682.846069336,21022289.276123047,19854665.756225586,18974319.458007812,20489610.67199707,13220416.069030762,-9847734.451293945,34364479.064941406,32978172.302246094,26884195.32775879,24978834.15222168,14079088.21105957,9437053.680419922,9056852.340698242,2611601.3526916504,-11511093.139648438,4406332.492828369,9471706.39038086,30345067.977905273,13393437.385559082,-1613758.2063674927,9115198.135375977,7067699.909210205,367249.87626075745,2868538.1412506104,11733681.678771973,30367313.385009766,15891875.267028809,6307134.628295898,11499441.146850586,690307.2595596313,-495791.40543937683,2672961.473464966,8677083.015441895,13413922.309875488,13453490.257263184,12719275.47454834,11160379.409790039,12683700.561523438,12716004.371643066,-4032319.5457458496,16436624.526977539,16588489.532470703,13311510.08605957,5827827.453613281,-40766.45523309708
0.32,55734970.09277344,51164253.23486328,35848217.01049805,50555320.739746094,33912792.20581055,44230407.71484375,43941684.72290039,45516376.49536133,32939857.482910156,23766630.172729492,23531641.006469727,23710586.547851562,23876056.671142578,-13368214.60723877,44177272.79663086,39029502.868652344,27977827.072143555,21740652.084350586,16747032.165527344,15675395.965576172,17089838.0279541,5967593.193054199,-17068906.784057617,44497428.89404297,37825893.40209961,30031133.6517334,25938812.255859375,13311255.45501709,6528058.5289001465,6398459.911346436,-2952435.9703063965,-18541099.548339844,9329642.295837402,13171867.370605469,33714553.83300781,15287756.91986084,-1488118.4101104736,8320950.508117676,4044814.109802246,-3682742.8340911865,-1751161.813735962,15056003.57055664,33915477.75268555,18732139.587402344,8674549.102783203,12520174.026489258,537483.811378479,-2120393.753051758,-349315.25588035583,4067322.254180908,15603861.808776855,15837823.867797852,14900104.522705078,11817857.74230957,11972959.518432617,12102658.27178955,-7220485.210418701,16279088.973999023,16512714.385986328,12588994.026184082,5346765.518188477,-2375513.792037964
0.325,83269027.70996094,64917121.88720703,40295722.96142578,66601524.353027344,33310581.20727539,63888412.47558594,63421897.888183594,64546020.5078125,41597717.28515625,22427801.13220215,22077548.98071289,22209091.186523438,22251443.86291504,-27987590.789794922,63640842.43774414,51911209.10644531,37581295.013427734,26217481.61315918,13910117.149353027,12393830.299377441,13846261.024475098,-4654617.3095703125,-31349775.314331055,63707576.751708984,46389411.92626953,36411499.0234375,29138708.114624023,13262511.253356934,2809241.0564422607,2675020.694732666,-11761432.647705078,-32595504.760742188,16369152.069091797,19310497.283935547,37926761.627197266,17331159.591674805,-1235588.0737304688,6494259.834289551,-1133212.5663757324,-11140082.359313965,-11592044.830322266,18095399.856567383,35913974.76196289,21145059.58557129,9048505.783081055,11149508.476257324,-1475112.0805740356,-5986660.480499268,-5777822.017669678,-4204096.794128418,15208537.101745605,15478667.259216309,13665191.650390625,9850869.178771973,8909169.19708252,9091356.27746582,-12985944.747924805,14004651.069641113,14352092.742919922,10091703.414916992,2385622.024536133,-7486912.727355957
0.33,107692214.96582031,73383834.83886719,37787906.646728516,81940162.6586914,31280281.06689453,84468086.24267578,83899070.7397461,84560363.76953125,50455127.71606445,21865459.442138672,21333082.19909668,21455595.016479492,21455787.658691406,-42984951.01928711,83966773.9868164,66054611.20605469,48412235.260009766,31845760.345458984,12318334.579467773,10245666.50390625,11738943.099975586,-13663474.082946777,-46470397.94921875,84024971.00830078,55603622.43652344,43360378.26538086,32918903.350830078,13329977.989196777,-905115.7832145691,-1318849.0867614746,-19548984.52758789,-47331947.326660156,24959329.60510254,26190664.291381836,41587291.7175293,18778200.149536133,-1178201.9138336182,3787015.199661255,-6739329.814910889,-18647705.078125,-21064813.6138916,22046396.255493164,37178573.60839844,22935718.536376953,7845637.321472168,8421487.808227539,-4904755.115509033,-11161817.55065918,-11685935.020446777,-11309897.422790527,14875050.54473877,15102539.0625,11520064.353942871,7267758.369445801,4533970.832824707,4584750.652313232,-18068870.544433594,13377046.585083008,13755539.894104004,8671841.621398926,-850536.048412323,-10091813.087463379
0.335,113521316.52832031,70433631.89697266,23763040.54260254,86507759.09423828,25630664.825439453,94661430.35888672,94063964.84375,94560226.44042969,52652290.34423828,19446077.346801758,18771198.272705078,18804506.301879883,18900329.58984375,-52791610.71777344,94111183.1665039,73221694.94628906,53101253.509521484,33669097.900390625,10647685.050964355,8219553.9474487305,9589063.64440918,-19229515.075683594,-56412425.99487305,94253410.33935547,60490283.96606445,46371425.62866211,34185718.53637695,12637708.66394043,-3508352.756500244,-4300427.9136657715,-23954704.28466797,-56828639.98413086,31489412.307739258,30049299.240112305,43005096.435546875,19078977.584838867,-1326615.2143478394,1747176.8856048584,-9963742.25616455,-22803607.940673828,-25640733.71887207,26073358.5357666,38380889.892578125,23582216.262817383,6864659.786224365,7020438.194274902,-7033476.829528809,-14438152.313232422,-14856397.62878418,-13489972.114562988,16191118.240356445,16410791.397094727,11165342.330932617,6714437.484741211,2102462.7685546875,1983088.6125564575,-19258926.391601562,15805954.933166504,16176118.850708008,9455698.013305664,-1833678.2455444336,-7868163.585662842
0.34,102769126.89208984,60042617.79785156,7596842.7658081055,79848098.75488281,17966012.954711914,91292205.81054688,90776351.92871094,91332000.73242188,47461204.528808594,14613837.242126465,13936037.063598633,13803497.314453125,13961431.503295898,-56785408.02001953,90950691.22314453,70343147.27783203,49579620.361328125,30606983.184814453,8051450.729370117,5666850.566864014,6778943.5386657715,-22615261.07788086,-60129825.592041016,91058349.609375,58690151.21459961,43957775.1159668,32191761.016845703,11372674.942016602,-4459525.585174561,-5493445.873260498,-25897338.8671875,-60356246.94824219,31720012.664794922,28599245.071411133,41404811.85913086,18199161.529541016,-1425152.6594161987,1556287.169456482,-10035980.224609375,-23631134.033203125,-26442422.86682129,27213689.80407715,38201725.006103516,22290597.915649414,6670290.946960449,7919490.337371826,-6278681.755065918,-14146236.419677734,-14584615.707397461,-12243431.091308594,17147727.966308594,17368965.14892578,11694687.843322754,8554230.690002441,3081329.822540283,2969386.577606201,-17429876.32751465,18227165.22216797,18617349.62463379,11095367.431640625,-249520.57003974915,-3937263.9656066895
0.345,88880104.0649414,49689750.67138672,-112191.0959482193,69392875.67138672,11863327.980041504,80894432.0678711,80553512.57324219,81169715.88134766,40004093.170166016,9883844.375610352,9298788.070678711,9109478.950500488,9129762.649536133,-58092258.45336914,80781890.86914062,61673717.4987793,42338932.037353516,26113882.064819336,5231965.5418396,3164832.11517334,4069794.6548461914,-25416915.893554688,-60843662.26196289,80800712.58544922,52307773.59008789,38850193.02368164,28863994.598388672,10191782.95135498,-4883778.095245361,-5894908.428192139,-27363418.579101562,-61231658.935546875,26374326.705932617,23785030.364990234,37521263.122558594,16528099.060058594,-1357060.9092712402,2183974.504470825,-9646287.91809082,-24041641.235351562,-27311471.939086914,24128358.840942383,35034584.045410156,19456676.483154297,6050058.364868164,9249264.71710205,-4450411.319732666,-12350907.325744629,-13666728.019714355,-11739107.131958008,15319094.65789795,15484233.856201172,10571475.0289917,10783728.59954834,5194110.870361328,5212435.722351074,-16360456.466674805,17011861.80114746,17372396.46911621,11661876.678466797,1740353.5842895508,-2829327.8217315674
0.35,80110527.03857422,42096416.47338867,-868379.4736862183,61171333.31298828,8165281.295776367,71954315.18554688,71690193.17626953,72385749.81689453,34455368.04199219,6870541.095733643,6332432.270050049,6288494.58694458,6093398.094177246,-58864944.45800781,71872734.06982422,53930206.298828125,36695709.228515625,23153299.33166504,2845718.3837890625,1062566.637992859,1934624.6719360352,-27692308.42590332,-61087242.126464844,71958389.28222656,46116878.509521484,34945156.09741211,26274652.4810791,9103164.672851562,-6084262.371063232,-6903136.730194092,-28497377.395629883,-61675674.43847656,22047798.15673828,20305564.880371094,33787799.83520508,14998824.119567871,-1231224.775314331,1959347.3672866821,-11058226.585388184,-25353389.739990234,-28739534.378051758,20066804.885864258,30867296.21887207,17561399.459838867,4748509.883880615,9391367.91229248,-4026103.4965515137,-11632001.876831055,-14123085.021972656,-12775268.5546875,12622704.50592041,12699934.005737305,8686951.637268066,11997394.561767578,5921463.489532471,5959252.35748291,-17224849.700927734,13471224.784851074,13661532.402038574,11039839.744567871,2269712.448120117,-4851295.948028564
0.355,75537864.6850586,36772243.49975586,-2409375.4291534424,56503582.00073242,5681750.774383545,68456245.42236328,67980110.16845703,68902122.4975586,31411077.49938965,5024340.629577637,4444145.679473877,4557843.208312988,4344586.8492126465,-57359149.93286133,68261642.45605469,51353897.09472656,34802967.0715332,21826341.62902832,1239378.0946731567,-450756.4306259155,548448.3242034912,-27668958.66394043,-59392173.767089844,68586990.35644531,44463886.26098633,34435462.951660156,25567438.12561035,8092644.691467285,-7057427.406311035,-7760816.57409668,-27330986.02294922,-59937446.59423828,23865242.00439453,21171379.08935547,33411273.956298828,14965080.261230469,-1156311.5119934082,1358137.3691558838,-12172491.073608398,-25016574.85961914,-27167228.69873047,20063753.128051758,30951179.50439453,19157228.469848633,4835446.357727051,9384330.749511719,-4655878.54385376,-11363508.224487305,-13781058.311462402,-11605568.885803223,14007196.426391602,14041970.252990723,10077858.924865723,12958304.405212402,6340914.726257324,6251807.689666748,-16422439.575195312,13331319.808959961,13342135.429382324,11270814.895629883,2398717.164993286,-5518084.0492248535
0.36,73432281.49414062,35688137.05444336,-4622134.208679199,55779495.23925781,5903954.50592041,69702774.04785156,68855033.87451172,70007568.359375,31316158.294677734,5210392.475128174,4622359.752655029,4681964.874267578,4680889.60647583,-50301906.58569336,69428527.83203125,54202102.66113281,36606761.93237305,22087978.36303711,1970735.788345337,305169.1949367523,1500282.4068069458,-22949811.935424805,-52590335.845947266,69970184.32617188,48251678.466796875,37132644.65332031,27470779.418945312,8209708.213806152,-5346740.245819092,-6137591.361999512,-22369239.807128906,-53013088.22631836,29106611.251831055,24769506.454467773,37449432.373046875,16876893.997192383,-1168048.8586425781,2384928.2264709473,-9240756.98852539,-20238471.98486328,-20418064.11743164,24826511.38305664,37417705.53588867,23352323.532104492,7484896.183013916,10639161.109924316,-4378264.427185059,-9409667.96875,-9529103.27911377,-5471359.729766846,20440832.138061523,20514844.89440918,15312624.93133545,14244907.37915039,8971911.430358887,8821721.076965332,-10705395.698547363,19401142.120361328,19458465.576171875,13788381.576538086,4384656.4292907715,-1186542.8686141968
0.365,73202301.02539062,40500785.82763672,-1035434.1268539429,58366706.84814453,11697152.137756348,71040817.26074219,70071105.95703125,71160346.98486328,34615417.48046875,9772219.65789795,9341103.553771973,9213259.69696045,9373437.881469727,-38021850.5859375,70748901.3671875,57876010.89477539,39971271.51489258,24406017.303466797,6495072.841644287,5000971.794128418,6315676.212310791,-13552725.791931152,-40917205.810546875,71355758.66699219,52707134.24682617,40037277.22167969,30953655.242919922,10213947.296142578,-773313.2243156433,-1693145.3943252563,-15016372.680664062,-41475257.873535156,30166618.34716797,26063749.313354492,41971824.645996094,18794931.411743164,-1286235.3324890137,5333697.79586792,-2886928.7967681885,-12713423.728942871,-11548743.24798584,28581024.169921875,44214462.28027344,25354190.826416016,9708257.675170898,11786571.502685547,-3168638.9446258545,-6261868.000030518,-2933328.866958618,2634858.3698272705,25522895.81298828,25709848.403930664,18272348.403930664,13979134.559631348,12652610.778808594,12630752.563476562,-2966579.9140930176,26273853.302001953,26570064.544677734,16411828.994750977,7432021.141052246,5488976.001739502
0.37,69828674.31640625,45625392.91381836,7451928.615570068,58744232.177734375,20315950.393676758,65208778.381347656,64577987.67089844,65360229.4921875,37488155.364990234,16853590.01159668,16712345.123291016,16528289.794921875,16584848.403930664,-26104637.145996094,64873893.73779297,54626857.75756836,39713268.2800293,26530961.990356445,12468609.809875488,11342189.78881836,12549435.61553955,-4029190.5403137207,-29593437.19482422,65461090.087890625,50134014.12963867,38383972.16796875,32053234.100341797,12436039.924621582,3515270.233154297,2662384.271621704,-8982983.589172363,-30530195.236206055,23238391.876220703,21235017.776489258,40659709.93041992,17752538.681030273,-1419435.3818893433,8104924.201965332,1841753.602027893,-7595938.205718994,-6139710.903167725,24853330.612182617,42344131.46972656,21334756.85119629,7507556.915283203,10582179.069519043,-2626173.257827759,-4611296.1769104,609284.520149231,6672927.8564453125,22156696.319580078,22487981.79626465,13307355.880737305,10614418.983459473,13267574.310302734,13432630.53894043,183755.36799430847,25715688.705444336,26117691.040039062,15328689.575195312,7977012.157440186,7948603.15322876
0.375,57374542.236328125,42291957.85522461,10874407.768249512,50711692.810058594,23587423.32458496,49787540.435791016,49657421.11206055,50305347.44262695,33883670.806884766,19624589.920043945,19740087.509155273,19679658.889770508,19516222.00012207,-20806903.839111328,49401882.17163086,41873664.85595703,32171974.182128906,24305891.036987305,14687442.779541016,13949599.266052246,14838959.693908691,-417187.8695487976,-24493364.334106445,49979682.92236328,38836025.23803711,30712728.50036621,27867769.241333008,12184797.286987305,4600607.395172119,3985045.6714630127,-7167771.816253662,-25724185.943603516,12682580.947875977,12172154.426574707,32696357.72705078,13717047.691345215,-1334301.5909194946,9110459.327697754,1950105.4286956787,-7698863.506317139,-6585216.999053955,14795200.34790039,31656597.137451172,13818632.125854492,2371538.8774871826,8420092.582702637,-2519368.6485290527,-4999793.529510498,-1089021.3251113892,4643531.322479248,12288149.8336792,12703706.741333008,4365348.815917969,7321807.861328125,10473014.831542969,10727253.913879395,-3044502.9735565186,17781759.26208496,17988981.246948242,11112996.101379395,5467400.550842285,4244091.510772705
0.38,40112876.892089844,30889471.05407715,4746937.7517700195,37379562.37792969,18081781.3873291,33644256.591796875,33704154.96826172,34581016.540527344,24427606.5826416,14798838.61541748,14996453.285217285,15019301.414489746,14824677.467346191,-22829198.837280273,33324741.36352539,28274633.407592773,21807630.53894043,17940658.569335938,11444746.017456055,10900057.792663574,11514822.959899902,-3860274.7917175293,-26375856.399536133,33878402.70996094,27574306.48803711,22488630.294799805,21612951.278686523,9508975.0289917,2952124.3572235107,2478863.7161254883,-9188555.717468262,-27651823.043823242,5989688.873291016,5528876.304626465,25510433.197021484,10594971.656799316,-980785.8467102051,9032433.50982666,-102460.44397354126,-10639673.233032227,-10117468.83392334,7082538.12789917,22914665.22216797,9773229.598999023,651918.2920455933,9334374.42779541,-773808.479309082,-4900339.603424072,-3943756.8187713623,849422.9316711426,5893329.620361328,6257535.457611084,1645008.6832046509,9445957.18383789,9529620.170593262,9807100.296020508,-6919052.1240234375,11990932.46459961,11966566.08581543,9481343.269348145,4370025.157928467,64628.02737951279
0.385,30987771.98791504,22083993.911743164,-2832242.012023926,29988824.84436035,10242582.321166992,29610183.715820312,29450792.31262207,30593885.42175293,17724531.173706055,7916308.403015137,8006597.518920898,7966302.394866943,7973733.901977539,-27080457.68737793,29497011.184692383,25707086.56311035,17976243.97277832,13397888.18359375,7126616.954803467,6547090.05355835,7165234.565734863,-9120552.062988281,-30555927.276611328,29950040.817260742,26581647.872924805,20981302.26135254,19832986.83166504,7481722.354888916,1141032.2189331055,586898.3268737793,-12062733.65020752,-31773386.001586914,6330193.519592285,5932744.026184082,26425479.888916016,11642024.040222168,-727576.9710540771,9145634.651184082,-486962.58664131165,-12267192.840576172,-12299111.366271973,8109459.87701416,25088567.73376465,12436182.022094727,5074907.302856445,13901027.67944336,2657949.209213257,-2817314.1479492188,-3187005.9967041016,257405.5790901184,8883993.148803711,9114731.788635254,8327260.971069336,16589170.455932617,13820405.006408691,14161623.95477295,-5973124.5040893555,14994053.840637207,15038764.953613281,13405137.062072754,7469712.257385254,860294.5804595947
0.39,34701206.20727539,22519319.534301758,-3157160.520553589,33094913.482666016,7606573.581695557,38233253.479003906,37758739.47143555,38864219.665527344,18916044.235229492,5910237.789154053,5800618.1716918945,5743133.544921875,5922653.1982421875,-28447021.484375,38326530.45654297,33946701.04980469,22716667.17529297,14436255.45501709,6377918.243408203,5706874.847412109,6537152.290344238,-10619895.935058594,-32053878.784179688,38636634.826660156,34394840.240478516,25934988.021850586,23673463.821411133,8050453.186035156,775502.3837089539,104259.54312086105,-12964833.25958252,-33259769.439697266,10666199.684143066,10545177.459716797,33048309.326171875,14978946.685791016,-933057.0697784424,9534796.714782715,1233792.6626205444,-11197392.463684082,-11459759.712219238,14206926.345825195,33781341.552734375,17135545.73059082,10235548.01940918,17323995.59020996,4720251.560211182,-717628.002166748,365481.4660549164,2474133.4915161133,15464283.94317627,15622895.240783691,15511939.04876709,21015037.536621094,18773225.784301758,19205106.735229492,-2550645.589828491,21110019.68383789,21442823.41003418,17314416.885375977,10166815.757751465,3838219.8810577393
0.395,40273780.822753906,26262296.676635742,1282204.3895721436,37585212.70751953,9372683.52508545,45167663.57421875,44570804.595947266,45464954.3762207,22146205.90209961,7940885.066986084,7681477.5466918945,7814427.375793457,7942292.213439941,-26149177.55126953,45323791.50390625,39712921.142578125,27062400.817871094,16995859.146118164,8328033.447265625,7668612.480163574,8666278.839111328,-8081823.348999023,-29819345.474243164,45551532.74536133,39031524.658203125,29301208.49609375,26944055.557250977,9597510.33782959,1799911.8566513062,1180471.7779159546,-11192162.51373291,-31058658.599853516,13553076.74407959,12196833.610534668,36071781.158447266,15854822.158813477,-1345204.8301696777,9832183.837890625,3031364.2024993896,-9001120.567321777,-9381302.833557129,16149402.618408203,36868049.62158203,17094778.060913086,9343767.166137695,15416318.893432617,3330941.915512085,-1001577.8541564941,2069919.8246002197,3219959.9742889404,15636440.27709961,15830742.835998535,13411571.502685547,16739166.259765625,17356912.61291504,17811368.942260742,-3109647.512435913,19827524.185180664,20274919.509887695,13574522.018432617,6068789.482116699,2041044.2352294922
0.4,37264091.49169922,25500946.044921875,2962871.551513672,34631763.45825195,10371103.286743164,40253837.58544922,39703136.4440918,40505710.60180664,20260469.436645508,8769323.348999023,8504343.032836914,8862441.062927246,8851746.559143066,-22722890.853881836,40303962.70751953,34880462.646484375,24054004.669189453,15930040.35949707,9376760.482788086,8777301.788330078,9815452.575683594,-5039248.943328857,-26276859.283447266,40561428.07006836,34340370.178222656,26418535.232543945,25264453.887939453,9952341.079711914,3531787.872314453,3043169.2600250244,-8247675.895690918,-27587665.557861328,12544586.181640625,8488104.820251465,32033649.444580078,13204747.200012207,-1365385.890007019,10356385.231018066,3958884.7160339355,-7319981.575012207,-8313316.345214844,11164491.653442383,30895322.799682617,12259068.489074707,3505184.6504211426,10385167.121887207,479695.26052474976,-2985592.6036834717,222820.4905986786,813784.4800949097,8618666.648864746,8853994.369506836,4325140.476226807,7850125.789642334,10308370.590209961,10691361.427307129,-8460833.549499512,10878182.411193848,11115607.261657715,3841428.04145813,-2891249.418258667,-4777404.308319092
0.405,31053564.071655273,22681026.458740234,1121153.473854065,29409376.14440918,10092582.702636719,31772853.85131836,31263404.846191406,31986206.0546875,16578271.865844727,7921796.3218688965,7755328.178405762,8108804.702758789,8125120.162963867,-20754619.598388672,31620473.861694336,28017683.029174805,19348506.927490234,13468981.742858887,9040946.960449219,8378584.861755371,9454880.714416504,-3874811.6493225098,-24278158.18786621,31961786.2701416,28461561.20300293,22589469.90966797,22507211.685180664,9654322.624206543,4946041.107177734,4425600.051879883,-6509479.999542236,-25730871.200561523,9874096.870422363,4864201.068878174,27818695.068359375,11061485.290527344,-928193.211555481,11283918.380737305,4413195.1332092285,-6553238.868713379,-8499570.846557617,6246711.254119873,25192077.63671875,9114455.223083496,172187.87968158722,7883506.298065186,-582035.0646972656,-4291104.793548584,-2163748.7411499023,-1692239.761352539,3635142.8031921387,3844546.5564727783,-763050.9734153748,3686016.082763672,5705685.138702393,5989827.1560668945,-12400880.813598633,4958566.665649414,4943276.882171631,-1840964.5557403564,-7640405.178070068,-9004094.123840332
0.41,33113426.208496094,24895626.068115234,677265.7632827759,32496421.813964844,11886981.964111328,33906513.21411133,33371215.8203125,33676734.924316406,19314956.665039062,9358489.036560059,9258937.83569336,9437541.007995605,9644030.570983887,-21077890.396118164,33577682.49511719,31285463.333129883,22322488.78479004,15311488.151550293,9609896.659851074,8768651.008605957,9919601.440429688,-4161843.776702881,-24758111.95373535,33945907.59277344,31440097.80883789,24785064.697265625,24358798.98071289,10375446.319580078,5019985.198974609,4277955.055236816,-7109424.591064453,-26330091.47644043,9470909.118652344,6918213.367462158,30297365.188598633,12671061.515808105,-636206.2096595764,11893236.16027832,4461559.772491455,-6510271.072387695,-8721609.115600586,8260135.650634766,28180976.86767578,11741248.13079834,3031740.188598633,9725029.945373535,476440.9065246582,-4255167.007446289,-2164185.5239868164,-1236449.2416381836,7084042.072296143,7274410.724639893,3086398.8399505615,7092488.765716553,8075603.485107422,8311987.87689209,-10614365.577697754,8781537.055969238,8772567.749023438,1804946.1841583252,-3989932.7754974365,-5920291.423797607
0.415,40744915.00854492,30744287.490844727,3258918.523788452,41277069.091796875,15830862.045288086,43665943.14575195,43118534.088134766,42748325.34790039,26771511.07788086,13486682.891845703,13362312.316894531,13499337.196350098,13811329.84161377,-21626825.3326416,43307777.404785156,40582363.12866211,30022438.049316406,20155738.830566406,11488875.389099121,10608960.151672363,11757349.967956543,-3982631.6833496094,-25340042.114257812,43592033.38623047,39112663.26904297,30096364.974975586,28540063.858032227,11509074.211120605,4242632.3890686035,3312501.4305114746,-8165353.775024414,-26841226.57775879,11367229.461669922,11837207.794189453,35690979.00390625,15614446.640014648,-843512.4158859253,11737750.053405762,4056178.569793701,-6639451.026916504,-7959457.3974609375,13840158.462524414,34959327.697753906,16145446.77734375,7335845.947265625,12214684.48638916,1443509.578704834,-4009920.120239258,-706757.9627037048,1101669.3115234375,13679677.00958252,13931130.409240723,8976744.651794434,11681107.521057129,12521636.962890625,12806186.67602539,-6599279.880523682,15677832.60345459,15878190.040588379,8190835.952758789,1750974.8935699463,-554920.0773239136
0.42,39560371.39892578,32602840.423583984,7351196.2890625,41935279.846191406,19162931.442260742,42887874.603271484,42440395.35522461,41724617.00439453,28178798.67553711,16392160.415649414,16250516.891479492,16560039.520263672,16768508.911132812,-17504156.1126709,42644454.95605469,39705024.71923828,29795803.07006836,20486499.786376953,12985165.5960083,12388642.311096191,13474424.362182617,-767147.8390693665,-21008657.455444336,42809059.143066406,37878887.17651367,28989366.53137207,27571811.67602539,11054572.105407715,5099138.259887695,4177819.25201416,-5639097.690582275,-22307065.963745117,10690431.594848633,11455284.118652344,34620433.80737305,15120626.449584961,-1106322.6461410522,11892065.048217773,4549069.404602051,-5335780.143737793,-5412523.26965332,13625070.571899414,34205490.11230469,15676969.528198242,6856696.605682373,11798705.101013184,1309764.9812698364,-3659495.5921173096,140939.45920467377,2814924.0016937256,13995930.671691895,14303444.862365723,8596118.927001953,11356648.445129395,12499297.142028809,12918457.984924316,-5761641.502380371,15448607.444763184,15805054.664611816,8433121.681213379,2163142.9195404053,-178254.70864772797
0.425,25613033.294677734,30193490.982055664,14519780.158996582,30282615.661621094,22602722.16796875,24190416.33605957,23979040.145874023,23605957.03125,20071449.279785156,17251247.40600586,17202226.638793945,17648792.266845703,17717906.951904297,-4961103.439331055,24037721.633911133,23679826.736450195,17935899.73449707,14237916.946411133,14228086.471557617,14076301.574707031,15268657.684326172,7529747.96295166,-8457100.868225098,24198049.545288086,24279273.986816406,19216812.133789062,20357723.236083984,9342622.756958008,9444005.966186523,8665948.867797852,2627353.6682128906,-9704544.067382812,3692211.389541626,3250557.4226379395,25645643.23425293,10743810.653686523,-917010.1881027222,13748401.641845703,7873094.081878662,-659405.1718711853,192304.3727874756,5054811.000823975,24312602.996826172,9797041.893005371,2093212.1276855469,9521669.387817383,1467604.398727417,-1638819.0984725952,1381695.7473754883,4784788.608551025,7280449.390411377,7515834.331512451,3064833.402633667,7937911.510467529,9394488.334655762,9943696.975708008,-6972618.103027344,8666281.700134277,9038435.935974121,3498656.2728881836,-1060003.8766860962,-3866535.6636047363
0.43,12439714.431762695,31630695.343017578,27411682.12890625,18963949.20349121,29439226.150512695,2888789.176940918,2968505.1441192627,3236337.423324585,12254769.325256348,19937780.380249023,20017555.236816406,20402242.66052246,20496328.353881836,12750082.015991211,2660996.198654175,6910573.482513428,6098818.302154541,8632880.210876465,17270874.0234375,17429584.503173828,18976835.250854492,19432144.165039062,8716955.184936523,3003350.4962921143,10758223.533630371,9767077.445983887,14705771.446228027,9109740.257263184,15626802.444458008,15000074.38659668,13521481.51397705,7246349.334716797,-6330756.187438965,-6062356.472015381,17688562.393188477,6932496.547698975,-582154.9892425537,16921123.504638672,13780388.832092285,6980795.860290527,8773441.314697266,-4150272.846221924,15705652.236938477,4263366.222381592,-1224615.3354644775,8811120.03326416,3207144.4988250732,2479387.044906616,5517811.7752075195,9650389.671325684,1563067.7938461304,1645190.8349990845,-373457.8788280487,6954271.7933654785,9677015.30456543,10229572.296142578,-4878434.181213379,4790287.494659424,5149987.697601318,1489409.8043441772,-1106516.0036087036,-4755600.452423096
0.435,11501366.61529541,39420978.54614258,41658134.46044922,19248350.143432617,38075279.235839844,-3417068.0046081543,-3142843.008041382,-2603832.483291626,13478706.359863281,25584083.557128906,25680187.225341797,25993524.5513916,26204874.03869629,26324337.005615234,-3808762.550354004,3751376.8672943115,5284180.641174316,9653810.501098633,21823589.324951172,22110569.00024414,23970539.093017578,29287109.375,21590938.568115234,-3196099.9965667725,8854991.912841797,8733298.301696777,16516153.335571289,11402274.131774902,19774545.669555664,19271068.572998047,20762731.552124023,19854217.529296875,-12165912.628173828,-9508941.650390625,17911836.624145508,6976847.171783447,-810191.6909217834,19473560.333251953,19212135.314941406,13754670.143127441,16616895.67565918,-6506642.818450928,16449075.698852539,3153607.130050659,-75632.56472349167,10766947.746276855,5703569.8890686035,6180845.737457275,11404150.96282959,15946575.164794922,1951545.7153320312,1961892.008781433,889461.5173339844,9452392.578125,14490350.723266602,14904835.70098877,762717.6642417908,8079194.068908691,8451032.638549805,5331178.188323975,2949678.421020508,-799013.3166313171
0.44,15580431.938171387,44396492.00439453,47599304.19921875,24723796.844482422,41776302.337646484,1644276.6189575195,1927289.4859313965,2246691.4653778076,18638858.795166016,29093702.31628418,29117259.979248047,29588361.740112305,29784791.946411133,29991064.071655273,1185235.1427078247,9499837.875366211,10892815.589904785,13294289.588928223,24301017.76123047,24722839.35546875,26548591.61376953,32454296.112060547,24994997.024536133,1987665.8916473389,13979425.430297852,12605834.007263184,21474262.237548828,13610709.190368652,20050279.61730957,19628025.05493164,21338140.4876709,23196290.969848633,-12008013.725280762,-8619339.942932129,22352834.701538086,8943406.105041504,-1594863.5339736938,20153430.938720703,21148170.471191406,15717508.316040039,19082790.37475586,-4235177.516937256,21748331.06994629,4128771.7819213867,2651987.314224243,13294717.788696289,7105041.50390625,6520382.404327393,14139208.793640137,18305704.11682129,4460731.983184814,4521032.810211182,2533560.037612915,11787354.469299316,17725126.266479492,17988920.211791992,3724569.55909729,12446250.915527344,12765526.77154541,9454786.30065918,5333334.922790527,2571086.4067077637
0.445,9759187.698364258,37895660.400390625,41740806.579589844,21098979.949951172,37371303.55834961,263925.9099960327,452700.49571990967,561218.0829048157,16638000.48828125,25969215.393066406,26006504.05883789,26766716.00341797,26789287.567138672,27590305.32836914,-122024.37967061996,8658012.390136719,10357295.989990234,11775512.6953125,22362470.626831055,23001863.479614258,24548257.82775879,30331029.891967773,22758047.103881836,701308.9060783386,13234191.89453125,12106301.307678223,21271003.72314453,12764760.01739502,18220960.61706543,17788473.12927246,18477874.755859375,21028074.264526367,-11752968.788146973,-9789463.996887207,22267210.006713867,8916048.049926758,-2121214.6282196045,19532806.396484375,19578067.779541016,13181776.04675293,16346010.208129883,-4674102.306365967,21724206.924438477,2992405.891418457,3137079.0004730225,14340005.874633789,6874464.03503418,4000486.373901367,11456256.866455078,14951511.38305664,3410873.1746673584,3524600.9826660156,1295744.2998886108,12133817.672729492,15475515.365600586,15693074.226379395,679276.8836021423,11592642.784118652,11760230.06439209,9119593.620300293,3301985.9790802,1151649.4750976562
0.45,-6968426.22756958,23855159.759521484,30952642.4407959,6938064.5751953125,29379688.262939453,-13247076.988220215,-13102991.104125977,-12777723.31237793,6472400.188446045,18768918.991088867,18944179.53491211,19817865.3717041,19732854.84313965,26058914.184570312,-13506928.443908691,-2657098.0548858643,1222451.2100219727,4898625.373840332,18012430.19104004,18794504.165649414,20158866.88232422,27627300.262451172,21403293.60961914,-12811506.271362305,4104207.5157165527,5531628.608703613,15109452.247619629,9413997.650146484,16790946.96044922,16295389.175415039,16992546.08154297,19658269.88220215,-16064807.891845703,-14247478.485107422,16629556.655883789,6543053.62701416,-1879863.2621765137,18920001.983642578,17246616.36352539,10428534.507751465,13736739.158630371,-9175154.685974121,15685733.795166016,262304.48484420776,1972170.7105636597,14391182.899475098,6374739.170074463,2443655.7292938232,7651229.381561279,11232734.680175781,303852.52833366394,413595.94464302063,185656.65185451508,12952719.688415527,12354848.861694336,12610045.433044434,-3028305.768966675,8110795.021057129,8162969.589233398,7145443.439483643,1505792.498588562,-1957784.4142913818
0.455,-21240772.247314453,13190748.21472168,23444200.51574707,-5267396.926879883,23624162.673950195,-26110240.936279297,-25926279.067993164,-25106004.71496582,-2225226.640701294,13544702.529907227,13797019.958496094,14516303.062438965,14551330.56640625,25899650.57373047,-26208072.662353516,-13055945.39642334,-6909974.575042725,-340636.34276390076,14866153.717041016,15595958.709716797,16979625.701904297,25915847.778320312,21355806.350708008,-25726129.53186035,-3553751.7070770264,62237.873673439026,10027317.04711914,6778799.057006836,16170385.360717773,15738244.05670166,17299224.853515625,19495975.494384766,-21779977.798461914,-17068584.442138672,12596439.361572266,4949635.028839111,-1348331.4514160156,18894382.47680664,16643817.901611328,10581963.539123535,14579354.286193848,-12384247.779846191,11988388.061523438,-198398.51558208466,2349723.3390808105,15109546.661376953,7075782.299041748,4391524.791717529,8368381.500244141,12579911.231994629,555881.2618255615,694263.5178565979,3069319.248199463,15977534.294128418,14655933.380126953,14963374.137878418,-805841.0286903381,8088429.4509887695,8199726.104736328,8120308.876037598,4167181.968688965,-1962753.2958984375
0.46,-24125856.399536133,10323080.062866211,20434446.334838867,-6977890.491485596,20936712.26501465,-27348711.013793945,-27122486.114501953,-25942174.911499023,-2978915.4529571533,12566589.35546875,12722765.922546387,13214449.882507324,13481804.847717285,22823263.16833496,-27204040.52734375,-13709414.4821167,-7135468.95980835,75914.74801301956,14212309.837341309,14808572.769165039,16219211.57836914,23213462.829589844,18551977.157592773,-26934629.440307617,-3146081.4476013184,548935.2941513062,10749369.621276855,6805028.438568115,15458622.932434082,15297024.726867676,16233636.856079102,16642375.946044922,-23496643.06640625,-15883092.880249023,14345395.0881958,5781487.464904785,-1283611.0591888428,19181192.39807129,17734682.083129883,12289867.401123047,15890676.498413086,-11726124.76348877,14905095.100402832,2118797.0638275146,4582519.054412842,16582674.026489258,8647125.244140625,7837975.025177002,13074654.579162598,16912557.60192871,4107677.936553955,4367345.809936523,7694927.69241333,18416145.32470703,20657064.43786621,21037673.950195312,5462121.963500977,11033051.490783691,11318715.09552002,10507682.800292969,7970095.634460449,-14078.924432396889
0.465,-20420097.35107422,10987986.56463623,18775449.752807617,-2964965.1050567627,19296018.600463867,-21908092.498779297,-21694040.298461914,-20421146.392822266,563247.9786872864,13586036.682128906,13648189.544677734,13992950.439453125,14395882.606506348,16722368.240356445,-21544031.143188477,-9306273.460388184,-3437544.822692871,2848924.160003662,14964291.5725708,15508416.175842285,16838508.60595703,19273363.11340332,12803773.880004883,-21369850.158691406,316063.25507164,3411419.630050659,14237380.027770996,8424051.284790039,14597297.668457031,14688522.338867188,12778093.338012695,10960408.210754395,-21703002.9296875,-14662270.545959473,17600515.365600586,7056198.1201171875,-1719933.271408081,19369726.181030273,18697628.021240234,12439890.86151123,13766875.267028809,-11039931.297302246,18941221.237182617,3227669.9542999268,5543125.629425049,17253690.719604492,9341377.258300781,8734312.057495117,15986952.781677246,18050144.19555664,5371059.894561768,5741731.1668396,8439653.396606445,16850522.994995117,22877584.45739746,23373422.622680664,8154072.7615356445,11378191.947937012,11765564.918518066,9532430.648803711,7118687.629699707,-558118.999004364
0.47,-18166328.43017578,10982779.502868652,17375278.47290039,-1214305.6392669678,18480056.762695312,-19568750.381469727,-19415628.43322754,-18145406.72302246,2284546.136856079,14432413.101196289,14618480.682373047,14844175.338745117,15262512.20703125,13208892.822265625,-19231817.2454834,-7922637.939453125,-2239973.0682373047,3589467.763900757,15876319.885253906,16451267.24243164,17718414.306640625,17263309.478759766,9378419.876098633,-18975322.723388672,199187.45756149292,3595962.0475769043,15378326.416015625,9487669.944763184,14326978.68347168,14364226.341247559,9955911.636352539,7573415.756225586,-20548109.05456543,-16689666.748046875,17114347.457885742,6600839.138031006,-2051894.6647644043,19285850.524902344,18326890.94543457,10642614.364624023,10058111.190795898,-13096878.051757812,18115949.630737305,909619.8678016663,3570643.901824951,16294666.290283203,8213870.048522949,6009298.801422119,13936614.036560059,14772145.27130127,2256925.106048584,2617995.500564575,4488310.813903809,12652574.53918457,18687438.96484375,19263019.561767578,4727622.509002686,8049940.10925293,8383799.5529174805,5312963.962554932,2245957.612991333,-3441657.066345215
0.475,-17761430.740356445,11216797.828674316,17921495.43762207,-1698231.816291809,19874671.936035156,-20054929.733276367,-20002241.134643555,-18728715.896606445,2077425.0030517578,15401031.494140625,15829940.795898438,15925209.045410156,16368009.567260742,15811631.202697754,-20028238.29650879,-8802223.205566406,-2899021.863937378,2832312.822341919,16556657.791137695,17153495.78857422,18505289.07775879,19254371.643066406,11812648.77319336,-19605098.724365234,-1541792.631149292,2184675.931930542,13956601.1428833,9282785.415649414,14729746.81854248,14476238.250732422,10520585.060119629,9893783.569335938,-20704662.322998047,-18923215.866088867,14350191.116333008,5303529.262542725,-1905013.918876648,18921419.143676758,17126575.469970703,9173245.429992676,9554291.725158691,-14737443.923950195,14438211.441040039,-1785585.1650238037,945874.273777008,14631545.066833496,6227282.524108887,2456089.2581939697,9753007.888793945,11631463.050842285,-881509.006023407,-573531.5084457397,654074.7284889221,10149303.436279297,13215990.06652832,13734398.84185791,202079.57923412323,5745625.972747803,5960996.150970459,2486067.771911621,-1018517.017364502,-4315840.244293213
0.48,-15296271.324157715,14105287.551879883,21900606.155395508,378544.1815853119,23820659.637451172,-17369316.10107422,-17414228.439331055,-16220270.156860352,3698397.159576416,17719743.728637695,18204814.910888672,18295827.865600586,18793992.99621582,21628704.071044922,-17680919.647216797,-6564984.7984313965,-1022284.984588623,3772554.397583008,17368337.631225586,17925052.642822266,19471982.955932617,23407930.374145508,17555137.634277344,-17171058.654785156,302305.8772087097,3184165.2393341064,13357142.448425293,8833798.4085083,15295511.245727539,14893405.91430664,13479602.813720703,15426355.361938477,-19688520.431518555,-17295116.424560547,13951977.729797363,5335037.708282471,-1518380.9995651245,18504850.387573242,16381874.084472656,9466538.429260254,12358706.4743042,-13003023.147583008,13145557.403564453,-1407484.769821167,331380.60569763184,13393298.149108887,4944391.250610352,965766.0126686096,7519805.431365967,11411050.796508789,-899644.136428833,-530863.0466461182,22430.34914135933,10472601.890563965,11369678.497314453,11734069.82421875,-1114052.2956848145,6391596.31729126,6526990.89050293,2529737.4725341797,-780877.8285980225,-2508147.0012664795
0.485,-10665092.468261719,19120954.513549805,28735670.08972168,5400761.604309082,28864055.633544922,-12161841.39251709,-12187293.05267334,-11168699.264526367,7888724.327087402,21317203.521728516,21586845.39794922,21902105.3314209,22345060.348510742,26193180.084228516,-12588079.452514648,-1761592.3881530762,3327262.6399993896,6855594.635009766,18927055.35888672,19346506.118774414,21094514.846801758,26787857.055664062,22221359.252929688,-12113059.043884277,4466495.513916016,6356653.690338135,14854542.73223877,9243728.637695312,16056970.596313477,15804553.031921387,16141246.795654297,19971841.81213379,-17531352.996826172,-13609103.202819824,16211179.733276367,6726267.8146362305,-1280027.8663635254,18531446.45690918,16882013.32092285,10910655.975341797,14261507.987976074,-10838494.300842285,14440654.754638672,789412.2004508972,1244986.1764907837,12670240.40222168,4875956.058502197,1823752.522468567,8012820.243835449,12081286.430358887,-532855.749130249,-8371.001109480858,532315.0753974915,10922034.26361084,12221596.717834473,12484685.897827148,-559321.7015266418,6172506.809234619,6263644.695281982,2220982.074737549,-504159.0929031372,-2385644.9127197266
0.49,-6699228.286743164,23058244.705200195,34526844.0246582,9474692.344665527,32077434.539794922,-9097339.630126953,-8965521.812438965,-8038600.921630859,11721753.120422363,24092468.26171875,24129798.889160156,24714536.666870117,24939336.7767334,28177597.045898438,-9415301.322937012,1316642.9996490479,6669538.974761963,9592334.747314453,20892139.434814453,21049747.467041016,22912220.001220703,28294643.40209961,24231164.932250977,-8988072.395324707,6584246.635437012,8536947.250366211,16735540.390014648,10305506.706237793,17237882.614135742,17120761.87133789,17458814.62097168,22097688.674926758,-15589066.505432129,-11714614.868164062,18259014.129638672,7982125.282287598,-1246991.3959503174,19270523.071289062,18590095.52001953,12808209.419250488,14160341.262817383,-10884847.640991211,15924576.759338379,2027514.6961212158,2242590.6658172607,12647049.903869629,5724024.772644043,3988972.6638793945,10204989.433288574,12207901.000976562,-1528861.7610931396,-942994.7137832642,715317.0704841614,10722755.432128906,13473946.571350098,13752456.665039062,107122.87575006485,4099045.753479004,4151292.8009033203,1021646.6188430786,-1312131.643295288,-4710403.919219971
0.495,-3710407.7339172363,22813722.610473633,32306991.577148438,11471691.131591797,29797090.530395508,-5328934.192657471,-5133119.583129883,-4117563.247680664,13492851.257324219,23205581.665039062,23234745.025634766,23827899.932861328,23864017.486572266,27491594.314575195,-5462474.822998047,4480045.318603516,9149113.655090332,10648216.247558594,21264503.479003906,21141407.012939453,22920379.638671875,27582334.518432617,23534095.764160156,-5017477.512359619,8833019.256591797,10230087.280273438,18112855.911254883,10856097.221374512,17865419.387817383,17540187.83569336,17590593.338012695,21739919.662475586,-10798724.174499512,-9594379.425048828,20549749.37438965,9151309.0133667,-1252397.060394287,20113975.524902344,20629304.885864258,15013273.239135742,15536991.119384766,-7999929.904937744,19610637.664794922,3653067.3503875732,4325572.967529297,14402529.7164917,7238924.503326416,6665574.550628662,13692660.331726074,14012192.726135254,1303338.1700515747,1772900.8197784424,3859791.5172576904,13069827.07977295,16241821.2890625,16568689.346313477,3094533.920288086,6892739.295959473,6949026.584625244,3970605.3733825684,1195671.3199615479,-2612489.2234802246
0.5,-776021.0633277893,17224039.07775879,17809640.884399414,13736596.10748291,20596069.3359375,6361786.842346191,6283766.269683838,7381448.745727539,14349193.572998047,17877201.080322266,18052486.419677734,18359731.674194336,18441307.067871094,22960083.0078125,6402905.9410095215,13592192.649841309,14063557.624816895,11159650.802612305,18278747.55859375,18066228.86657715,19538335.8001709,23837839.126586914,19389940.26184082,6871949.195861816,17074066.162109375,14871221.542358398,19919855.11779785,10195649.147033691,16303773.880004883,15598584.175109863,15963623.046875,17983974.45678711,937805.8314323425,-2187971.830368042,25901597.97668457,11517740.249633789,-1231936.4547729492,19827938.079833984,21259140.014648438,16225631.713867188,19390386.5814209,3901526.45111084,28713645.935058594,8754806.518554688,8771661.758422852,17830808.639526367,8637935.638427734,8418632.507324219,17056564.331054688,18333669.662475586,12406757.354736328,12730309.48638916,12078367.233276367,19133274.07836914,21172819.137573242,21500537.872314453,9607350.34942627,19137561.798095703,19275814.056396484,13398039.817810059,9252286.911010742,8712140.083312988
0.505,-178289.45815563202,7726628.303527832,-3661338.3293151855,16298896.789550781,8205887.794494629,23296804.428100586,22735040.66467285,23673791.885375977,15119793.891906738,10914647.102355957,11161799.430847168,11189024.925231934,11448308.944702148,14568401.336669922,23476039.88647461,26967931.747436523,20788236.618041992,12042366.027832031,13163422.584533691,13057679.176330566,14235150.337219238,17374576.568603516,11877733.23059082,23898872.37548828,29268520.35522461,21722303.39050293,22072570.80078125,8850302.696228027,12621083.25958252,11824991.226196289,11929784.774780273,10734131.813049316,15464029.312133789,8683302.879333496,32672576.904296875,14487177.848815918,-1248794.7940826416,17947969.436645508,19070745.46813965,14235019.68383789,20943662.643432617,19750658.03527832,39116283.41674805,15465865.135192871,13148510.932922363,20252452.850341797,8324981.689453125,7125960.350036621,16922567.36755371,20970304.489135742,25470838.54675293,25781093.59741211,20131967.544555664,24189420.700073242,24107702.255249023,24410924.911499023,14811754.22668457,33338619.232177734,33563762.66479492,22844661.712646484,17113632.202148438,22448249.81689453
0.51,-4799000.263214111,-2204998.49319458,-20305370.330810547,15909948.348999023,-1177002.7875900269,33224845.88623047,32368724.822998047,32938739.776611328,14728446.960449219,6140318.393707275,6322234.630584717,6321204.662322998,6585770.130157471,5212339.401245117,33477054.595947266,34999832.15332031,24248479.84313965,12449137.687683105,9321632.385253906,9203634.262084961,10408892.631530762,10532431.602478027,3317981.958389282,33818843.841552734,35936264.03808594,25415819.16809082,22887062.072753906,7866866.111755371,9062791.82434082,8548614.501953125,6591957.092285156,2306117.057800293,22710546.493530273,14659231.185913086,35297050.47607422,15675582.885742188,-1319868.2069778442,15676153.182983398,14995978.355407715,9205265.045166016,16399866.104125977,27315216.064453125,42480476.37939453,18210226.05895996,13674732.208251953,19537521.362304688,5993465.900421143,2964539.051055908,12240878.105163574,18177495.9564209,29588893.89038086,29966087.341308594,21369663.23852539,23906942.36755371,21441591.262817383,21737468.719482422,13519556.045532227,38004695.892333984,38218833.923339844,25018024.444580078,18218530.654907227,27401618.95751953
