time,Fp1,Fpz,Fp2,AF3,AF4,F7,F5,F3,F1,Fz,F2,F4,F6,F8,FT7,FC5,FC3,FC1,FCz,FC2,FC4,FC6,FT8,T7,C5,C3,C1,Cz,C2,C4,C6,T8,TP7,CP5,CP3,CP1,CPz,CP2,CP4,CP6,TP8,P7,P5,P3,P1,Pz,P2,P4,P6,P8,PO7,PO5,PO3,POz,PO4,PO6,PO8,CB1,O1,Oz,O2,CB2
0.0,10910528.182983398,12487597.465515137,12568659.782409668,5012559.413909912,7898742.198944092,2256949.1863250732,2268660.7837677,2450176.000595093,3038054.4662475586,557590.9614562988,2357498.88420105,2415987.253189087,2632731.9145202637,102473.70600700378,-317607.46240615845,2608288.526535034,192682.78777599335,2648414.373397827,965300.0831604004,974604.8450469971,1578581.690788269,-486721.2474346161,6435.3118650615215,-6903059.005737305,-1366770.5059051514,-1976525.3067016602,-93622.45351076126,562800.1689910889,2035532.4745178223,412187.03985214233,9167.698211967945,119900.12228488922,-7577485.084533691,-4745539.18838501,2429664.134979248,-1709183.5737228394,-196865.21589756012,4413768.291473389,-3647277.355194092,-6595501.899719238,-6490195.274353027,-8005580.902099609,-5029553.413391113,-4889388.561248779,-3969847.6791381836,-3836804.6283721924,-2341939.687728882,-6959818.8400268555,-6825357.913970947,-7053892.612457275,-9216337.203979492,-9330380.4397583,-9163674.354553223,-3616960.7639312744,-7068357.467651367,-6942200.660705566,-6876361.846923828,-6634725.093841553,-6941281.795501709,-2111879.587173462,-6999030.113220215,-9929609.298706055
0.005,23898044.58618164,30827201.84326172,19731287.002563477,11293323.516845703,8401698.112487793,4188680.648803711,3967518.8064575195,3777920.2461242676,-2359700.2029418945,-10647526.741027832,-3974356.4128875732,-965464.8303985596,-1921461.4629745483,-6144403.457641602,-17509353.637695312,-13776772.499084473,-7181049.823760986,-14292794.227600098,-10013956.069946289,-6734331.6078186035,-3434282.7796936035,-8727072.715759277,-5689272.880554199,17898431.7779541,-8111233.711242676,-7526801.586151123,-8147948.265075684,-4155853.271484375,2665674.6864318848,-5676215.171813965,-16931417.46520996,-6028029.441833496,6400569.438934326,-11779388.427734375,-5438313.961029053,-5546370.983123779,-102337.75526285172,-195015.71357250214,-12846025.466918945,-10680408.477783203,-11252032.279968262,-9317541.122436523,-11679812.43133545,-12398640.632629395,-15689940.452575684,-11615691.184997559,-12320705.41381836,-21793815.61279297,-21924711.227416992,-21448125.8392334,-17949829.1015625,-17526260.375976562,-17690643.310546875,-12615634.91821289,-21614583.96911621,-21978586.196899414,-21815727.23388672,-23251831.0546875,-15396347.999572754,-22632780.075073242,-21611965.17944336,-26828237.533569336
0.01,32710910.79711914,42196830.74951172,24379991.53137207,14520410.537719727,9155984.878540039,5685573.577880859,5295687.675476074,5079724.7886657715,-3879185.438156128,-14129025.45928955,-5759874.34387207,-2298935.651779175,-3817720.1747894287,-11362995.147705078,-25995340.34729004,-20907831.1920166,-8916822.43347168,-19021306.99157715,-12868663.787841797,-8070375.442504883,-4839546.680450439,-12839371.681213379,-10690788.269042969,27420156.478881836,-12405980.110168457,-8302927.9708862305,-11534048.080444336,-4675471.305847168,2784579.9922943115,-7230318.069458008,-24598745.346069336,-11353307.723999023,11123678.207397461,-15038290.977478027,-11269526.481628418,-7694394.111633301,-136237.56170272827,-708305.2396774292,-16663864.135742188,-14103144.645690918,-15150585.174560547,-12249979.972839355,-16284574.508666992,-17334066.39099121,-22473007.202148438,-16031049.728393555,-18259439.46838379,-30999967.575073242,-31618066.787719727,-30513723.373413086,-24173950.1953125,-23429164.88647461,-23648200.98876953,-17526372.9095459,-30830673.217773438,-31398143.768310547,-31279193.878173828,-33522857.666015625,-22256235.122680664,-33190628.051757812,-30899721.145629883,-37363021.85058594
0.015,31190093.994140625,40671680.45043945,21560035.705566406,13012729.64477539,8198379.5166015625,4990050.315856934,4552121.639251709,4533419.132232666,-2209954.7386169434,-10897164.344787598,-3983802.556991577,-2975247.383117676,-4465569.019317627,-15475063.32397461,-26612928.39050293,-21417974.4720459,-6630113.60168457,-13822695.7321167,-8401720.04699707,-3865892.171859741,-3308145.28465271,-13479764.938354492,-14849928.855895996,23183637.619018555,-14995939.254760742,-6883896.827697754,-11316834.449768066,-1827496.4094161987,3544192.7909851074,-4496863.842010498,-24074451.446533203,-15666021.347045898,7368781.566619873,-15673882.484436035,-14169216.15600586,-8295019.149780273,-224067.89660453796,2323588.6096954346,-15134721.755981445,-15369399.070739746,-16650732.040405273,-15635124.206542969,-18982013.702392578,-19932125.091552734,-25402345.657348633,-18172681.80847168,-20352251.052856445,-33739238.73901367,-34849250.79345703,-33337490.08178711,-27199111.938476562,-26415201.18713379,-26543357.849121094,-19449634.552001953,-33769577.02636719,-34282604.2175293,-34290966.03393555,-36874748.22998047,-26654949.188232422,-34923961.6394043,-33906524.658203125,-39898979.18701172
0.02,18161029.815673828,27099155.42602539,10140298.843383789,7952144.145965576,4025735.855102539,1369302.9880523682,1027198.314666748,1050587.4156951904,-928182.7807426453,-7867053.985595703,-2931587.6960754395,-4929506.301879883,-6268476.486206055,-17835622.787475586,-25643976.21154785,-22910747.528076172,-5172652.721405029,-9398996.353149414,-3813950.538635254,-465307.17611312866,-1788408.5178375244,-13649451.25579834,-17249555.587768555,18915239.334106445,-16504882.8125,-7350753.307342529,-10931612.968444824,498322.63588905334,5571079.730987549,-1650316.4768218994,-22355953.216552734,-18063022.61352539,3811944.7231292725,-15969208.717346191,-12971662.521362305,-8205674.171447754,-198190.03343582153,4639196.872711182,-12574466.705322266,-13349342.346191406,-14672797.203063965,-15690164.566040039,-19453372.955322266,-20279861.450195312,-27550411.224365234,-20283979.415893555,-21232797.622680664,-32466396.33178711,-33716674.8046875,-32094593.048095703,-26762456.8939209,-26093784.33227539,-26280748.36730957,-21206775.665283203,-32607368.46923828,-33011268.615722656,-33069034.576416016,-36130630.49316406,-27444732.666015625,-34086639.404296875,-32746807.098388672,-36822620.3918457
0.025,1342062.8309249878,9847407.341003418,-3605465.1737213135,2183619.499206543,-1891516.5662765503,-3237980.1273345947,-3386224.9851226807,-3563629.8656463623,-2029748.2013702393,-8930072.784423828,-4365303.039550781,-6959408.283233643,-8307210.922241211,-16753194.808959961,-25522895.81298828,-25644210.815429688,-5192547.798156738,-9817407.608032227,-3646482.9444885254,-1938001.5134811401,-1188738.465309143,-13769259.452819824,-16110870.361328125,22547254.56237793,-14962547.302246094,-7464144.706726074,-10319969.177246094,646362.3046875,6668124.198913574,-1776479.1250228882,-21851982.11669922,-16816186.904907227,6573206.901550293,-14356154.441833496,-6971109.867095947,-7341145.038604736,-46835.06116271019,2947541.9521331787,-11849651.336669922,-8838345.527648926,-10022881.507873535,-9759017.944335938,-15267521.858215332,-16020473.48022461,-27712665.557861328,-20920392.990112305,-21580465.31677246,-28538192.749023438,-29630437.85095215,-28080038.07067871,-21730659.48486328,-21127950.66833496,-21494529.724121094,-21749837.87536621,-28676908.493041992,-28988698.959350586,-28991470.336914062,-32040122.985839844,-23008785.247802734,-31107288.360595703,-28681909.561157227,-30448308.94470215
0.03,-12172140.121459961,-4748128.890991211,-14380685.806274414,-3455826.759338379,-7724518.299102783,-7166183.4716796875,-7128285.4080200195,-7460696.220397949,-5136018.753051758,-12383198.738098145,-6616748.332977295,-7176784.515380859,-8584452.629089355,-12521133.422851562,-25021617.889404297,-25510942.459106445,-4637875.556945801,-11108790.397644043,-6472060.680389404,-6073612.213134766,-434941.1427974701,-12401066.780090332,-11783008.575439453,28875230.78918457,-10712389.945983887,-3583440.7806396484,-7657726.287841797,61169.106513261795,4506488.800048828,-3920046.091079712,-20140583.038330078,-12402931.213378906,13445791.244506836,-9185671.80633545,98632.10469484329,-5624538.421630859,77904.50006723404,-2084608.0780029297,-11758497.23815918,-4186873.435974121,-5086112.022399902,-277041.2862300873,-6663964.27154541,-7226710.319519043,-23439140.31982422,-17675991.05834961,-20145982.74230957,-22280418.395996094,-23273986.81640625,-21810791.015625,-12882603.645324707,-12202695.846557617,-12582822.799682617,-18563434.600830078,-22446292.877197266,-22638526.916503906,-22618247.985839844,-24177570.343017578,-14255144.119262695,-23845548.629760742,-22240419.387817383,-21825141.90673828
0.035,-25256219.8638916,-19143976.21154785,-25445917.1295166,-11053544.044494629,-14381133.079528809,-11705182.075500488,-11569918.632507324,-11793458.938598633,-9741232.872009277,-15630214.69116211,-8409087.181091309,-7202384.948730469,-8571493.148803711,-9183204.650878906,-25263914.108276367,-24503498.077392578,-4586437.225341797,-11301781.65435791,-9136424.06463623,-8034099.578857422,386163.204908371,-10536297.798156738,-8297971.725463867,29615228.6529541,-9412542.343139648,816006.0048103333,-4521703.243255615,-76902.14365720749,741864.4428253174,-5284553.050994873,-17498929.977416992,-8986638.069152832,18186603.546142578,-4377655.506134033,1344721.9133377075,-4482230.663299561,83740.7186627388,-6750290.393829346,-10386892.318725586,-1527130.9614181519,-2163728.713989258,6391753.673553467,48037.562519311905,-312103.9867401123,-17603450.775146484,-12776033.401489258,-17354227.06604004,-16477067.947387695,-17530050.27770996,-16162357.330322266,-5330767.631530762,-4513381.481170654,-4715430.736541748,-13657931.327819824,-16651529.312133789,-16771688.461303711,-16830381.393432617,-15831241.607666016,-6549646.854400635,-17308696.746826172,-16374929.428100586,-13157956.12335205
0.04,-43608150.482177734,-37295444.48852539,-41533294.677734375,-21505781.173706055,-23158027.64892578,-18126207.35168457,-17956495.28503418,-17948299.407958984,-15483992.576599121,-18227785.110473633,-10534428.596496582,-10198431.968688965,-11496341.705322266,-10578922.271728516,-28574443.817138672,-28072521.209716797,-7384479.522705078,-12854701.042175293,-10405049.324035645,-6117658.1382751465,-318113.5654449463,-11341950.416564941,-9512139.320373535,24667530.059814453,-14269235.610961914,-157739.47536945343,-4192363.2621765137,-255497.2469806671,-286370.06878852844,-5105077.743530273,-17718141.555786133,-10372458.457946777,18100831.985473633,-4951566.696166992,-4186011.31439209,-5141038.89465332,36707.58754014969,-7494103.908538818,-8908350.944519043,-1645500.5407333374,-2232814.7888183594,6582610.607147217,-656103.6705970764,-1102229.9528121948,-15338898.658752441,-11021664.6194458,-15777059.555053711,-15592750.549316406,-16613975.524902344,-15424757.00378418,-4077567.5773620605,-3201405.7636260986,-3375220.29876709,-11894368.171691895,-15582585.334777832,-15836451.530456543,-15942827.224731445,-12592569.351196289,-5150775.909423828,-19361242.294311523,-15505949.020385742,-8069557.189941406
0.045,-63345699.310302734,-55376422.88208008,-58625335.693359375,-31649789.810180664,-32326896.66748047,-24251644.134521484,-24019638.061523438,-23913885.11657715,-20942693.71032715,-20475103.3782959,-13867204.666137695,-15924674.987792969,-17230512.619018555,-15754553.79486084,-32973251.342773438,-34589874.267578125,-11030446.05255127,-15923531.532287598,-10527465.8203125,-3182600.0213623047,-3161564.350128174,-15554580.688476562,-14658393.859863281,20164806.365966797,-19349809.646606445,-4600228.786468506,-6137528.896331787,-862699.7470855713,3033953.1898498535,-5294091.701507568,-21497268.676757812,-15579250.33569336,15796146.392822266,-8798956.871032715,-8267922.401428223,-6031803.131103516,3247.6079650223255,-4165494.441986084,-10166714.668273926,-4103897.0947265625,-4839400.291442871,3401559.1144561768,-5148592.472076416,-5914450.645446777,-15431491.85180664,-12518134.117126465,-16325292.587280273,-20098758.697509766,-20899538.040161133,-19888938.903808594,-7469867.706298828,-6647777.080535889,-7105217.456817627,-13512881.2789917,-19778041.83959961,-20329277.03857422,-20289207.458496094,-15146533.966064453,-8623396.873474121,-27498588.56201172,-19987512.588500977,-7990276.336669922
0.05,-74904701.23291016,-66815361.02294922,-68931144.71435547,-38064239.501953125,-39462711.334228516,-27517509.46044922,-27173824.310302734,-27118787.76550293,-24860311.50817871,-22648160.934448242,-18298662.185668945,-21456604.00390625,-22806598.663330078,-20784717.559814453,-34277683.25805664,-37358108.52050781,-11780555.725097656,-17463287.353515625,-10629479.40826416,-3536260.8432769775,-7263431.549072266,-20386318.20678711,-19900178.909301758,19080692.291259766,-17629480.361938477,-5934533.596038818,-7270530.223846436,-1621553.897857666,7488031.86416626,-7762907.028198242,-25027856.826782227,-20702287.673950195,14559669.494628906,-9482142.448425293,-4596452.236175537,-4429690.361022949,-73832.51190185547,-674995.1243400574,-14364854.81262207,-7691301.8226623535,-8569125.175476074,2383889.4367218018,-5071269.512176514,-5963345.527648926,-11471633.911132812,-12128406.524658203,-16307390.213012695,-24469032.287597656,-25135730.743408203,-24101718.90258789,-8742453.575134277,-7987364.292144775,-8674834.251403809,-13248798.370361328,-24004995.346069336,-24747451.782226562,-24429698.944091797,-17472875.595092773,-9763374.328613281,-29954599.380493164,-24258506.774902344,-9900432.586669922
0.055,-77175979.61425781,-72828926.08642578,-72766273.49853516,-41868728.63769531,-45417968.75,-29637174.606323242,-29222179.412841797,-29173198.699951172,-28325578.689575195,-26159099.578857422,-23822036.743164062,-25983570.098876953,-27309530.25817871,-24118999.481201172,-33347034.454345703,-36318290.71044922,-11334657.669067383,-17900142.669677734,-13069459.915161133,-9094368.934631348,-11796600.341796875,-23672618.865966797,-23415864.944458008,18195713.04321289,-12691490.173339844,-4451456.069946289,-8012251.853942871,-3093953.6094665527,8759529.113769531,-12039613.723754883,-26174333.572387695,-24124748.22998047,13954344.749450684,-6763255.1193237305,1177497.9829788208,-731809.0200424194,-243998.82555007935,-1329586.8635177612,-18471244.81201172,-11068222.045898438,-11957962.989807129,4085193.634033203,311912.1491909027,-320731.9378852844,-2607561.5882873535,-7276811.122894287,-13061188.697814941,-23572940.826416016,-24406929.01611328,-23141336.44104004,-5104469.299316406,-4312701.70211792,-4741113.185882568,-8285873.4130859375,-23243219.37561035,-23905473.709106445,-23442722.32055664,-14694641.11328125,-4648051.2619018555,-22307237.62512207,-23250190.73486328,-10013943.672180176
0.06,-78214256.2866211,-79782104.4921875,-76798049.92675781,-46461353.30200195,-52209434.509277344,-33988803.86352539,-33614387.51220703,-33444637.298583984,-33296409.606933594,-32416294.09790039,-30380414.962768555,-31054397.583007812,-32276592.254638672,-27305019.37866211,-35161357.87963867,-38174964.904785156,-14837218.284606934,-21558809.280395508,-19401687.622070312,-17804702.758789062,-15928446.769714355,-26280899.047851562,-26461223.602294922,13999205.589294434,-14092492.10357666,-6565110.683441162,-11714532.852172852,-6377447.128295898,5771044.731140137,-15690386.772155762,-27198194.50378418,-27245035.17150879,11026662.826538086,-7365417.003631592,-647202.0149230957,1463698.7447738647,-381896.9130516052,-6021344.6617126465,-20186347.96142578,-13669031.143188477,-14517665.86303711,3760287.5232696533,2726015.567779541,2443906.307220459,3325160.9802246094,-2313530.206680298,-8261260.032653809,-19478075.02746582,-20558788.299560547,-19137981.414794922,-1752751.9464492798,-815005.3024291992,-633213.6392593384,-3016648.769378662,-19343872.0703125,-19802495.9564209,-19489051.818847656,-9993074.417114258,1597416.1624908447,-14363561.630249023,-19140878.677368164,-8969714.164733887
0.065,-82185150.14648438,-88107589.72167969,-82604179.38232422,-51784301.7578125,-58448795.318603516,-39486724.853515625,-39192382.8125,-38927604.67529297,-39051559.44824219,-39681941.986083984,-36219768.52416992,-36339263.916015625,-37422058.10546875,-31018032.07397461,-40472820.28198242,-44342407.2265625,-21726739.88342285,-28719100.952148438,-27007068.634033203,-25057741.165161133,-17736660.00366211,-29257371.90246582,-29889682.76977539,8040656.089782715,-22401775.360107422,-12836424.827575684,-17799465.17944336,-10608181.953430176,1077616.6915893555,-16523406.982421875,-29803684.23461914,-30726696.014404297,5226276.397705078,-13951603.889465332,-9236515.998840332,210284.62052345276,-297565.60921669006,-10414111.137390137,-20257827.758789062,-15600957.870483398,-16458164.21508789,-1488707.3040008545,-2717649.6982574463,-2873451.2329101562,368001.7590522766,-2750409.1262817383,-6377644.5388793945,-18513523.10180664,-19560012.817382812,-18293525.69580078,-4539260.387420654,-3472770.2140808105,-2909070.4917907715,-3245623.826980591,-18414747.23815918,-18787973.403930664,-18772037.506103516,-10457285.88104248,718352.4370193481,-16421487.808227539,-18319999.69482422,-10599469.184875488
0.07,-85301467.89550781,-92562156.6772461,-86123374.93896484,-54737468.71948242,-61141593.93310547,-41792900.08544922,-41498245.23925781,-41327682.49511719,-42685218.811035156,-43822456.35986328,-38698528.28979492,-39134696.96044922,-40073284.14916992,-33538612.365722656,-44255805.96923828,-48177742.00439453,-25490736.00769043,-33783267.974853516,-30616138.458251953,-27274265.28930664,-15884058.952331543,-31074956.8939209,-32405765.533447266,5013577.938079834,-27942348.48022461,-16163200.378417969,-21078840.255737305,-12980657.577514648,-1725302.6962280273,-14293151.85546875,-31788223.266601562,-33070781.707763672,590609.9081039429,-19923324.584960938,-14808707.237243652,-2222347.4979400635,-2359.198173508048,-11467251.777648926,-19817878.72314453,-16130464.553833008,-17010597.229003906,-7977179.527282715,-9845128.059387207,-10057205.200195312,-6894925.594329834,-7652367.59185791,-8708845.138549805,-21741687.774658203,-22494029.998779297,-21546361.923217773,-11096232.414245605,-10044493.675231934,-9602858.543395996,-8158285.140991211,-21557355.880737305,-21996446.60949707,-22130556.106567383,-16833038.330078125,-7548447.608947754,-25361583.709716797,-21740411.75842285,-14939723.96850586
0.075,-85583892.82226562,-92459220.88623047,-87162834.16748047,-54696960.44921875,-60955379.486083984,-40335563.65966797,-39987964.63012695,-40036685.943603516,-43260116.57714844,-43238964.08081055,-37494632.720947266,-38554260.25390625,-39426074.98168945,-33362808.227539062,-43509773.25439453,-46184001.92260742,-23847063.064575195,-33755146.02661133,-28510740.280151367,-24790344.23828125,-12313532.829284668,-29566535.94970703,-32514503.479003906,6867188.453674316,-25314342.498779297,-13617355.346679688,-19494571.685791016,-12335663.795471191,-637785.3751182556,-10604198.455810547,-30622701.64489746,-32993206.024169922,1579761.9819641113,-18518119.81201172,-13175192.832946777,-2827895.8797454834,273010.0452899933,-10482274.055480957,-17498662.9486084,-13161108.97064209,-13994186.401367188,-9496316.909790039,-9793488.502502441,-10090633.392333984,-9378326.416015625,-10482885.360717773,-10939966.201782227,-22166114.807128906,-22735206.604003906,-21911680.221557617,-12928081.512451172,-11994939.804077148,-11852875.709533691,-11034622.192382812,-21948213.577270508,-22462856.29272461,-22479709.62524414,-20965347.290039062,-13517131.805419922,-29887548.446655273,-22198913.57421875,-15714086.532592773
0.08,-86444953.91845703,-92235832.21435547,-89314086.9140625,-53997543.33496094,-60784408.56933594,-38865661.62109375,-38569664.001464844,-38744873.046875,-42461551.666259766,-40426868.4387207,-34905452.728271484,-36514759.0637207,-37527420.04394531,-30814725.875854492,-40783245.08666992,-42959686.279296875,-21975334.16748047,-32312583.923339844,-24568201.065063477,-21020156.860351562,-10431194.305419922,-25066970.825195312,-30103271.484375,10725232.124328613,-20080101.013183594,-10813074.111938477,-17215295.791625977,-10759977.340698242,3476919.8894500732,-7397056.579589844,-27020187.377929688,-30762294.76928711,7589667.797088623,-11828004.837036133,-9473141.67022705,-1682483.434677124,354839.35475349426,-9576023.10180664,-11733281.135559082,-5839239.120483398,-6573512.554168701,-4358744.6212768555,-2494282.2456359863,-2936710.5960845947,-4850679.874420166,-6823817.253112793,-8297109.603881836,-13703349.113464355,-14421604.15649414,-13396182.0602417,-5831958.293914795,-4936922.550201416,-4864656.925201416,-7285142.89855957,-13571306.228637695,-14099465.370178223,-13890620.231628418,-15014937.400817871,-8287349.700927734,-24964935.302734375,-13591373.443603516,-7659014.2250061035
0.085,-87327278.13720703,-91116294.86083984,-89809211.73095703,-52465145.111083984,-59498329.162597656,-38274044.036865234,-38174331.66503906,-38281478.88183594,-40601631.16455078,-37584190.368652344,-32290271.759033203,-33870677.94799805,-35188060.76049805,-26943674.087524414,-38202709.19799805,-41510169.982910156,-22714523.315429688,-32125236.51123047,-22511449.813842773,-18572214.126586914,-10190949.440002441,-20032020.568847656,-26027288.43688965,12521480.560302734,-17854982.376098633,-10921566.009521484,-17319446.563720703,-10235638.618469238,7734238.147735596,-5489540.100097656,-22921192.169189453,-27136344.90966797,13287729.263305664,-6625410.079956055,-6805845.260620117,-439271.7182636261,314667.61231422424,-8045799.255371094,-4987246.990203857,2483787.5366210938,1807687.6401901245,3052474.021911621,4697439.670562744,4010653.9726257324,1185558.9151382446,748881.5784454346,-2117033.7200164795,-651256.0248374939,-1667571.6638565063,-352579.0572166443,4642408.847808838,5659421.443939209,5855685.710906982,467893.5408592224,-642150.9981155396,-1184513.6880874634,-866360.9027862549,-1579933.1665039062,5149523.2582092285,-15468828.201293945,-457350.07524490356,4814237.594604492
0.09,-81125587.4633789,-82624771.11816406,-80782447.8149414,-46774421.69189453,-53080314.63623047,-34831821.44165039,-34886177.06298828,-34838050.842285156,-35599834.44213867,-33640415.19165039,-28608455.657958984,-29467433.92944336,-30947689.056396484,-23386915.20690918,-34216850.28076172,-37777709.9609375,-21108093.26171875,-29336690.90270996,-20952266.693115234,-16816434.860229492,-8004123.687744141,-16590204.238891602,-22279827.117919922,10924661.636352539,-15950255.393981934,-8735092.163085938,-16646636.962890625,-9645855.903625488,9999069.213867188,-4502745.151519775,-18952770.233154297,-23530437.469482422,14073934.555053711,-5529972.076416016,-1483252.2869110107,924825.90675354,310614.4368648529,-4707145.690917969,-2472656.9652557373,5823752.880096436,5128819.942474365,6486098.289489746,6605089.6644592285,5772418.49899292,3892367.124557495,5774862.289428711,1343660.3546142578,5471349.239349365,4334221.839904785,5712599.754333496,8801311.492919922,9913033.485412598,10165375.709533691,5677423.95401001,5449682.712554932,4856839.656829834,5120753.288269043,7516387.939453125,13909124.374389648,-8411937.713623047,5519050.121307373,9940980.911254883
0.095,-67276710.5102539,-68091934.20410156,-64273155.212402344,-37670970.91674805,-43196945.19042969,-28186771.392822266,-28167192.459106445,-28000871.658325195,-27901094.436645508,-27739904.403686523,-23718008.041381836,-24297943.115234375,-25558815.002441406,-22997634.887695312,-29466615.676879883,-30366743.087768555,-13945158.004760742,-20846149.444580078,-16888740.53955078,-13666296.005249023,-2554311.752319336,-15557394.981384277,-22065906.524658203,6988658.905029297,-11507914.543151855,-1476964.1160964966,-12041824.340820312,-7042794.227600098,10718699.45526123,-3816955.804824829,-15719567.29888916,-22866363.525390625,9694961.547851562,-6957841.396331787,6758270.740509033,3286310.911178589,339241.4152622223,-1504840.9700393677,-5646101.474761963,1618027.0910263062,865186.0952377319,2637621.1643218994,3861881.2561035156,3194423.4371185303,3570360.8989715576,4644352.912902832,-817067.7423477173,-979555.7856559753,-1966113.3289337158,-805358.7675094604,2570680.856704712,3511571.168899536,3771879.6730041504,4738814.353942871,-886447.3700523376,-1497300.5056381226,-1324600.5773544312,3272106.170654297,8857571.601867676,-6962715.148925781,-1137556.9105148315,1211369.6336746216
0.1,-58371585.845947266,-60648303.9855957,-55184322.357177734,-32743488.311767578,-38404815.673828125,-25142448.42529297,-24892189.025878906,-24623573.303222656,-23020814.895629883,-22965570.4498291,-20576297.760009766,-22449504.852294922,-23294576.64489746,-27285440.44494629,-29620279.31213379,-27028903.96118164,-7969055.652618408,-12152399.063110352,-11888799.667358398,-9001647.94921875,2298288.345336914,-16681030.2734375,-26713260.650634766,1927854.4187545776,-9784046.173095703,3155539.9894714355,-7209553.7185668945,-3492274.284362793,11325496.673583984,-3101227.7603149414,-14698246.002197266,-26927785.873413086,3141230.821609497,-10155130.386352539,9609204.292297363,5590911.388397217,261558.35390090942,-1396173.357963562,-9596606.254577637,-5614480.972290039,-6428413.391113281,-6382615.089416504,-676626.0862350464,-991787.0163917542,2337183.713912964,-326213.5982513428,-4014561.653137207,-12767461.776733398,-13523851.39465332,-12647907.257080078,-8668665.885925293,-8093387.603759766,-7621989.727020264,-94860.22591590881,-12527046.203613281,-13079700.469970703,-12920081.13861084,-10635066.032409668,-5382899.284362793,-10526175.498962402,-12953820.22857666,-14392642.974853516
0.105,-64052101.135253906,-67970962.52441406,-61663669.58618164,-36968376.15966797,-42856899.26147461,-30258020.401000977,-29854141.235351562,-29457529.067993164,-25341815.948486328,-22957117.080688477,-21581001.28173828,-25098169.326782227,-25748565.673828125,-32449512.481689453,-36816696.16699219,-33156383.514404297,-10852303.504943848,-11102025.032043457,-10632708.549499512,-5170725.8224487305,2729380.6076049805,-18269872.665405273,-31990324.020385742,-2953849.7924804688,-15896171.569824219,-1845009.5653533936,-7668438.43460083,-2090891.1228179932,11650037.76550293,-1955819.4875717163,-15315722.465515137,-32094230.65185547,-2000492.5727844238,-14719407.081604004,2335128.06892395,5783897.399902344,31559.959053993225,-3591571.569442749,-8861233.711242676,-8356724.739074707,-9216157.913208008,-13991284.370422363,-4334835.529327393,-4436950.68359375,914419.7106361389,-4161841.869354248,-2619829.4162750244,-17917928.69567871,-18581653.594970703,-17841894.149780273,-15390051.84173584,-15031433.10546875,-14165488.243103027,-4013019.561767578,-17702087.40234375,-18203140.258789062,-17975955.963134766,-21370676.040649414,-15538164.138793945,-15580526.351928711,-18021869.659423828,-23353992.462158203
0.11,-74401138.30566406,-78193244.93408203,-70735343.93310547,-43627773.28491211,-48550701.14135742,-36786495.208740234,-36383922.5769043,-35975475.3112793,-31041948.318481445,-25849607.467651367,-24188034.057617188,-26878305.435180664,-27648626.32751465,-31504198.07434082,-42748218.53637695,-40110622.40600586,-18269889.83154297,-16325279.235839844,-13653920.17364502,-4075701.7135620117,662756.5622329712,-17556743.621826172,-30842527.389526367,-5136584.281921387,-23656816.482543945,-9927374.839782715,-11685838.69934082,-3570435.7624053955,10578863.143920898,209286.58545017242,-13823613.166809082,-31288885.11657715,-3136186.361312866,-17232170.10498047,-6169825.553894043,4167014.5988464355,-221724.733710289,-4311059.474945068,-4156406.4025878906,-3966558.6948394775,-4821318.14956665,-14269754.409790039,-4545691.967010498,-4661914.348602295,-365758.6872577667,-4612250.804901123,1836281.7764282227,-13099386.215209961,-13791621.208190918,-13044742.584228516,-13106541.633605957,-12645686.149597168,-11598298.072814941,-4721592.903137207,-13108242.03491211,-13656600.952148438,-13332221.984863281,-20260919.57092285,-13958098.411560059,-16774440.76538086,-13220029.830932617,-20033744.81201172
0.115,-70587203.97949219,-72768424.98779297,-63263442.99316406,-40937500.0,-44475635.52856445,-33781513.21411133,-33389019.012451172,-33284603.118896484,-31661888.122558594,-25717065.811157227,-23503801.345825195,-22225959.77783203,-23072231.29272461,-22568603.515625,-37293987.27416992,-35111248.01635742,-18930915.83251953,-18943826.67541504,-15902750.015258789,-5100496.768951416,1039161.5629196167,-13452530.860900879,-21736265.182495117,-2685327.2914886475,-22371778.48815918,-9266763.687133789,-12530408.85925293,-5371994.495391846,8631522.178649902,3263295.4120635986,-8122880.935668945,-22411621.09375,-373820.9307193756,-14307427.406311035,-4110613.8229370117,3170702.9342651367,-352519.03533935547,-1992436.408996582,-1040378.4513473511,2532445.192337036,1768946.647644043,-8131218.910217285,-958444.7145462036,-1088839.4117355347,-452291.45884513855,-3296910.7627868652,3030245.542526245,-6068490.028381348,-6698715.686798096,-5977777.004241943,-6550257.205963135,-5912101.268768311,-5128228.187561035,-3464959.6214294434,-6251379.489898682,-6871683.597564697,-6468786.716461182,-11001589.77508545,-5530468.940734863,-11277960.777282715,-6255414.962768555,-11666188.24005127
0.12,-50154460.90698242,-50364181.51855469,-38843044.28100586,-27312026.977539062,-31010255.813598633,-20991910.934448242,-20513433.4564209,-20935861.587524414,-24820226.669311523,-20678922.653198242,-18961437.225341797,-13339522.361755371,-13917848.587036133,-12431052.207946777,-22517711.639404297,-20001167.29736328,-11063396.453857422,-15321671.485900879,-13856603.622436523,-6411874.771118164,4654645.919799805,-8566679.954528809,-11743585.586547852,2145950.0789642334,-12835644.721984863,-689080.3575515747,-8861976.623535156,-5419363.975524902,7575166.702270508,5829535.961151123,-1797309.398651123,-12184309.959411621,2433191.2994384766,-8696495.056152344,6619967.937469482,3684177.6371002197,-337274.7004032135,1337106.466293335,-2707949.39994812,3925137.0429992676,3328030.586242676,-3059217.929840088,2553545.2365875244,2570106.5063476562,969551.9208908081,-2138735.53276062,-365411.01336479187,-5277413.845062256,-5646312.236785889,-5091826.438903809,-4192430.019378662,-3628395.7958221436,-3204232.2158813477,-1908446.0735321045,-5370597.362518311,-5903737.0681762695,-5511233.806610107,-3958047.389984131,-187348.24657440186,-2601883.64982605,-5353046.894073486,-8773806.57196045
0.125,-30802154.541015625,-28794809.341430664,-16171882.629394531,-14237734.7946167,-19652273.178100586,-10167998.313903809,-9617827.415466309,-10376327.514648438,-17459646.224975586,-16082574.844360352,-15487029.075622559,-7896626.4724731445,-8043663.97857666,-9422562.599182129,-11546598.434448242,-9965996.742248535,-4846690.1779174805,-11449863.43383789,-10606009.483337402,-7506578.9222717285,7047813.415527344,-6957189.559936523,-9097235.679626465,3596812.963485718,-7187949.657440186,3344077.5871276855,-6520377.159118652,-4701827.526092529,7138744.831085205,6292108.535766602,-236612.82658576965,-9084885.597229004,609735.3100776672,-7172390.937805176,13529998.779296875,4066135.883331299,-251998.36492538452,3740881.2046051025,-6850675.582885742,-1831908.4644317627,-2254566.192626953,-4855927.467346191,1729241.132736206,1914394.9747085571,2552939.4149780273,-800758.7194442749,-2367209.1960906982,-10581255.912780762,-10667753.219604492,-10328761.100769043,-8855750.08392334,-8584617.614746094,-8062998.7716674805,4059.2551231384277,-10469071.388244629,-10724162.101745605,-10500548.362731934,-4537805.080413818,-1725083.589553833,2722008.228302002,-10411293.983459473,-13636537.551879883
0.13,-27550924.30114746,-23218521.118164062,-9895255.088806152,-12241552.352905273,-18741397.857666016,-10404376.029968262,-9934796.333312988,-10552005.767822266,-16778610.229492188,-17469572.067260742,-17055028.915405273,-9432091.71295166,-9385363.578796387,-14344170.570373535,-12837142.944335938,-13014336.585998535,-7121590.614318848,-13078602.79083252,-11161043.167114258,-9331974.983215332,4810319.900512695,-9715621.948242188,-14281479.835510254,-1425195.336341858,-12031819.343566895,-2559170.2461242676,-9108872.413635254,-5127034.1873168945,4826044.082641602,4393996.715545654,-3723074.9130249023,-14052932.739257812,-5958945.751190186,-11510917.663574219,11291456.22253418,3280770.0634002686,-191561.758518219,5317680.835723877,-9767295.837402344,-10331725.120544434,-10656296.730041504,-11070178.031921387,-2247061.4910125732,-2080892.80128479,3044645.309448242,1514572.8588104248,1359596.1332321167,-15789175.987243652,-15816188.81225586,-15599761.962890625,-15340030.670166016,-15259203.910827637,-14135187.149047852,2568210.3633880615,-15654262.54272461,-15665941.23840332,-15704957.962036133,-9494482.99407959,-6229822.635650635,2499859.8098754883,-15560666.08428955,-20239027.02331543
0.135,-36203311.920166016,-30973230.361938477,-16601772.30834961,-19035301.208496094,-24898614.88342285,-17784631.729125977,-17479623.794555664,-17657611.846923828,-21303670.88317871,-22845108.032226562,-21535223.00720215,-13893576.622009277,-13982208.251953125,-20840131.759643555,-21122219.08569336,-20294645.309448242,-12162155.151367188,-17436830.520629883,-15063259.12475586,-12165679.931640625,-86466.11869335175,-14004958.152770996,-20756656.646728516,-8904618.263244629,-20100427.627563477,-9336738.586425781,-12635033.60748291,-6449598.789215088,171191.79666042328,1411611.9146347046,-7479820.251464844,-20695722.579956055,-11824436.18774414,-15927651.405334473,7193438.529968262,2546729.564666748,-219289.3773317337,5761362.552642822,-10909565.925598145,-15786094.665527344,-16146814.346313477,-14628398.895263672,-4164547.4433898926,-4173690.3190612793,2784036.39793396,3514837.0265960693,6544358.730316162,-17309106.826782227,-17472734.451293945,-17283111.572265625,-17452764.5111084,-17277252.197265625,-15626281.73828125,4409772.872924805,-17319335.9375,-17361000.061035156,-17524473.190307617,-13159647.941589355,-9167783.737182617,237897.3811864853,-17300102.23388672,-22824205.39855957
0.14,-43707901.00097656,-40082435.607910156,-24870115.280151367,-24913156.509399414,-29892448.42529297,-22503549.575805664,-22268039.70336914,-22096570.96862793,-24104923.248291016,-25228229.522705078,-23761537.551879883,-16025192.260742188,-16313409.805297852,-23239004.135131836,-26060394.287109375,-20340604.782104492,-11779243.469238281,-18477451.32446289,-17259279.251098633,-14645328.521728516,-3436850.070953369,-16522169.11315918,-22970046.997070312,-11646425.247192383,-21886571.884155273,-7929416.656494141,-12250519.752502441,-6803757.667541504,-3162184.953689575,-1100559.4730377197,-8018111.228942871,-23236749.64904785,-11894157.409667969,-15177783.966064453,8163140.296936035,2859824.8958587646,-309265.22612571716,3358055.353164673,-11877797.12677002,-16002662.658691406,-16511930.465698242,-12714728.355407715,-2201605.796813965,-2325897.455215454,2687318.5634613037,3256280.4222106934,6097153.663635254,-16769891.738891602,-17029714.584350586,-16849407.196044922,-14998859.405517578,-14579387.664794922,-13034447.66998291,3929956.4361572266,-16802936.553955078,-17107814.78881836,-17083915.71044922,-13704304.695129395,-10021248.817443848,-827106.4162254333,-16949583.053588867,-21093852.996826172
0.145,-46508586.88354492,-45303775.787353516,-30502063.751220703,-25841377.25830078,-31143035.888671875,-21663949.966430664,-21369859.69543457,-21070703.506469727,-22600463.8671875,-21804460.525512695,-22035585.403442383,-15417919.158935547,-15773661.613464355,-21268882.751464844,-24932268.142700195,-14763307.571411133,-7493926.525115967,-16258714.67590332,-15412340.16418457,-15308320.999145508,-3913358.688354492,-16535736.083984375,-20907880.783081055,-7157961.845397949,-18309734.344482422,-2192923.7842559814,-9606036.186218262,-5551981.9259643555,-1595215.4397964478,-2432906.8660736084,-6377916.8128967285,-21376361.846923828,-6788910.865783691,-11101418.495178223,11038438.79699707,3251496.0765838623,-307595.25299072266,-2155150.6519317627,-12783674.240112305,-12517473.220825195,-13158330.917358398,-8707502.365112305,152678.92181873322,74339.27059173584,2784433.364868164,1290004.849433899,61303.477734327316,-16128992.080688477,-16378162.384033203,-16151798.248291016,-11838871.955871582,-11246719.360351562,-10363086.700439453,1863028.5263061523,-15988084.79309082,-16525625.228881836,-16142068.862915039,-12396647.453308105,-9681376.457214355,-1778283.2384109497,-16225240.707397461,-17265998.84033203
0.15,-50798618.31665039,-50223564.14794922,-36822685.24169922,-26056411.743164062,-32085323.333740234,-20427568.435668945,-20077880.859375,-19730669.021606445,-20982002.25830078,-17095119.47631836,-19337467.193603516,-14717943.19152832,-15111854.553222656,-17669914.24560547,-22965234.756469727,-13469794.273376465,-6522681.713104248,-16209859.848022461,-12673978.805541992,-14308820.724487305,-3115525.007247925,-15220695.495605469,-17375202.178955078,539011.5976333618,-16733818.054199219,-1572406.530380249,-9535038.948059082,-4091794.013977051,3728698.73046875,-2718784.5706939697,-4918568.6111450195,-17839485.16845703,-748383.8796615601,-8660920.143127441,9429679.870605469,2995237.5888824463,-55560.46590209007,-8038242.340087891,-11863107.681274414,-7541962.146759033,-8153572.082519531,-5896210.193634033,314567.6255226135,321149.88565444946,2544919.729232788,243209.0789079666,-4734353.065490723,-14179969.787597656,-14487371.444702148,-14044953.346252441,-9368002.891540527,-8750309.944152832,-8508315.086364746,653482.6159477234,-13927573.204040527,-14512656.211853027,-13948148.727416992,-9885261.535644531,-7154093.7423706055,-4726338.863372803,-14078701.972961426,-11915441.513061523
0.155,-59343006.1340332,-57858127.59399414,-45541294.09790039,-29285461.42578125,-35098140.716552734,-22666601.181030273,-22328502.655029297,-21944807.052612305,-22917840.9576416,-16360195.15991211,-18631479.263305664,-14836938.858032227,-15405017.852783203,-14372772.216796875,-24014959.33532715,-19157325.744628906,-9941886.901855469,-20512521.743774414,-12431376.457214355,-12841897.010803223,-2194954.1568756104,-13531752.586364746,-14076307.29675293,6773056.507110596,-19201354.98046875,-6733976.8409729,-12367530.822753906,-3785566.568374634,8641967.7734375,-2284916.400909424,-4003959.1789245605,-14474122.047424316,4027329.444885254,-8585424.423217773,3842148.3039855957,3445414.5431518555,390057.17635154724,-11405870.43762207,-8347331.0470581055,-2101643.8007354736,-2535466.432571411,-3199749.708175659,524677.8130531311,510636.68727874756,1937650.3229141235,1289225.697517395,-4085831.1653137207,-9207364.082336426,-9704854.011535645,-8934032.440185547,-5405737.400054932,-4860963.821411133,-4849885.940551758,1374384.4032287598,-9038700.103759766,-9598350.524902344,-9186985.969543457,-5719635.009765625,-1281431.3173294067,-8347531.318664551,-9032670.021057129,-4530499.9351501465
0.16,-67062683.10546875,-65784255.98144531,-53822170.25756836,-33239234.924316406,-38454002.380371094,-25960391.998291016,-25609510.42175293,-25295507.431030273,-26070568.084716797,-19012826.919555664,-19465192.794799805,-14654952.049255371,-15481080.055236816,-12055002.212524414,-26084867.477416992,-24512153.62548828,-12085638.999938965,-25037130.35583496,-13638112.06817627,-11517026.901245117,-1053416.7289733887,-11879802.703857422,-11493944.16809082,11110307.693481445,-21086399.07836914,-9723740.577697754,-14002378.463745117,-4223724.365234375,10779343.605041504,-1306303.5011291504,-3070564.5084381104,-11953997.611999512,8218214.03503418,-7629383.087158203,-299709.85651016235,5648734.569549561,742178.4996986389,-12170749.66430664,-4149409.770965576,3029610.1570129395,2742694.37789917,1285491.3473129272,3316221.7140197754,3189423.3226776123,1393457.293510437,2712777.614593506,-1168202.519416809,-2923217.296600342,-3539053.440093994,-2565580.368041992,690007.1501731873,1139650.2256393433,1157459.3782424927,2571585.6552124023,-2806109.666824341,-3422243.83354187,-3272550.582885742,-711922.1687316895,5782341.003417969,-9578840.255737305,-2748643.636703491,3526564.598083496
0.165,-70031684.87548828,-70788108.8256836,-59370803.83300781,-34463382.720947266,-40212570.19042969,-26811065.673828125,-26351209.64050293,-26196779.251098633,-26232999.801635742,-20763212.203979492,-19959403.99169922,-14120559.692382812,-15114947.319030762,-11399906.158447266,-26329362.869262695,-24096843.719482422,-10469750.40435791,-25648891.44897461,-13490832.328796387,-10257486.343383789,-510974.8840332031,-11059232.711791992,-10485979.080200195,15056850.43334961,-19789424.896240234,-6156930.923461914,-12591688.15612793,-4098886.013031006,10278361.320495605,13836.262747645378,-2856600.284576416,-11181615.829467773,11696343.421936035,-4715829.372406006,-1132625.2222061157,7813477.039337158,779476.2849807739,-12145287.51373291,-2208211.898803711,6115392.684936523,5808847.427368164,5610724.449157715,6545033.931732178,6303262.233734131,1174967.646598816,2308202.028274536,-1019959.6881866455,466740.220785141,-77644.58656311035,882534.0867042542,5398265.838623047,5819621.562957764,5679040.908813477,2260997.772216797,742652.177810669,39623.476564884186,119373.1427192688,2272566.080093384,9308649.063110352,-8804923.057556152,703577.6376724243,8958672.523498535
0.17,-71167434.69238281,-73128005.98144531,-62935916.900634766,-33956367.49267578,-41264690.39916992,-26297588.348388672,-25720031.73828125,-25618883.13293457,-23933513.641357422,-20091447.830200195,-20096548.080444336,-14714387.893676758,-15742181.777954102,-12882358.55102539,-25945648.193359375,-21563762.664794922,-9393785.47668457,-23787643.432617188,-12328512.191772461,-9381216.049194336,-2426445.960998535,-11875325.202941895,-11884223.937988281,17416738.510131836,-18651462.55493164,-522826.3735771179,-10892639.16015625,-3238980.770111084,7232203.960418701,1130254.9839019775,-4595286.3693237305,-12850951.194763184,12193150.520324707,-3056147.336959839,-1426577.8064727783,7578781.1279296875,578659.176826477,-12630994.79675293,-3711674.451828003,5344005.107879639,4918865.203857422,5693391.3230896,6215355.87310791,5863402.843475342,1275947.8092193604,-96663.96677494049,-3769413.2328033447,-1388259.0532302856,-1879145.5030441284,-945636.4512443542,4977846.145629883,5491589.546203613,4979210.376739502,56541.27523303032,-960493.8626289368,-1612575.4117965698,-1417805.4332733154,589473.4263420105,6593354.225158691,-10018836.975097656,-1139502.6445388794,9332774.16229248
0.175,-74154174.8046875,-74349121.09375,-65024238.58642578,-34708148.95629883,-42987804.4128418,-27502786.63635254,-26930053.7109375,-26737657.54699707,-23318298.33984375,-19426809.310913086,-21176069.259643555,-16647647.857666016,-17670820.236206055,-15504368.782043457,-27420690.536499023,-22434272.76611328,-12211301.803588867,-23648412.704467773,-12762723.922729492,-9478936.195373535,-6480906.963348389,-13563279.151916504,-14725257.873535156,15569244.384765625,-20973394.3939209,1169672.8467941284,-11456571.578979492,-2907455.9211730957,2098402.976989746,1455645.203590393,-7733563.423156738,-15835088.729858398,8905257.225036621,-5357064.247131348,-2527136.80267334,5770750.999450684,373510.9269618988,-13849040.031433105,-7024841.30859375,1193331.3608169556,687561.571598053,1016873.4788894653,2519062.5190734863,2022329.568862915,1507549.2858886719,-2909789.562225342,-5597708.225250244,-6541138.648986816,-7203677.177429199,-6116044.044494629,332167.387008667,991838.276386261,259991.40739440918,-2803895.7118988037,-6243411.064147949,-6693007.469177246,-6442048.5496521,-5012363.910675049,162891.9392824173,-14825003.623962402,-6499606.132507324,5449904.441833496
0.18,-77066528.3203125,-74086540.22216797,-64044418.33496094,-36413764.95361328,-44352924.34692383,-29812793.731689453,-29369659.423828125,-29221693.03894043,-25637687.68310547,-20494943.618774414,-22894678.115844727,-17782058.715820312,-18811780.92956543,-16867792.1295166,-29452659.606933594,-25101728.439331055,-15541679.382324219,-26082090.377807617,-14904330.253601074,-10061392.784118652,-8973846.435546875,-13765014.6484375,-16267667.770385742,11070623.397827148,-24453538.89465332,-1126699.2092132568,-12864479.064941406,-3960672.378540039,-1837078.8097381592,1244732.141494751,-9933247.566223145,-17360340.118408203,5240956.3064575195,-9440352.439880371,-2274930.477142334,5173687.934875488,260216.77255630493,-15316874.504089355,-9058291.4352417,-2787045.0019836426,-3340687.5133514404,-3764389.2765045166,-208208.26292037964,-825025.3796577454,1274069.7860717773,-4663330.554962158,-4609619.617462158,-10369449.615478516,-11276708.602905273,-9954374.313354492,-3587666.7499542236,-2866257.429122925,-3419046.401977539,-4817700.8628845215,-10344174.3850708,-10628998.756408691,-10477513.313293457,-9582754.135131836,-3909490.1084899902,-18758699.417114258,-10582659.721374512,1335386.872291565
0.185,-76448211.66992188,-71850250.24414062,-59871437.072753906,-36596775.05493164,-43789001.46484375,-29811464.309692383,-29519687.65258789,-29753328.323364258,-27809640.884399414,-21804904.93774414,-23249050.14038086,-16500576.01928711,-17492380.142211914,-15441875.457763672,-28494827.270507812,-24101238.250732422,-14625723.838806152,-28154525.756835938,-15849753.379821777,-9798028.945922852,-7093709.945678711,-11247129.440307617,-14768177.98614502,9576867.10357666,-24608106.61315918,-3631662.8456115723,-12503940.58227539,-5478873.729705811,-752315.7596588135,1489237.5469207764,-9648653.030395508,-15756433.486938477,5439900.3982543945,-10841727.256774902,73518.32091808319,5914984.703063965,164602.81610488892,-15919887.54272461,-8166838.645935059,-2942317.485809326,-3604454.0405273438,-3919903.7551879883,635223.388671875,35320.34158706665,-358281.7614078522,-5450515.7470703125,-3263816.3566589355,-9649313.926696777,-10601040.840148926,-9174605.369567871,-3015934.467315674,-2346645.8320617676,-2584026.81350708,-5726930.141448975,-9666145.324707031,-9990311.622619629,-9930447.578430176,-8029302.597045898,-1651051.40209198,-16407032.012939453,-9798770.904541016,1316135.5257034302
0.19,-74673652.64892578,-70392593.38378906,-56965187.072753906,-35817028.0456543,-42753902.435302734,-27446012.496948242,-27253107.07092285,-27940542.221069336,-27805196.76208496,-21607744.216918945,-21640293.12133789,-14351161.003112793,-15255724.906921387,-12687023.162841797,-25141956.329345703,-19942251.205444336,-10928967.475891113,-27999893.188476562,-14324228.286743164,-8637862.205505371,-3275640.0108337402,-8122974.395751953,-11871913.90991211,13514778.137207031,-21500318.52722168,-4852898.120880127,-10902139.663696289,-5913426.876068115,3758150.100708008,2272758.4838867188,-7996321.678161621,-12739764.213562012,9339428.901672363,-8712716.102600098,786600.649356842,5275517.94052124,57107.530534267426,-14940515.518188477,-5908890.724182129,568605.5421829224,-232011.67583465576,-50614.78167772293,2941920.280456543,2459692.2397613525,-3667500.2574920654,-6741629.600524902,-4757101.058959961,-5501674.652099609,-6338970.66116333,-4937624.931335449,963577.926158905,1588001.8472671509,1357457.160949707,-6860068.321228027,-5264218.807220459,-5798837.661743164,-5681084.156036377,-1284339.6663665771,4378330.707550049,-9394443.51196289,-5237277.507781982,5874987.602233887
0.195,-77137969.97070312,-73167015.0756836,-60032344.818115234,-37067279.81567383,-44180233.001708984,-26816143.035888672,-26664373.39782715,-27424457.550048828,-27410694.122314453,-20552310.943603516,-20003282.54699707,-14113002.77709961,-15001264.572143555,-11864528.65600586,-24487470.626831055,-19162105.560302734,-9871129.035949707,-26949182.510375977,-12710007.667541504,-8347929.000854492,-2573513.7462615967,-7816477.298736572,-11035165.786743164,18196651.458740234,-19600452.423095703,-6159259.796142578,-10722063.064575195,-5153079.509735107,5033880.710601807,1916904.2110443115,-7336124.897003174,-11814116.477966309,12637887.001037598,-6678656.101226807,-3610305.070877075,2642053.3657073975,15398.730523884296,-13408416.748046875,-5289833.545684814,3842288.2556915283,3017349.7200012207,2961758.3751678467,3431540.7276153564,2985669.1360473633,-7268519.878387451,-9573068.618774414,-8636320.114135742,-2306804.418563843,-3111930.3703308105,-1713822.0071792603,4051576.614379883,4732326.507568359,4191153.5263061523,-9475975.99029541,-1810240.2687072754,-2563415.288925171,-2323043.5848236084,3321138.620376587,7341015.338897705,-5558397.29309082,-1663168.7879562378,10495461.463928223
0.2,-83135208.12988281,-78617523.19335938,-67206298.828125,-39897731.78100586,-47512947.08251953,-29520219.802856445,-29363044.73876953,-29778800.96435547,-28112928.39050293,-19960777.282714844,-19980716.705322266,-15903032.302856445,-16937734.603881836,-14154206.275939941,-28464807.510375977,-23822340.01159668,-12420897.483825684,-26377382.278442383,-13189473.152160645,-10052714.347839355,-5929099.559783936,-10750779.151916504,-13281682.014465332,18043144.22607422,-21095138.549804688,-7654183.864593506,-12251466.751098633,-4444785.118103027,-204490.97454547882,-938894.510269165,-8350626.9454956055,-14052134.51385498,12517283.43963623,-7380941.867828369,-10370031.356811523,1505288.3625030518,44418.588280677795,-12983150.482177734,-7059502.601623535,3813669.9199676514,3094325.304031372,2203124.0463256836,1986584.186553955,1436508.8939666748,-8901918.411254883,-12903828.620910645,-11289237.022399902,-3014394.2832946777,-3875298.500061035,-2444257.7362060547,3555983.066558838,4335294.723510742,3615869.0452575684,-12759681.701660156,-2455792.6654815674,-3308815.9561157227,-3032036.066055298,346460.7894420624,3803045.0344085693,-9330488.204956055,-2326785.087585449,10412825.584411621
0.205,-85371078.49121094,-80741386.41357422,-71040573.12011719,-39802204.13208008,-48623794.55566406,-31300987.243652344,-31113193.51196289,-31196912.76550293,-27974702.835083008,-19663587.57019043,-20794528.96118164,-17160636.90185547,-18405073.165893555,-16998077.392578125,-31763156.89086914,-27054813.385009766,-13700606.346130371,-25375907.89794922,-14503080.368041992,-12507518.768310547,-9066672.325134277,-13630331.039428711,-15851391.792297363,14319204.330444336,-22745975.494384766,-7176733.016967773,-12572405.815124512,-4324328.422546387,-7019267.0822143555,-4669997.692108154,-9284790.0390625,-16698093.41430664,10884931.564331055,-8697235.107421875,-12598795.890808105,4565442.085266113,6176.034454256296,-13225878.715515137,-8889870.643615723,1506236.19556427,852155.864238739,23803.30301821232,885151.9227027893,276740.7298088074,-7814398.765563965,-14723492.622375488,-10630293.846130371,-6120739.459991455,-6910423.755645752,-5528145.313262939,853055.2387237549,1664651.1554718018,1185284.13772583,-14663950.92010498,-5613006.591796875,-6415274.143218994,-6198994.159698486,-6667846.202850342,-2260931.0150146484,-16299966.812133789,-5619296.550750732,6249244.689941406
0.21,-80453041.07666016,-77143013.00048828,-67753746.03271484,-35212535.8581543,-45803215.02685547,-28181421.279907227,-27996608.73413086,-28073026.657104492,-25293832.778930664,-19080556.869506836,-20996109.008789062,-16462493.896484375,-17780225.75378418,-17287729.263305664,-28665866.85180664,-22586450.576782227,-10520847.32055664,-23161693.572998047,-14363092.422485352,-13715916.633605957,-8782971.382141113,-13534226.417541504,-15830671.310424805,13042150.497436523,-20724056.243896484,-4109125.6141662598,-9797257.423400879,-3867821.9318389893,-8687712.669372559,-5763241.291046143,-8378452.301025391,-16769880.294799805,11261981.010437012,-7057581.424713135,-7689873.218536377,9098567.008972168,-165668.45774650574,-12141856.19354248,-8625767.707824707,71224.98750686646,-656419.2175865173,434240.34118652344,1125922.679901123,664352.7150154114,-5949304.103851318,-14921943.664550781,-8896891.593933105,-8010523.796081543,-8598130.226135254,-7342449.188232422,-747496.6645240784,22332.83594250679,-81825.11478662491,-14933246.612548828,-7565096.855163574,-8209233.283996582,-8069169.998168945,-9561438.56048584,-4548479.5570373535,-19409311.294555664,-7682636.260986328,3343895.435333252
0.215,-74439140.31982422,-72738899.23095703,-61863506.31713867,-31024074.55444336,-42682643.89038086,-22983928.680419922,-22895912.170410156,-23109182.357788086,-22691709.518432617,-18915687.561035156,-20918296.813964844,-15303414.344787598,-16496255.874633789,-15313584.327697754,-21416578.29284668,-14425432.205200195,-6372612.476348877,-21645694.732666016,-13238895.416259766,-13388223.648071289,-7313982.4867248535,-11274992.942810059,-13896952.629089355,16356403.350830078,-16389427.185058594,-1629637.4797821045,-6247806.549072266,-2611622.8103637695,-5385583.400726318,-3182546.377182007,-6379970.550537109,-14878469.467163086,14035579.681396484,-3072915.3156280518,-959592.1635627747,9843020.43914795,-307420.2239513397,-9864963.53149414,-7073966.503143311,612113.5950088501,-195683.50911140442,3619325.637817383,1347970.1280593872,1102702.3792266846,-5977158.546447754,-15368072.509765625,-9549881.935119629,-7572048.187255859,-8091220.855712891,-6899391.174316406,156353.50346565247,866599.8578071594,833527.684211731,-15372304.916381836,-7256279.945373535,-7728608.60824585,-7637786.865234375,-5976687.431335449,-1953035.1161956787,-17341611.862182617,-7366734.027862549,5083598.613739014
0.22,-73965827.94189453,-72332084.65576172,-58984500.885009766,-31677196.502685547,-42691375.732421875,-21224334.716796875,-21304868.698120117,-21450920.10498047,-23624349.59411621,-19700355.529785156,-21536897.659301758,-15128707.885742188,-16137607.57446289,-13719960.21270752,-16888463.973999023,-11193867.683410645,-6177165.985107422,-22860807.418823242,-13171804.428100586,-12489739.418029785,-8303037.643432617,-9473182.678222656,-12706492.42401123,20428619.384765625,-14071415.901184082,-2844313.859939575,-5588782.31048584,-1906089.186668396,-2914849.9965667725,-5434.555001556873,-5541676.998138428,-13687275.886535645,16689987.182617188,-668976.3069152832,1155162.8112792969,5828491.2109375,-218249.3507862091,-9219161.987304688,-6358405.590057373,1616573.9297866821,874699.7714042664,6271109.580993652,620649.9338150024,411061.25712394714,-7995846.748352051,-16367670.059204102,-12177730.560302734,-6720655.918121338,-7392936.706542969,-6173336.505889893,2378302.574157715,3031095.504760742,2802365.303039551,-16259664.535522461,-6614783.763885498,-6987454.891204834,-6892770.290374756,-888883.8887214661,1748535.6330871582,-13571314.811706543,-6653079.986572266,9254099.84588623
0.225,-75997810.36376953,-72654281.61621094,-57171028.13720703,-34075080.87158203,-43372264.86206055,-22529832.83996582,-22739665.985107422,-22591175.079345703,-26556398.391723633,-20079936.981201172,-22096141.815185547,-14702692.031860352,-15607182.502746582,-13304895.401000977,-16664558.410644531,-13520738.60168457,-9117135.047912598,-25160472.869873047,-14070799.827575684,-11353499.412536621,-10903585.433959961,-8779551.50604248,-12672387.12310791,21512733.459472656,-14654039.38293457,-6316838.264465332,-7943300.724029541,-3154171.2284088135,-4536367.416381836,369278.9375782013,-6422415.733337402,-13627289.772033691,17258155.822753906,-1446079.0157318115,-781483.2925796509,1530495.047569275,45095.14942765236,-11226262.092590332,-6780692.577362061,1583775.4011154175,976375.4606246948,6202392.578125,50030.34695982933,-296792.6561832428,-9189857.482910156,-15265342.712402344,-12480062.484741211,-6992707.7293396,-7770207.405090332,-6577650.07019043,4114001.2741088867,4698414.8025512695,4485125.541687012,-14915083.885192871,-7013010.501861572,-7351118.087768555,-7159584.999084473,1671343.9226150513,3987522.3636627197,-10022805.213928223,-7005743.026733398,11341590.881347656
0.23,-72886337.28027344,-67489921.56982422,-50913871.76513672,-32267601.013183594,-40339813.232421875,-21631912.231445312,-21837915.420532227,-21448028.564453125,-26908405.303955078,-18776269.912719727,-21111787.796020508,-12458364.486694336,-13305439.949035645,-12464921.951293945,-16194561.004638672,-14189183.235168457,-10430764.198303223,-25125381.469726562,-13921161.651611328,-9777126.31225586,-11158082.962036133,-7994705.677032471,-11947929.382324219,19990762.71057129,-15098549.842834473,-7910256.385803223,-10005037.307739258,-5460504.531860352,-8048437.118530273,-1738047.71900177,-7192077.159881592,-12820105.55267334,15626150.131225586,-3119855.1654815674,-1277354.8364639282,1031885.027885437,224176.3025522232,-12914092.063903809,-6973099.231719971,500284.73138809204,-89439.82422351837,4201247.692108154,574884.6530914307,154199.39160346985,-7405751.705169678,-10591263.771057129,-7958600.5210876465,-7746325.492858887,-8370906.829833984,-7349654.674530029,4165891.647338867,4691000.461578369,4955702.304840088,-9976579.666137695,-7692310.333251953,-7974107.265472412,-7659692.764282227,2882160.186767578,5240721.702575684,-6644774.913787842,-7662842.750549316,9498593.3303833
0.235,-65827743.53027344,-59483943.939208984,-42477455.139160156,-27327232.360839844,-35307201.38549805,-17641323.08959961,-17733472.82409668,-17334043.502807617,-24231941.22314453,-17219440.460205078,-19163457.8704834,-9942038.536071777,-10685808.181762695,-10876015.663146973,-13860632.89642334,-10642431.259155273,-8725830.078125,-22878091.81213379,-12268101.692199707,-8332896.2326049805,-8050626.754760742,-6882305.145263672,-10343554.496765137,17670637.130737305,-14339253.425598145,-6461588.382720947,-9768019.676208496,-6473898.887634277,-10250407.218933105,-3312964.677810669,-6342297.554016113,-11097971.91619873,12444466.590881348,-3883663.8927459717,923368.8712120056,3257283.2107543945,207597.24080562592,-11781115.531921387,-6340838.90914917,-823741.614818573,-1505248.3081817627,1608589.1723632812,797482.430934906,435642.4808502197,-4093739.5095825195,-5768129.825592041,-1714393.4965133667,-7887095.928192139,-8286399.841308594,-7472001.075744629,1958469.9869155884,2478924.036026001,3332341.9094085693,-5090737.819671631,-7690600.395202637,-7871861.934661865,-7600421.42868042,3870288.372039795,5459184.169769287,-5749142.169952393,-7623295.307159424,5418934.8220825195
0.24,-64972274.78027344,-59164005.279541016,-41640914.91699219,-26494722.366333008,-34738235.47363281,-16157627.10571289,-16150970.458984375,-15863965.034484863,-22913677.215576172,-17676280.975341797,-18333688.735961914,-10093529.70123291,-10750010.49041748,-10764699.935913086,-14163540.840148926,-9333506.58416748,-7242996.692657471,-22147439.95666504,-10901224.136352539,-7987243.175506592,-4824596.405029297,-6510188.579559326,-10252000.80871582,14965118.408203125,-15437283.515930176,-4924139.976501465,-8838595.390319824,-5404005.527496338,-10407372.47467041,-2725686.3117218018,-4823038.101196289,-10997771.263122559,9024094.581604004,-4988934.516906738,483120.23282051086,3929701.089859009,171323.9699602127,-9833140.37322998,-5616302.013397217,-1401052.713394165,-2104798.7937927246,-1102800.1308441162,-1105907.678604126,-1496151.6857147217,-2587953.567504883,-5702898.025512695,869594.156742096,-7490865.230560303,-7885410.308837891,-7161015.510559082,-1738430.0231933594,-1145845.1747894287,-141410.81273555756,-5202396.392822266,-7282861.709594727,-7427185.05859375,-7406949.996948242,2230831.3846588135,3313294.8875427246,-10755996.704101562,-7208211.421966553,2085328.8173675537
0.245,-73976310.72998047,-69712738.03710938,-51342666.62597656,-31865402.221679688,-39813507.080078125,-20069845.19958496,-20081266.403198242,-19842391.967773438,-24985439.30053711,-19228351.593017578,-18794557.571411133,-12474015.235900879,-13238432.884216309,-13137129.783630371,-19228507.99560547,-14759066.581726074,-7928987.979888916,-24399343.490600586,-10807170.867919922,-8531631.469726562,-4276963.233947754,-6951957.225799561,-12605392.456054688,12521188.735961914,-20028936.3861084,-5672892.093658447,-9421348.571777344,-3827625.513076782,-8900360.107421875,-1197989.4638061523,-4616208.076477051,-13535873.413085938,7861418.2472229,-7515434.741973877,-6263795.375823975,804687.7980232239,318635.1954936981,-10246985.43548584,-5407762.52746582,-363538.86127471924,-977350.4734039307,-2778278.350830078,-4078516.0064697266,-4720297.336578369,-3976502.4185180664,-10461293.22052002,-2002306.9381713867,-7100852.489471436,-7664785.861968994,-6894309.520721436,-4222361.5646362305,-3494584.560394287,-2887557.2681427,-10094572.067260742,-6985273.838043213,-7246899.127960205,-7410517.21572876,-2583299.6368408203,78193.51553916931,-19816522.5982666,-7009720.325469971,1803096.6520309448
0.25,-82282730.10253906,-79969619.75097656,-60667472.83935547,-36226882.93457031,-43434932.708740234,-24033554.077148438,-24156581.87866211,-23869689.94140625,-26821599.96032715,-18707973.48022461,-18533166.885375977,-13456254.005432129,-14533803.939819336,-15507627.487182617,-23242752.075195312,-21247709.274291992,-8679172.51586914,-26389535.903930664,-11019128.799438477,-8905661.582946777,-5718369.483947754,-7144575.119018555,-14816262.245178223,12368294.715881348,-24333776.473999023,-7418545.246124268,-11160449.981689453,-3433562.2787475586,-5955338.478088379,-819684.0286254883,-6176701.545715332,-15955462.455749512,10565450.668334961,-9588939.666748047,-14869997.97821045,-4274702.072143555,593024.0750312805,-12153141.975402832,-5904783.725738525,1724044.7998046875,1136283.51688385,-1510006.9046020508,-5056233.882904053,-5947573.661804199,-5990104.198455811,-15104364.395141602,-7461139.678955078,-6983821.392059326,-7601740.837097168,-6726350.3074646,-3135292.7684783936,-2258506.5364837646,-2191594.8390960693,-14580760.955810547,-6866889.476776123,-7320713.520050049,-7335288.047790527,-5339416.980743408,-86332.44037628174,-25971399.307250977,-7048909.664154053,4833066.940307617
0.255,-78817016.6015625,-78567596.43554688,-58432525.634765625,-33240657.806396484,-40171352.38647461,-22107084.274291992,-22321134.567260742,-21982374.19128418,-25023054.122924805,-15737784.385681152,-16877153.396606445,-11630777.359008789,-12968435.287475586,-15275130.271911621,-20180004.119873047,-21143468.856811523,-7706200.59967041,-25238353.729248047,-10936646.461486816,-8768907.54699707,-7162645.8168029785,-7139410.972595215,-14388384.819030762,15461034.774780273,-23733737.94555664,-7719822.406768799,-12236787.796020508,-4133959.2933654785,-2701917.1714782715,-2397245.6455230713,-8091116.905212402,-15522507.667541504,15317535.400390625,-8889330.863952637,-18053943.634033203,-7731366.157531738,751844.7041511536,-12364290.237426758,-7423720.359802246,2681918.6210632324,1948658.2279205322,2683064.9375915527,-2943812.131881714,-3787552.59513855,-5945106.983184814,-15678933.143615723,-11674056.053161621,-7263449.668884277,-7746918.201446533,-6761171.340942383,675524.3539810181,1638649.1060256958,1440762.2814178467,-14875843.048095703,-6988452.434539795,-7552587.985992432,-7241962.432861328,-1366238.2364273071,4387557.029724121,-25570795.0592041,-7239203.453063965,9145636.558532715
0.26,-68184425.3540039,-70030151.3671875,-49170337.67700195,-26860569.00024414,-34536239.62402344,-16708835.60180664,-16933473.587036133,-16598163.604736328,-21759643.5546875,-13718903.541564941,-15759818.077087402,-9864511.489868164,-11172495.84197998,-13200800.895690918,-13061369.895935059,-16283094.40612793,-6758659.362792969,-22849657.05871582,-11390035.629272461,-8420670.509338379,-7772665.500640869,-7895877.838134766,-12231051.445007324,20242158.889770508,-19076828.002929688,-6340236.663818359,-11923807.144165039,-4772327.423095703,-911462.5453948975,-4868843.078613281,-8425635.33782959,-13200037.956237793,18903404.235839844,-5801977.634429932,-14800895.690917969,-7591879.367828369,668338.5372161865,-10819562.911987305,-9232020.378112793,1890835.0467681885,989298.3436584473,7304971.218109131,494621.5748786926,-70609.4428896904,-3396870.8515167236,-12789876.937866211,-12748547.554016113,-7288041.591644287,-7698168.754577637,-6604818.344116211,4579395.294189453,5530303.955078125,5349495.887756348,-11959960.9375,-6861204.624176025,-7437632.083892822,-7019131.660461426,6434703.826904297,10179355.62133789,-22232040.405273438,-7046783.924102783,12767690.658569336
0.265,-64529586.79199219,-68136016.84570312,-46717918.395996094,-25463254.928588867,-34376537.32299805,-14588095.664978027,-14811721.801757812,-14507233.619689941,-20972103.118896484,-14707358.360290527,-16371572.494506836,-10514487.266540527,-11582740.783691406,-11484132.766723633,-9664395.332336426,-14185146.33178711,-7378691.19644165,-22407354.3548584,-12501238.822937012,-7700162.887573242,-7102541.446685791,-8477723.121643066,-10509993.553161621,24752630.23376465,-14964137.077331543,-4508318.4242248535,-10385558.128356934,-4691388.6070251465,-799811.601638794,-5868775.844573975,-6082182.40737915,-11440515.518188477,20907829.28466797,-2153434.5149993896,-9992458.34350586,-4743336.200714111,446199.0296840668,-10350419.044494629,-8746854.782104492,2252770.42388916,1352220.6544876099,10362382.888793945,3719499.349594116,3326944.8280334473,437050.61078071594,-9198598.861694336,-10789536.476135254,-5416193.962097168,-5989525.318145752,-4798639.77432251,7828361.988067627,8737176.895141602,8598359.107971191,-8632799.14855957,-5000744.342803955,-5604151.725769043,-5366433.620452881,11562906.265258789,13918692.588806152,-20479822.158813477,-5107003.211975098,15947014.808654785
0.27,-71391395.56884766,-75529273.9868164,-53719944.00024414,-29728496.551513672,-39153923.03466797,-16670761.108398438,-16969144.821166992,-16673404.693603516,-22161344.528198242,-16384891.510009766,-17068311.69128418,-11653523.445129395,-12531399.726867676,-10307899.475097656,-11684252.738952637,-15996948.2421875,-7506799.697875977,-23063570.022583008,-12882575.988769531,-6703588.485717773,-4545247.554779053,-6497113.7046813965,-9299114.227294922,27782447.814941406,-13626234.05456543,-2887108.087539673,-7615865.230560303,-4090231.8954467773,-1091479.3014526367,-3669297.933578491,-1942607.8796386719,-10392761.23046875,22995536.80419922,958059.3109130859,-6837451.934814453,-1854196.548461914,260804.9213886261,-11534706.115722656,-4475428.581237793,6113107.204437256,5346549.987792969,11697973.251342773,6615508.079528809,6152182.579040527,4172264.0991210938,-6737113.475799561,-7360589.981079102,-1418308.0196380615,-2196620.225906372,-948605.5374145508,11029568.672180176,11941053.39050293,11783051.490783691,-6352832.794189453,-1120373.249053955,-1786913.275718689,-1694538.8317108154,12458214.75982666,15840800.285339355,-19878036.499023438,-1235850.8110046387,19148330.688476562
0.275,-77303596.49658203,-80105354.30908203,-57872333.52661133,-32566135.40649414,-41153842.92602539,-18014532.0892334,-18421768.188476562,-18108287.811279297,-21981117.248535156,-16103670.120239258,-16415924.072265625,-10592137.336730957,-11407240.867614746,-8861135.482788086,-14276550.29296875,-16244836.807250977,-5446630.954742432,-21978210.44921875,-12293878.555297852,-7027514.457702637,-1241895.6756591797,-2574135.5419158936,-7808419.704437256,27162975.311279297,-14219152.450561523,-2337600.4695892334,-4779408.931732178,-3655588.6268615723,-1540446.5198516846,188913.2857322693,722496.2711334229,-8997306.823730469,24138244.62890625,2067686.7961883545,-4570335.388183594,-1235625.147819519,181586.19105815887,-11907910.346984863,555456.280708313,10199928.283691406,9529139.518737793,10739520.072937012,7981195.92666626,7403075.218200684,6307250.499725342,-6342434.406280518,-5065577.983856201,1423130.1546096802,715535.1042747498,1935018.6586380005,12382109.642028809,13264352.798461914,13224677.085876465,-5799548.149108887,1683602.9291152954,1030894.1602706909,1214291.8109893799,12117515.563964844,16575319.290161133,-18237098.693847656,1518742.561340332,19848432.540893555
0.28,-73606903.07617188,-73887825.01220703,-51244575.50048828,-30446910.858154297,-37696594.23828125,-16764959.335327148,-17184110.641479492,-16874132.15637207,-20467020.03479004,-15427208.90045166,-16212594.985961914,-8841529.846191406,-9594345.092773438,-8195116.04309082,-14892650.604248047,-13502843.856811523,-4282784.938812256,-20208702.087402344,-12845532.417297363,-9967742.919921875,-418945.3125,-1202569.7231292725,-7177971.363067627,21187494.2779541,-16324541.091918945,-4635004.997253418,-4937803.268432617,-4284037.113189697,-3049710.988998413,1372712.49294281,-1415906.1908721924,-8200704.574584961,21317943.572998047,-791565.7758712769,-3034522.771835327,-3094956.159591675,160010.05470752716,-10847981.452941895,1514133.334159851,9046083.450317383,8392924.308776855,6582511.425018311,5503764.1525268555,4941384.792327881,5402667.045593262,-8438794.136047363,-5735514.163970947,-230009.45150852203,-609405.4579734802,486170.79854011536,9048954.010009766,9733719.825744629,10070564.270019531,-7624172.687530518,145953.4615278244,-390122.1752166748,-85826.35968923569,11709776.878356934,14662266.731262207,-16369001.388549805,-22499.579936265945,15575713.157653809
0.285,-67436019.89746094,-65651473.99902344,-43272544.860839844,-28375757.217407227,-35335979.46166992,-16836767.196655273,-17128549.575805664,-16903680.8013916,-21196468.353271484,-17653953.552246094,-18947647.094726562,-10123402.59552002,-10796136.856079102,-10020860.67199707,-15998900.413513184,-13029366.493225098,-7832175.254821777,-22007919.311523438,-15678177.833557129,-13635274.887084961,-3686137.914657593,-4912776.470184326,-9101696.014404297,13541594.505310059,-19846071.243286133,-9908886.909484863,-9432703.018188477,-6335117.340087891,-5011943.817138672,-2377236.3662719727,-7834493.160247803,-9896665.573120117,16220441.818237305,-6255351.543426514,-4227927.684783936,-5694856.643676758,117435.64158678055,-11091112.13684082,-1802917.9573059082,3433560.848236084,2816746.473312378,1748241.5437698364,186533.8683128357,-329583.19783210754,1777920.8421707153,-11817027.09197998,-8479483.604431152,-4385719.299316406,-4562170.028686523,-3588344.5739746094,3240295.41015625,3647443.0561065674,4362826.824188232,-11007324.21875,-3861990.9286499023,-4346680.641174316,-4136289.596557617,10176769.256591797,10419395.446777344,-15949745.178222656,-4022023.2009887695,10011820.793151855
0.29,-70525962.82958984,-68093742.37060547,-47226562.5,-31670284.271240234,-39801563.26293945,-20739381.790161133,-20874118.80493164,-20818933.486938477,-25265125.274658203,-22352617.263793945,-23570373.53515625,-14533943.176269531,-15293563.842773438,-13388453.483581543,-18709264.755249023,-17251909.255981445,-13888758.659362793,-28004526.138305664,-18409973.14453125,-14545727.729797363,-8268766.403198242,-10139488.220214844,-12550822.257995605,11974624.633789062,-22335777.282714844,-14710887.908935547,-14485168.45703125,-8681694.030761719,-5347035.4080200195,-7738440.990447998,-13871137.619018555,-13339734.077453613,15757294.654846191,-8621978.759765625,-7904891.9677734375,-7320322.036743164,16250.239685177803,-13779623.985290527,-4555496.2158203125,346106.49943351746,-184867.60556697845,1743627.3097991943,-2486167.1924591064,-3058956.8614959717,-1669322.6099014282,-13636397.361755371,-10624431.610107422,-5546008.110046387,-5918228.1494140625,-4907044.887542725,1838816.0467147827,2189448.356628418,2900729.8946380615,-13141737.937927246,-4994973.182678223,-5612568.378448486,-5617499.351501465,8887682.914733887,8314598.083496094,-15927641.868591309,-5220547.676086426,10519776.344299316
0.295,-81328498.84033203,-79446044.921875,-60683456.42089844,-38132743.83544922,-47669197.08251953,-25314004.89807129,-25382484.436035156,-25488428.115844727,-29302856.4453125,-25977413.177490234,-26802417.755126953,-18421344.757080078,-19494623.1842041,-15691758.155822754,-19939041.137695312,-20939857.482910156,-16416477.20336914,-33410610.19897461,-18534873.962402344,-12806070.327758789,-10258894.920349121,-11960497.856140137,-14916016.578674316,18493188.858032227,-21016916.275024414,-15191555.02319336,-14921991.348266602,-9435226.440429688,-3996262.788772583,-9603133.201599121,-15707851.40991211,-15849097.25189209,22445007.32421875,-4576910.972595215,-10067264.556884766,-7719627.857208252,-98505.14680147171,-15846253.395080566,-3940493.34526062,2827898.5023498535,2355272.2930908203,7882773.399353027,1066091.775894165,439386.248588562,-1878062.4866485596,-12085515.975952148,-10817816.734313965,-2633063.554763794,-3394054.174423218,-2172912.836074829,7193815.231323242,7811322.212219238,8136565.208435059,-11891129.493713379,-2174665.4510498047,-2952986.001968384,-3064770.460128784,10626393.31817627,11210280.418395996,-15028691.291809082,-2502878.189086914,17564132.690429688
0.3,-87154487.60986328,-86854240.41748047,-69202255.24902344,-42131351.470947266,-52157833.099365234,-27079795.837402344,-27173545.837402344,-27302156.448364258,-30794757.843017578,-27615453.720092773,-28183303.833007812,-20092617.03491211,-21430818.557739258,-16748262.405395508,-18070045.471191406,-19515901.565551758,-14278620.719909668,-34479164.123535156,-17822006.225585938,-12972083.09173584,-9898187.637329102,-11108705.520629883,-16045812.606811523,24891067.504882812,-17798099.517822266,-11888324.737548828,-11342385.292053223,-8326509.475708008,-3553114.175796509,-7892271.518707275,-14433441.162109375,-16984071.731567383,28839452.743530273,1184057.7125549316,-8372024.5361328125,-7481572.62802124,-119833.67800712585,-14682757.377624512,-3074905.3955078125,5161714.07699585,4683044.43359375,13966600.41809082,7206319.332122803,6683438.777923584,1165070.4145431519,-8416796.684265137,-10027774.810791016,-871276.85546875,-1767796.1587905884,-386500.7162094116,12776149.74975586,13670843.124389648,13669558.52508545,-8265431.4041137695,-496349.4539260864,-1218200.2067565918,-1327766.4184570312,13879427.909851074,15239822.387695312,-15128967.28515625,-820316.1954879761,22205497.74169922
0.305,-82139686.58447266,-84796775.8178711,-66416450.50048828,-42755947.11303711,-52839763.64135742,-27334867.477416992,-27473911.28540039,-27448852.5390625,-31713752.74658203,-30236778.259277344,-30524631.50024414,-21880062.103271484,-23144765.853881836,-18800260.543823242,-16289735.794067383,-16341930.389404297,-12818943.977355957,-33095424.65209961,-19969358.444213867,-18020223.61755371,-11095422.744750977,-12434574.127197266,-18143468.856811523,22800626.754760742,-17750598.907470703,-9257875.442504883,-9877470.970153809,-7423368.93081665,-5135597.705841064,-7524253.368377686,-13663761.138916016,-18903985.97717285,26652988.43383789,1539391.040802002,-5795685.291290283,-6881235.599517822,4324.897658079863,-12214411.735534668,-5605696.678161621,1538687.7059936523,1033006.7873001099,13881081.581115723,9588783.264160156,9201010.704040527,4641563.892364502,-5565507.888793945,-9362885.475158691,-3862690.4487609863,-4515117.168426514,-3242001.2950897217,11907068.252563477,12749390.602111816,12827139.854431152,-5281296.730041504,-3497865.4384613037,-3966160.535812378,-4106897.8309631348,13720424.65209961,14972576.141357422,-18029638.290405273,-3659578.323364258,18005857.467651367
0.31,-74102165.22216797,-80350952.1484375,-60098041.53442383,-43339256.286621094,-54104568.48144531,-28777105.3314209,-28951660.15625,-28710609.436035156,-34491992.95043945,-35177486.419677734,-34819423.67553711,-25484781.26525879,-26433300.018310547,-22335582.733154297,-17483392.7154541,-16918476.104736328,-15701103.210449219,-32650775.909423828,-24497892.379760742,-24762096.405029297,-15669148.445129395,-17301410.675048828,-21667064.666748047,14712985.038757324,-21618465.423583984,-10384031.295776367,-13684722.900390625,-8480370.52154541,-6483789.920806885,-11244334.22088623,-14578449.249267578,-22297647.47619629,18172235.4888916,-3352933.168411255,-5732416.62979126,-6181316.375732422,157317.04235076904,-11383201.599121094,-9854762.077331543,-5141157.150268555,-5684320.449829102,9528990.745544434,7266959.667205811,6780606.746673584,6172774.314880371,-5252044.200897217,-8515610.694885254,-8197792.053222656,-8561130.52368164,-7589063.64440918,6809963.226318359,7367522.716522217,7774107.456207275,-4858483.791351318,-7857979.774475098,-8143391.6091918945,-8323748.588562012,9140586.853027344,11174652.099609375,-21018842.697143555,-7825523.376464844,10128216.743469238
0.315,-72323944.09179688,-80323928.83300781,-58299423.21777344,-44963222.50366211,-56553264.61791992,-30519599.91455078,-30740970.611572266,-30383592.60559082,-37206604.00390625,-38816505.432128906,-37779098.51074219,-28568786.62109375,-29312410.354614258,-24806066.513061523,-19719518.661499023,-20229169.845581055,-19862384.796142578,-32711715.698242188,-26688938.14086914,-27664033.889770508,-20554214.477539062,-21536899.56665039,-24130676.26953125,9782341.957092285,-24344224.92980957,-13937972.068786621,-18446712.493896484,-10415290.832519531,-5873299.121856689,-15696560.859680176,-15463230.13305664,-24799222.946166992,12929376.602172852,-6890501.022338867,-6425262.451171875,-6499556.541442871,149005.35345077515,-11239704.132080078,-11539906.50177002,-7745120.525360107,-8368467.330932617,7112516.403198242,4558977.6039123535,3790739.059448242,5891310.214996338,-6561999.320983887,-6839177.60848999,-8845579.147338867,-9210011.48223877,-8451049.8046875,4319252.014160156,4735011.577606201,5326279.163360596,-6148902.416229248,-8629147.52960205,-8957837.104797363,-9043382.64465332,4590419.292449951,8781232.833862305,-20008159.637451172,-8532592.7734375,7650610.446929932
0.32,-75807838.4399414,-82221092.2241211,-59206809.997558594,-45277179.71801758,-56129230.49926758,-30244173.049926758,-30528104.782104492,-30202878.952026367,-36217861.17553711,-37241512.298583984,-36178913.11645508,-28002155.303955078,-28803594.5892334,-24308189.392089844,-20152505.87463379,-21396711.349487305,-20943761.825561523,-31166263.580322266,-24217603.68347168,-25606252.670288086,-21596652.98461914,-21348041.534423828,-23660177.23083496,10919243.812561035,-22920967.10205078,-16539325.714111328,-18741687.774658203,-10734578.132629395,-4874784.469604492,-16107009.887695312,-15109725.952148438,-24411470.413208008,14547699.928283691,-6049394.607543945,-4229722.023010254,-8989343.643188477,-38227.58048772812,-9302246.09375,-9884154.319763184,-5019054.412841797,-5719560.623168945,7913086.891174316,3907173.6335754395,3054351.568222046,5175785.541534424,-6903687.477111816,-4670732.9750061035,-6313693.523406982,-6883035.659790039,-6128310.680389404,5585583.686828613,6124494.552612305,6639684.200286865,-6530459.880828857,-6235524.654388428,-6705915.451049805,-6596036.911010742,2808139.8010253906,8839032.173156738,-15895636.558532715,-6232217.788696289,10880663.871765137
0.325,-77146202.08740234,-80659843.44482422,-57687568.66455078,-43135063.17138672,-51494388.580322266,-28614557.26623535,-28950876.235961914,-28712907.791137695,-32025501.251220703,-31982654.571533203,-31481901.168823242,-24126609.802246094,-25066032.40966797,-21792209.62524414,-19691946.029663086,-19668657.302856445,-19422983.169555664,-29140893.936157227,-20396560.668945312,-22165065.76538086,-18199743.270874023,-17646810.53161621,-21097799.30114746,12907596.588134766,-20789295.196533203,-16140296.936035156,-15409605.026245117,-8961581.230163574,-4672416.210174561,-12117690.086364746,-13839848.518371582,-21885932.92236328,17455703.735351562,-4626266.002655029,-96279.0697813034,-12771166.801452637,-191656.9620370865,-6909891.128540039,-7188857.078552246,-1643257.737159729,-2324132.4424743652,8196591.377258301,3582902.9083251953,3025347.948074341,4798290.252685547,-4421479.70199585,-2607240.4384613037,-4312288.761138916,-4952698.230743408,-4158608.4365844727,6178577.423095703,6876254.081726074,7268444.061279297,-4154167.652130127,-4240954.399108887,-4751296.9970703125,-4550686.836242676,1370995.5215454102,8198720.932006836,-13127514.839172363,-4368085.3843688965,13042774.200439453
0.33,-72890777.58789062,-75536834.71679688,-53763023.376464844,-40038993.83544922,-46482833.86230469,-27682910.919189453,-28046829.223632812,-27851770.401000977,-28819448.471069336,-28072778.701782227,-27861158.37097168,-19496042.251586914,-20448202.13317871,-18650907.516479492,-20271379.470825195,-18210855.48400879,-18213632.583618164,-29661054.611206055,-19303251.266479492,-20109325.408935547,-13011510.848999023,-13250041.961669922,-17785949.70703125,12333788.871765137,-21569726.943969727,-13177518.844604492,-13184247.016906738,-7168614.387512207,-2616722.822189331,-6954047.203063965,-11421497.344970703,-18641990.661621094,16682878.494262695,-5737874.0310668945,1615283.727645874,-15067583.084106445,-127390.0717496872,-7714856.6246032715,-4078113.079071045,-183245.30124664307,-783080.2202224731,6808454.990386963,2484569.311141968,2294749.0215301514,4678988.456726074,-131840.21413326263,-505892.0383453369,-3262483.1199645996,-3734050.2738952637,-3036981.1058044434,4676712.0361328125,5391212.463378906,5792420.387268066,-42334.77637171745,-3095302.104949951,-3504643.678665161,-3392270.803451538,-1579183.4592819214,6346433.639526367,-12798748.016357422,-3236633.539199829,11782792.091369629
0.335,-65873374.938964844,-69812828.06396484,-49798748.01635742,-36855762.48168945,-44026069.64111328,-26893722.534179688,-27264036.178588867,-27080039.978027344,-28492113.11340332,-27545536.041259766,-26982372.283935547,-15401215.553283691,-16245441.436767578,-14983196.258544922,-20705369.94934082,-17977018.356323242,-17628995.895385742,-32363960.26611328,-20588258.743286133,-18856054.306030273,-8660268.783569336,-9270288.467407227,-14026422.500610352,11767019.271850586,-23084228.515625,-10202773.094177246,-13425725.936889648,-7126961.708068848,3727813.720703125,-3216294.288635254,-7214795.5894470215,-14986794.471740723,13981751.441955566,-7315536.022186279,-250869.57216262817,-14385928.1539917,71041.48715734482,-11322944.641113281,164569.7057247162,804579.1387557983,190977.2902727127,6437277.793884277,2141705.9898376465,2016452.5508880615,4350285.530090332,2642224.7886657715,1676304.1019439697,-1237517.3568725586,-1537425.16040802,-1015802.0257949829,4081849.0982055664,4754525.661468506,5264266.490936279,2585186.004638672,-1071671.1282730103,-1318308.2342147827,-1332304.7161102295,-3536417.245864868,6123766.4222717285,-12139850.616455078,-1040762.5436782837,11080346.10748291
0.34,-60996612.548828125,-65381881.71386719,-46244289.39819336,-33499233.24584961,-43034572.60131836,-25006887.435913086,-25354938.507080078,-25220258.712768555,-28903078.079223633,-28180458.068847656,-27369323.73046875,-12453880.310058594,-13187806.129455566,-11851770.401000977,-19465417.861938477,-17658098.220825195,-16631669.998168945,-33738319.396972656,-21492961.883544922,-17650840.759277344,-6477044.105529785,-6375783.920288086,-11098947.525024414,12828186.988830566,-21890914.916992188,-10346875.190734863,-13529600.143432617,-8425661.087036133,10973726.272583008,-2018432.1403503418,-3133800.268173218,-12033818.244934082,12413515.090942383,-7455738.067626953,-2766597.270965576,-12608695.983886719,156652.7932882309,-12985822.677612305,3365061.2831115723,1327519.2975997925,568208.7540626526,7243968.963623047,2713399.887084961,2422006.845474243,3192516.088485718,1989469.6474075317,2921644.926071167,570823.1329917908,211942.74723529816,677852.1537780762,4850312.232971191,5536581.993103027,6196225.643157959,1943332.6721191406,548258.6622238159,448676.04970932007,391167.8194999695,-2622072.93510437,7286078.453063965,-10712526.321411133,860157.310962677,12549308.776855469
0.345,-62152439.11743164,-64833709.716796875,-44907917.02270508,-32237796.783447266,-43030708.31298828,-24503921.508789062,-24794984.817504883,-24740043.64013672,-28711841.583251953,-28308599.4720459,-28114402.770996094,-12770462.989807129,-13476917.266845703,-12319014.549255371,-19205923.080444336,-18693914.41345215,-16674949.645996094,-32673740.38696289,-21613416.67175293,-17985015.869140625,-6992298.603057861,-6636229.038238525,-11917253.494262695,12119458.198547363,-20297458.64868164,-14362575.53100586,-12576326.370239258,-9731660.842895508,12953283.309936523,-4323319.911956787,-3264244.556427002,-12653379.440307617,10776387.214660645,-8826508.522033691,-4442596.912384033,-12596672.058105469,5823.005922138691,-10340266.227722168,1683453.917503357,-1131862.4019622803,-2006722.6886749268,5363152.980804443,1491062.1643066406,1169170.7372665405,1095690.2503967285,-11914.670467376709,2245303.8692474365,-1192928.7910461426,-1797235.369682312,-1190936.56539917,3304906.8450927734,4031596.6606140137,4922853.946685791,70612.88505792618,-1427824.854850769,-1472559.4520568848,-1518704.0567398071,-1953865.885734558,5522480.9646606445,-11775862.693786621,-920292.7947044373,12446313.858032227
0.35,-69911155.7006836,-71231765.74707031,-49858932.49511719,-36235065.46020508,-46363666.53442383,-28898195.266723633,-29133634.567260742,-29096513.748168945,-30080650.329589844,-29134109.497070312,-30060035.705566406,-17711185.455322266,-18510627.74658203,-17439544.677734375,-23457563.400268555,-23974477.767944336,-19873147.96447754,-31812761.306762695,-22469509.12475586,-20921905.517578125,-9296701.431274414,-10877881.050109863,-17168144.22607422,7153177.738189697,-23251144.409179688,-19099872.589111328,-12988714.218139648,-10536850.929260254,9196712.493896484,-9746519.088745117,-8643735.885620117,-17770338.05847168,6751078.128814697,-13967570.304870605,-6897840.976715088,-14413257.598876953,-284867.0184612274,-6560882.568359375,-4087993.1449890137,-6187677.383422852,-7020228.862762451,-634343.0280685425,-2526821.3748931885,-2654977.321624756,-1022304.0580749512,-63762.76910305023,174172.81866073608,-6006850.719451904,-6832573.890686035,-6022522.926330566,-1651766.8962478638,-880268.0969238281,337903.85723114014,96158.35547447205,-6276376.724243164,-6430297.8515625,-6448964.1189575195,-5169800.281524658,-324189.81194496155,-16297489.166259766,-5821435.928344727,8566010.475158691
0.355,-78970619.20166016,-81591972.35107422,-59530658.72192383,-43301776.88598633,-52869705.20019531,-35943771.36230469,-36185737.60986328,-36068046.56982422,-34642032.623291016,-31445926.666259766,-33035774.23095703,-24136377.334594727,-25112115.85998535,-23369234.085083008,-30070890.426635742,-31255540.84777832,-24519609.451293945,-32668952.94189453,-23807415.008544922,-24238956.451416016,-10670519.828796387,-15966879.844665527,-22950523.376464844,1128478.6462783813,-30036083.221435547,-20728103.637695312,-16008195.877075195,-11027235.03112793,5755850.791931152,-14928565.979003906,-15037679.672241211,-23653255.462646484,1492997.7655410767,-20175621.032714844,-10223164.558410645,-15705298.42376709,-536161.7803573608,-5458979.12979126,-8159225.4638671875,-9508087.158203125,-10218667.030334473,-6901790.618896484,-6272214.889526367,-6285511.9705200195,-2397512.197494507,1580448.5082626343,-2001587.8677368164,-9540275.573730469,-10429789.543151855,-9550076.484680176,-6156532.764434814,-5270574.569702148,-3729786.8728637695,1708543.6582565308,-9679104.804992676,-10056660.652160645,-9995263.09967041,-10846431.732177734,-5498726.367950439,-20597026.824951172,-9491704.940795898,3585766.315460205
0.36,-81411895.75195312,-86406723.02246094,-64261581.42089844,-46149883.27026367,-57157104.4921875,-38762950.8972168,-39079574.58496094,-38873596.19140625,-39765991.2109375,-33265529.63256836,-34748935.69946289,-26687269.21081543,-27760999.67956543,-25508165.35949707,-32955410.00366211,-33939132.69042969,-26649366.37878418,-33169380.18798828,-23780241.012573242,-24763490.676879883,-9195853.233337402,-17781274.795532227,-24997941.970825195,-1862793.8032150269,-34645900.72631836,-19386959.075927734,-19269655.227661133,-11298062.324523926,6590844.15435791,-16260799.407958984,-18056945.80078125,-25826538.0859375,-2378488.063812256,-23165498.733520508,-11433178.901672363,-15637119.29321289,-613115.1914596558,-6668548.107147217,-7455277.442932129,-9092107.772827148,-9733234.405517578,-10008093.83392334,-7215805.0537109375,-7401287.55569458,-4008852.481842041,1475251.4362335205,-4020718.0976867676,-10194345.474243164,-10992914.199829102,-10241558.074951172,-7807794.094085693,-6770185.470581055,-5004829.883575439,1588272.4523544312,-10202399.253845215,-10713409.423828125,-10541382.789611816,-15068165.77911377,-6305368.900299072,-22249891.28112793,-10281704.902648926,-144848.34671020508
0.365,-76342163.0859375,-81668853.75976562,-59016220.09277344,-41901344.299316406,-55614940.64331055,-35086513.51928711,-35460151.67236328,-35257495.88012695,-41785671.23413086,-32744430.541992188,-33820808.41064453,-24384178.161621094,-25333019.256591797,-24296377.182006836,-30488580.70373535,-30303405.76171875,-25784221.649169922,-31734840.393066406,-22440549.850463867,-22667119.9798584,-6629328.25088501,-16195724.487304688,-23944669.723510742,-2155669.927597046,-34335479.736328125,-18520338.05847168,-20376594.54345703,-11433091.163635254,8518125.534057617,-14221268.653869629,-18417634.963989258,-24643926.6204834,-4220321.178436279,-22980667.114257812,-9683538.436889648,-16184200.286865234,-469298.1243133545,-7802230.8349609375,-5548328.876495361,-7903281.688690186,-8527114.868164062,-10934127.807617188,-7037431.240081787,-7475349.426269531,-7333151.340484619,-1849178.3142089844,-6464881.420135498,-10780862.808227539,-11405012.130737305,-10837249.755859375,-9053977.012634277,-8006889.343261719,-6137613.296508789,-1654907.7033996582,-10741724.967956543,-11150931.358337402,-10978356.36138916,-16932184.21936035,-5173638.343811035,-23965682.983398438,-10903757.095336914,-3431912.1837615967
0.37,-72864768.9819336,-76289581.29882812,-53061546.325683594,-36857109.06982422,-52325618.743896484,-30563657.760620117,-30874818.801879883,-30736104.96520996,-41033214.5690918,-31080871.58203125,-31888835.906982422,-21651334.762573242,-22361391.067504883,-23854314.80407715,-27495903.01513672,-26532581.329345703,-25041599.27368164,-30442455.291748047,-21883995.056152344,-21007120.13244629,-6316047.191619873,-14491707.801818848,-23652727.127075195,-1492181.7779541016,-32420326.232910156,-19315587.997436523,-19949897.76611328,-11556198.120117188,7014601.707458496,-12506066.32232666,-19461204.528808594,-24099742.889404297,-3736775.3982543945,-22029184.341430664,-8615647.315979004,-18488523.483276367,-205417.9310798645,-8630518.913269043,-6354033.470153809,-8036988.258361816,-8642559.051513672,-10837525.367736816,-7616585.254669189,-8078510.284423828,-10917452.812194824,-5607230.186462402,-8968183.517456055,-12573310.852050781,-13050503.730773926,-12496864.318847656,-11148545.265197754,-10278618.812561035,-8479582.786560059,-5369586.46774292,-12520560.264587402,-12709330.558776855,-12719507.217407227,-17626070.022583008,-5487494.468688965,-28172334.671020508,-12604885.10131836,-5678858.757019043
0.375,-78420341.49169922,-80155128.4790039,-57706760.40649414,-37571563.720703125,-52909179.6875,-30458318.71032715,-30599752.42614746,-30463464.736938477,-40443878.173828125,-30230449.676513672,-30990947.723388672,-21832851.40991211,-22472675.323486328,-25714281.08215332,-27824287.41455078,-27738151.55029297,-25351837.158203125,-31569377.899169922,-22531280.517578125,-21149166.107177734,-8037545.204162598,-14389836.311340332,-25357292.17529297,1416395.3065872192,-31736707.68737793,-18702926.635742188,-19473501.205444336,-11187022.20916748,3484014.2726898193,-13017168.998718262,-21204059.600830078,-25816776.275634766,738147.0203399658,-19850728.98864746,-10392811.77520752,-20071094.512939453,-50274.48013424873,-10499704.360961914,-7920539.379119873,-6979439.735412598,-7595981.597900391,-7624544.620513916,-6703787.326812744,-6994294.166564941,-10655828.475952148,-6651675.224304199,-10196374.893188477,-12623881.340026855,-13108930.587768555,-12319950.103759766,-10258687.973022461,-9528125.762939453,-8051009.178161621,-6572909.355163574,-12544202.80456543,-12645647.048950195,-12887690.544128418,-16579427.719116211,-5877029.895782471,-31569076.538085938,-12550590.515136719,-3358836.889266968
0.38,-87017654.41894531,-88586662.29248047,-68076530.45654297,-40886070.251464844,-55291503.90625,-32245101.928710938,-32262699.127197266,-32011718.75,-40206001.28173828,-29350847.244262695,-30426702.49938965,-23047279.357910156,-23851188.65966797,-27427783.966064453,-29191347.122192383,-30638036.727905273,-23835462.57019043,-33267681.121826172,-22132545.471191406,-21083904.266357422,-7859569.072723389,-14590517.044067383,-26762676.239013672,7683055.877685547,-30362537.384033203,-14171632.766723633,-18541664.123535156,-9359128.952026367,2988625.0495910645,-14442893.981933594,-20686935.424804688,-27524934.768676758,8429981.231689453,-14716889.381408691,-11001070.022583008,-17716543.197631836,-140169.75462436676,-13250258.445739746,-6501589.775085449,-3118369.8177337646,-3802588.2244110107,-619046.0920333862,-1662194.9672698975,-1876378.7746429443,-5180793.285369873,-5378258.228302002,-10003106.117248535,-9440712.928771973,-10122799.87335205,-9019392.967224121,-4045815.944671631,-3233396.7685699463,-2238831.7584991455,-5587179.183959961,-9341277.122497559,-9562947.273254395,-9899646.759033203,-12897963.523864746,-3785405.397415161,-29472717.28515625,-9364670.753479004,3510627.508163452
0.385,-86301628.11279297,-88385459.89990234,-68841880.79833984,-38944545.74584961,-53072856.90307617,-30439374.923706055,-30517374.03869629,-30105741.500854492,-37712661.74316406,-26470687.866210938,-28449228.286743164,-22434328.079223633,-23371810.913085938,-27484003.0670166,-27760650.634765625,-29304878.23486328,-19360517.501831055,-31998180.389404297,-19630897.521972656,-19112079.620361328,-4221082.2105407715,-14205250.74005127,-26756095.88623047,13476954.460144043,-26299491.88232422,-8208760.2615356445,-16418727.87475586,-6223080.635070801,6876312.732696533,-15664466.857910156,-17863292.694091797,-27672393.798828125,13419023.513793945,-8993065.83404541,-6035260.200500488,-12101078.033447266,-326125.0853538513,-15306868.553161621,-3648418.426513672,-652554.2736053467,-1366450.4289627075,5126374.7215271,4631875.038146973,4292139.530181885,947905.6596755981,-4223771.572113037,-10112305.641174316,-6934814.453125,-7866445.064544678,-6622865.200042725,2248050.4512786865,3237429.618835449,3871753.454208374,-4607431.411743164,-6844202.995300293,-7215021.133422852,-7498781.681060791,-9205224.03717041,-1370232.9397201538,-23524427.41394043,-6935058.116912842,8404069.900512695
0.39,-75168029.78515625,-77697113.03710938,-57244667.053222656,-31815641.403198242,-46562702.17895508,-25547258.377075195,-25818050.384521484,-25294181.82373047,-32943672.18017578,-22755687.713623047,-25969375.610351562,-21193580.627441406,-22028837.203979492,-27740077.97241211,-24243930.81665039,-24376327.514648438,-15659016.609191895,-28038278.579711914,-17515537.26196289,-16950632.095336914,-1157195.0912475586,-14414089.20288086,-27260656.356811523,13888032.913208008,-22135938.64440918,-5525896.072387695,-14370992.660522461,-3769287.347793579,11686620.712280273,-17310411.45324707,-16821090.698242188,-27900854.110717773,10845600.128173828,-7483197.212219238,1434277.057647705,-7211309.432983398,-345680.95207214355,-15966412.544250488,-4006064.4149780273,-4030899.5246887207,-4647362.70904541,4356782.43637085,6611061.573028564,6156804.56161499,2164530.038833618,-3978558.5403442383,-11662204.74243164,-8958423.614501953,-9984811.782836914,-8858100.891113281,2125746.488571167,3171283.721923828,3757176.8760681152,-4339452.743530273,-8892620.086669922,-9266534.805297852,-9480310.440063477,-9322926.52130127,-2539031.505584717,-19922140.12145996,-9025045.394897461,6180531.024932861
0.395,-66175323.486328125,-69208526.61132812,-47904510.498046875,-28042070.388793945,-43417705.53588867,-23261970.52001953,-23644979.47692871,-23082265.853881836,-30071182.250976562,-21987947.463989258,-25957340.240478516,-22269239.42565918,-22928491.592407227,-29651569.366455078,-22374097.82409668,-21500129.69970703,-16348493.576049805,-25403509.14001465,-18580633.16345215,-17305795.669555664,-3127846.0025787354,-15829207.420349121,-29389244.079589844,10041212.08190918,-21494159.698486328,-7306651.592254639,-14095773.696899414,-3824101.209640503,14516930.58013916,-19252367.01965332,-19720911.026000977,-29616922.37854004,4192892.074584961,-10401227.951049805,4028308.868408203,-5461087.703704834,-178063.72046470642,-15471985.816955566,-7454805.850982666,-10295782.089233398,-10775139.808654785,-700859.8446846008,3958695.411682129,3605288.26713562,-1106199.1453170776,-3582142.3530578613,-13221679.6875,-12997045.516967773,-13883278.846740723,-12997866.6305542,-2549151.89743042,-1549407.0053100586,-803167.8795814514,-3888662.338256836,-12959975.242614746,-13253196.716308594,-13433817.863464355,-12591689.109802246,-6125614.166259766,-20707529.067993164,-13107193.946838379,181821.01845741272
0.4,-68850662.23144531,-71914154.05273438,-51721752.16674805,-32290485.382080078,-47415622.71118164,-25951570.510864258,-26233385.08605957,-25689668.655395508,-32017391.204833984,-25431356.43005371,-29064876.556396484,-25115617.752075195,-25789289.474487305,-31318742.752075195,-23455339.431762695,-22793220.52001953,-19636514.66369629,-26357170.10498047,-21977569.580078125,-19652845.38269043,-8804641.723632812,-16885719.299316406,-30982149.124145508,7717808.246612549,-23274400.71105957,-10364699.363708496,-14953511.238098145,-5734088.897705078,15446434.020996094,-19670925.14038086,-23053264.617919922,-31118856.43005371,1674495.4586029053,-12574853.897094727,322706.6993713379,-5758764.743804932,-50046.55569791794,-13659212.112426758,-8961953.163146973,-12385370.254516602,-12834064.483642578,-2887079.2388916016,2125340.461730957,2007597.9232788086,-3375354.051589966,-2618236.780166626,-12638931.274414062,-13434536.933898926,-14071456.909179688,-13372273.445129395,-4096158.504486084,-3103811.025619507,-2197729.1107177734,-2991035.6998443604,-13423004.150390625,-13749237.060546875,-13858796.119689941,-14406391.143798828,-7098394.870758057,-21699460.983276367,-13598101.615905762,-2636740.6845092773
0.405,-77821212.76855469,-79295227.05078125,-61080764.77050781,-38887535.095214844,-52881950.37841797,-29682453.155517578,-29751226.4251709,-29286191.940307617,-36103351.59301758,-29769531.25,-32130378.72314453,-26311267.852783203,-27154172.897338867,-30446159.36279297,-25408475.875854492,-24916589.736938477,-21001602.172851562,-28692537.307739258,-24326742.17224121,-20723775.86364746,-12931745.529174805,-16273334.503173828,-29880077.362060547,9188228.607177734,-23200136.184692383,-11381956.100463867,-14976262.092590332,-7105297.088623047,14750729.56085205,-17984695.434570312,-22274929.04663086,-30263107.299804688,5546073.436737061,-10736746.788024902,-3297334.909439087,-6532578.468322754,-56157.52562880516,-10484470.36743164,-6516799.449920654,-8930292.129516602,-9430489.540100098,315430.6709766388,4329270.839691162,4348289.966583252,-1693681.4785003662,-2037209.5108032227,-10179014.205932617,-9521152.49633789,-10007616.996765137,-9359245.300292969,-167693.70436668396,817880.9285163879,1827893.2571411133,-2518383.502960205,-9511620.52154541,-10024666.786193848,-9989433.288574219,-12729932.78503418,-4232282.1617126465,-19877416.610717773,-9720061.302185059,-856467.9026603699
0.41,-81388534.54589844,-79976936.34033203,-62169639.587402344,-39973590.85083008,-52624191.28417969,-30101350.784301758,-30050823.211669922,-29716110.229492188,-37392753.60107422,-31016170.501708984,-31708570.48034668,-24395851.135253906,-25336194.99206543,-27758558.27331543,-26143201.82800293,-25140287.399291992,-19474912.643432617,-29002351.760864258,-23744480.13305664,-18964031.219482422,-12974098.205566406,-14771620.750427246,-27080339.431762695,10916603.088378906,-20203424.45373535,-10186680.793762207,-14081759.452819824,-6691581.249237061,12051197.052001953,-16135046.005249023,-17594661.712646484,-27693126.678466797,9902529.7164917,-7713194.370269775,-1929008.0070495605,-8018988.609313965,-2945.9502547979355,-7271288.871765137,-3990239.8586273193,-5341821.193695068,-5845230.579376221,4284245.491027832,7235636.7111206055,7198818.206787109,1046519.7563171387,-2491078.6151885986,-8223556.5185546875,-5941133.02230835,-6466878.414154053,-5766895.294189453,3547434.5684051514,4390937.328338623,5496109.962463379,-2949545.8602905273,-5912631.034851074,-6563856.601715088,-6404722.213745117,-10468840.599060059,-1795384.6454620361,-17959417.34313965,-6112739.562988281,1471727.6096343994
0.415,-76373016.35742188,-72781745.91064453,-53639041.900634766,-35194149.017333984,-46611438.7512207,-27466876.983642578,-27456020.35522461,-27237916.946411133,-34787422.18017578,-28690605.16357422,-27608499.52697754,-20925565.719604492,-21869316.10107422,-25003328.323364258,-25284357.07092285,-24678462.982177734,-17998298.64501953,-26602977.752685547,-21205022.81188965,-16338685.989379883,-10753017.42553711,-13107706.069946289,-24369821.548461914,10010250.091552734,-17752782.821655273,-8900360.107421875,-14080678.939819336,-5499932.289123535,9303178.787231445,-15368220.329284668,-12323329.92553711,-25023040.771484375,9935546.875,-7488437.175750732,1607976.4366149902,-10302349.090576172,239755.97321987152,-5688532.35244751,-4376993.656158447,-4867008.686065674,-5341047.286987305,4732087.135314941,6500901.222229004,6316125.392913818,1200107.3360443115,-3405238.389968872,-7949009.418487549,-5750227.928161621,-6406591.892242432,-5644380.09262085,2483943.462371826,3128527.6412963867,4261526.584625244,-3699786.901473999,-5732916.355133057,-6288371.562957764,-6125413.89465332,-10486936.569213867,-2767474.1744995117,-19139760.971069336,-5886740.207672119,2094032.5260162354
0.42,-69305091.85791016,-65456138.610839844,-45325195.3125,-30188560.485839844,-40056381.22558594,-24740318.298339844,-24814979.553222656,-24620986.938476562,-31654640.197753906,-25442462.921142578,-22589771.270751953,-17520874.0234375,-18550830.841064453,-21971105.575561523,-23290933.60900879,-25370164.87121582,-18376256.942749023,-23441949.84436035,-18812808.990478516,-15534291.26739502,-8509509.086608887,-10488469.123840332,-21382741.928100586,8498485.565185547,-18745651.245117188,-9334126.472473145,-15701928.13873291,-5090951.442718506,10397062.301635742,-14489738.464355469,-7893290.5197143555,-22055906.295776367,8320329.666137695,-9541790.962219238,1909068.1076049805,-11669527.053833008,443643.182516098,-5963058.948516846,-5149387.359619141,-4356106.758117676,-4915433.406829834,3224416.0175323486,3084961.175918579,2790561.4376068115,-685915.1124954224,-3866872.3106384277,-8102848.052978516,-6942543.983459473,-7661791.801452637,-6907298.564910889,-593608.2005500793,41085.89142560959,1000645.1606750488,-4020878.791809082,-6992497.444152832,-7325395.584106445,-7242391.109466553,-11770916.938781738,-4851615.905761719,-21311401.3671875,-7135264.3966674805,2710674.524307251
0.425,-66162994.384765625,-63347587.58544922,-43794887.54272461,-28906221.389770508,-36755832.67211914,-23684062.957763672,-23776090.621948242,-23525384.9029541,-31220508.575439453,-24043380.737304688,-19856674.194335938,-15020424.842834473,-16227603.912353516,-18442380.905151367,-21165645.599365234,-26841133.11767578,-19160257.33947754,-21685832.977294922,-18228755.950927734,-17138927.459716797,-6858351.707458496,-7275821.685791016,-17843835.830688477,9379593.849182129,-21909767.150878906,-11460538.864135742,-17562191.009521484,-5812302.589416504,15307360.649108887,-13192456.245422363,-4262799.7398376465,-18632501.60217285,9611212.730407715,-10717926.025390625,-1453451.8718719482,-11147462.844848633,281514.31679725647,-7395394.325256348,-3477492.570877075,-1069701.5523910522,-1825020.670890808,3358363.8668060303,1132262.5875473022,820117.7716255188,-2145550.9662628174,-3716439.723968506,-7575479.507446289,-6963396.5492248535,-7639496.803283691,-6957637.786865234,-1003177.4044036865,-146109.4319820404,446361.780166626,-3882893.5623168945,-7080122.470855713,-7348627.56729126,-7310539.245605469,-12044999.122619629,-5181199.550628662,-20419002.532958984,-7280378.341674805,4271208.2862854
0.43,-66529510.498046875,-65177795.41015625,-46859363.5559082,-30693578.720092773,-37096496.58203125,-24252445.220947266,-24307628.631591797,-24027832.03125,-33256149.291992188,-25322694.778442383,-20912103.6529541,-14920895.57647705,-16171672.821044922,-17055784.225463867,-20595083.236694336,-28054681.7779541,-18646816.25366211,-22210899.353027344,-19980127.334594727,-19943420.41015625,-6429477.691650391,-6568646.9078063965,-16510484.69543457,11652091.979980469,-24097076.416015625,-13488607.406616211,-18250930.786132812,-6933396.816253662,18237466.81213379,-14024762.153625488,-3599797.487258911,-17333127.975463867,12278086.66229248,-10408573.150634766,-4605256.5574646,-10771913.528442383,-208628.29685211182,-9730610.847473145,-1913616.8956756592,1489876.9855499268,656348.1688499451,4713820.934295654,1693740.0102615356,1448309.5407485962,-3353583.574295044,-3548057.3177337646,-7454344.272613525,-6943462.84866333,-7574173.927307129,-6943406.105041504,506006.71768188477,1571459.8894119263,1798283.576965332,-3857211.5898132324,-7070911.407470703,-7506476.402282715,-7433907.032012939,-11432320.594787598,-5330418.586730957,-17165283.203125,-7315497.398376465,4687881.946563721
0.435,-66443374.63378906,-66817825.31738281,-49071453.09448242,-32418090.8203125,-39174949.645996094,-25283279.418945312,-25327934.26513672,-25117368.698120117,-34877922.05810547,-27508739.471435547,-24127748.489379883,-17752508.16345215,-18830783.84399414,-19944126.12915039,-21933788.299560547,-28500259.399414062,-16917867.66052246,-24080160.14099121,-22564588.54675293,-22165670.39489746,-7762979.507446289,-9690176.010131836,-19582027.435302734,12178298.950195312,-23816793.44177246,-13115212.440490723,-17579250.33569336,-7545743.942260742,15044163.703918457,-17909856.79626465,-8205606.460571289,-20184854.50744629,11106398.582458496,-10585055.351257324,-4849858.283996582,-12430549.621582031,-617590.5466079712,-12247241.973876953,-4230478.763580322,-981511.116027832,-1613114.9530410767,3912031.650543213,2112793.9224243164,1956539.3924713135,-6048334.121704102,-3890179.6340942383,-9044227.600097656,-8945118.90411377,-9600548.74420166,-8952729.225158691,-245089.73956108093,816731.0953140259,874810.9340667725,-4366358.280181885,-9055139.541625977,-9631742.477416992,-9504925.727844238,-11351539.611816406,-8284528.732299805,-15715056.419372559,-9242649.07836914,2531383.752822876
0.44,-63105930.32836914,-64754623.41308594,-46574951.171875,-30804582.595825195,-39304809.5703125,-24538787.841796875,-24629018.783569336,-24515119.552612305,-33255619.049072266,-27157381.057739258,-25264701.84326172,-20048038.482666016,-20980859.756469727,-23534749.98474121,-22412788.39111328,-27083139.419555664,-14288534.164428711,-24715255.737304688,-22808961.868286133,-21776878.356933594,-8933137.893676758,-12080488.204956055,-23347991.943359375,10686621.66595459,-21485210.418701172,-9714542.388916016,-15608627.319335938,-6973301.887512207,9700477.600097656,-20318725.5859375,-14605246.543884277,-23644882.202148438,6036986.351013184,-11733546.257019043,-2505145.0729370117,-13922001.838684082,-594738.5430335999,-12693819.999694824,-8065712.928771973,-5472725.868225098,-5767766.952514648,502006.76918029785,1043970.1080322266,885785.5796813965,-9300688.743591309,-4381026.268005371,-10969532.012939453,-11232196.807861328,-11900955.200195312,-11234717.36907959,-3600636.2438201904,-2670477.867126465,-2554270.2674865723,-4960245.609283447,-11327153.205871582,-11800773.620605469,-11649538.040161133,-11400968.551635742,-12389310.836791992,-16487628.936767578,-11413867.950439453,278130.9187412262
0.445,-56672203.063964844,-57944049.83520508,-38536701.20239258,-24582029.342651367,-34420738.220214844,-20192798.614501953,-20352993.01147461,-20226892.471313477,-27863195.419311523,-22477695.46508789,-21480339.05029297,-17120164.87121582,-18156652.450561523,-21557428.35998535,-18839456.55822754,-22786390.30456543,-10375993.728637695,-21787675.857543945,-19050266.26586914,-17742689.13269043,-6758357.048034668,-8170827.865600586,-21356594.08569336,10267168.045043945,-17923500.061035156,-5294518.947601318,-12248056.411743164,-5094795.227050781,9138270.378112793,-16480386.734008789,-15038689.613342285,-21591781.616210938,3608118.772506714,-11793724.060058594,1243844.3899154663,-11559808.731079102,-151714.22064304352,-9673851.96685791,-7327044.486999512,-4655825.138092041,-4768296.241760254,-1498719.573020935,812103.807926178,517228.78217697144,-9743992.805480957,-3817426.4430999756,-10440386.772155762,-9792908.668518066,-10346903.800964355,-9736001.968383789,-5052457.809448242,-4201209.06829834,-3912579.5364379883,-4391576.766967773,-9820796.012878418,-10094348.907470703,-9934697.151184082,-9677674.293518066,-12362593.650817871,-15043488.502502441,-9907094.955444336,1806159.496307373
0.45,-50359390.25878906,-50091407.775878906,-29139951.705932617,-16878273.010253906,-26736503.60107422,-13869154.930114746,-14084042.5491333,-13808329.582214355,-21334348.678588867,-16484375.0,-15409610.748291016,-10023709.297180176,-11265664.100646973,-14111663.818359375,-12353186.60736084,-17521394.729614258,-6030666.828155518,-16089059.829711914,-13894049.644470215,-12286956.787109375,-1844741.2252426147,49653.12406420708,-13727945.327758789,12983506.202697754,-14295381.546020508,-2711161.8518829346,-8589026.45111084,-2787743.56842041,13524306.297302246,-9350358.009338379,-7392299.175262451,-14197857.856750488,8203820.22857666,-9585221.290588379,5090473.175048828,-6288405.418395996,427858.6208820343,-5571833.13369751,-1627338.171005249,2291262.38822937,2107298.6125946045,1206841.3496017456,3645840.883255005,3217104.911804199,-6339022.159576416,-1568705.2011489868,-7476559.162139893,-4508987.4267578125,-4862782.001495361,-4328782.081604004,-1674089.1933441162,-835230.1716804504,-396848.29115867615,-2051093.339920044,-4392979.621887207,-4654456.13861084,-4490108.013153076,-5729756.3552856445,-6572935.581207275,-9292861.938476562,-4577788.829803467,7539412.975311279
0.455,-48544231.41479492,-47879817.962646484,-26174903.869628906,-13810301.780700684,-23152484.893798828,-10486333.847045898,-10724181.175231934,-10281141.28112793,-17990079.879760742,-14960116.386413574,-13134820.938110352,-5807916.164398193,-7034615.516662598,-9125565.528869629,-8339591.979980469,-15642620.086669922,-4161098.003387451,-11781456.94732666,-12088548.66027832,-10208607.67364502,631298.3632087708,4178640.842437744,-8598227.500915527,16727970.123291016,-12760917.663574219,-3107630.968093872,-7178373.81362915,-1559755.802154541,16409822.463989258,-7225969.314575195,640510.4994773865,-9301623.344421387,15401111.602783203,-7238018.51272583,6836635.112762451,-3414639.711380005,827167.272567749,-4385281.085968018,2114264.488220215,7314748.764038086,6957581.043243408,6312015.056610107,7625211.238861084,7254820.346832275,-2276901.960372925,1039407.1340560913,-5770294.189453125,-665330.7676315308,-916155.4574966431,-359035.7005596161,3442661.762237549,4224699.4972229,4738041.877746582,632747.1733093262,-467068.94040107727,-885654.3302536011,-740797.0428466797,-1756588.339805603,-307791.97812080383,-3676698.4462738037,-657061.6364479065,13320028.305053711
0.46,-52287467.95654297,-53091594.69604492,-32305290.22216797,-17876346.588134766,-26891031.26525879,-12999346.733093262,-13227052.688598633,-12733353.614807129,-20088794.708251953,-19902824.40185547,-16964889.526367188,-8549421.310424805,-9483455.657958984,-12287109.375,-10455559.730529785,-18686599.731445312,-6497854.709625244,-12430989.265441895,-15326642.990112305,-14010432.243347168,-2571094.036102295,291743.81494522095,-11804354.667663574,17134204.864501953,-14987656.593322754,-5379403.114318848,-9590419.76928711,-2178447.0081329346,14098532.676696777,-12621724.128723145,1021660.566329956,-12475036.62109375,16932270.050048828,-7861173.152923584,5187698.3642578125,-5438193.798065186,873545.2890396118,-6355468.75,-837015.688419342,3966831.4456939697,3519093.9903259277,8111443.519592285,8567765.235900879,8424877.166748047,-924149.6324539185,1765190.839767456,-8006711.006164551,-2669860.1245880127,-3010861.873626709,-2325746.2978363037,4794272.899627686,5441444.396972656,6022412.300109863,1316891.9086456299,-2596503.0193328857,-3067986.7267608643,-2943707.9429626465,-642268.8961029053,-20069.08692419529,-3279697.6566314697,-2586553.8120269775,14223958.969116211
0.465,-57568710.32714844,-59371753.69262695,-40332759.857177734,-24482915.8782959,-32870174.407958984,-18773653.030395508,-18961025.23803711,-18556871.41418457,-25494665.145874023,-26799163.818359375,-22541276.931762695,-13921545.028686523,-14557610.511779785,-19557884.216308594,-16715061.18774414,-23207777.02331543,-10808478.355407715,-17234418.869018555,-20721433.639526367,-20663108.825683594,-7920640.468597412,-5983925.819396973,-19242006.301879883,12343316.078186035,-19897333.1451416,-7876705.646514893,-14438658.714294434,-4021925.926208496,9930808.067321777,-18488388.061523438,-4382461.071014404,-19691713.333129883,10851724.624633789,-11716928.482055664,2136063.575744629,-9010747.909545898,650608.3011627197,-7524054.527282715,-6463700.771331787,-3991400.957107544,-4428809.16595459,4268948.078155518,5322910.308837891,5330426.216125488,-1848184.4663619995,-7795.6621535122395,-11941582.679748535,-8289106.369018555,-8823519.706726074,-8030172.348022461,1021356.9402694702,1552358.2696914673,2263971.0903167725,-580326.7359733582,-8453001.022338867,-8801735.877990723,-8622234.344482422,-3275890.827178955,-5960180.282592773,-6864027.976989746,-8214206.695556641,9434583.66394043
0.47,-60011611.93847656,-60516727.447509766,-42230518.34106445,-27531560.89782715,-34740112.3046875,-22912883.758544922,-23040449.142456055,-22780103.68347168,-29815980.911254883,-29918323.516845703,-24543268.20373535,-15561813.354492188,-16154941.55883789,-22901731.491088867,-22376882.553100586,-25545879.364013672,-13287896.156311035,-22078697.204589844,-24537353.515625,-24711093.90258789,-9281864.166259766,-7580602.169036865,-22695848.46496582,5590517.997741699,-24063817.977905273,-9780260.08605957,-18615539.55078125,-5843777.656555176,8510873.794555664,-17765537.26196289,-7345593.452453613,-23023387.908935547,3716858.8638305664,-15688425.064086914,989293.098449707,-10663175.582885742,456473.4399318695,-5364073.753356934,-7788743.495941162,-7671149.730682373,-8104846.954345703,-1253341.6748046875,1334211.1110687256,1244724.5121002197,-2372109.889984131,-2666511.058807373,-13101265.907287598,-11271419.525146484,-11957730.293273926,-11160919.189453125,-3717241.2872314453,-3172565.698623657,-2366647.0050811768,-3291187.047958374,-11530892.372131348,-11823304.176330566,-11516794.204711914,-7478942.394256592,-12308166.50390625,-9021669.387817383,-11291719.436645508,3334331.98928833
0.475,-59979763.03100586,-58672771.45385742,-39824882.50732422,-26641881.942749023,-33301803.588867188,-23797990.798950195,-23869430.541992188,-23685783.38623047,-30662170.41015625,-28656034.469604492,-22943651.19934082,-13545537.948608398,-14339844.703674316,-20626064.30053711,-24989538.192749023,-26234699.249267578,-12954599.380493164,-23840564.727783203,-25623491.287231445,-23813972.47314453,-5380434.989929199,-5053143.02444458,-20376853.942871094,2341060.6384277344,-25022945.404052734,-10879662.51373291,-19985826.49230957,-6730774.879455566,10057081.22253418,-12591154.098510742,-4891910.552978516,-20820634.841918945,2374361.276626587,-16599895.477294922,2045996.6659545898,-11702004.432678223,521584.689617157,-2237347.6028442383,-4262730.598449707,-4458478.927612305,-4948714.256286621,-2988844.633102417,376531.0347080231,37165.47042131424,-1736813.3068084717,-4594775.676727295,-10739535.331726074,-9185105.323791504,-9911957.740783691,-9181706.428527832,-4850918.292999268,-4156868.4577941895,-3503588.6764526367,-5124903.678894043,-9308824.53918457,-9754998.207092285,-9387382.507324219,-9633457.18383789,-14136679.649353027,-7582271.575927734,-9288928.031921387,949353.9333343506
0.48,-60192173.00415039,-59176563.26293945,-39956714.63012695,-25599788.665771484,-33231094.360351562,-23050914.764404297,-23104394.912719727,-22839471.8170166,-28885541.915893555,-26539131.16455078,-21212970.733642578,-12290498.733520508,-13327247.619628906,-17523347.854614258,-25002943.03894043,-27166419.982910156,-11698959.350585938,-22538818.359375,-24687604.904174805,-19796588.897705078,-406972.82552719116,-3520125.6275177,-17128980.63659668,4573071.9566345215,-23135894.775390625,-10767047.882080078,-18367412.567138672,-6297429.56161499,12248511.31439209,-10113592.147827148,-1663969.0399169922,-17783071.517944336,6547980.308532715,-14258964.538574219,2908627.0332336426,-14357813.835144043,741763.710975647,-1917061.9249343872,-1399308.0854415894,103601.52274370193,-411633.4021091461,-98215.252161026,2489998.5790252686,1936920.6428527832,-1655882.5969696045,-5479265.6898498535,-8511525.15411377,-5724997.520446777,-6364563.465118408,-5725112.9150390625,-2108060.836791992,-1256566.882133484,-1013831.377029419,-5886237.621307373,-5640780.448913574,-6253180.980682373,-5973774.9099731445,-7687793.731689453,-11924621.58203125,-4860989.093780518,-5803456.783294678,2805281.639099121
0.485,-60172027.587890625,-60620338.439941406,-42073909.759521484,-25556550.979614258,-34374485.01586914,-21560884.475708008,-21647239.685058594,-21155515.670776367,-26417310.71472168,-25624496.459960938,-20561729.431152344,-12545669.555664062,-13694994.926452637,-16434812.545776367,-23298126.220703125,-27262414.932250977,-10783896.446228027,-19928050.994873047,-22394374.84741211,-15449500.08392334,1793265.8195495605,-3846699.7146606445,-15920061.111450195,8910016.059875488,-20133035.65979004,-8989285.469055176,-15033134.460449219,-4768044.471740723,13968420.98236084,-11932281.494140625,-1085348.6061096191,-16649204.25415039,11285034.1796875,-10983860.969543457,2911781.7878723145,-16540634.155273438,802364.4685745239,-4740188.5986328125,-2340878.0097961426,1280856.4901351929,887428.5221099854,3990763.9026641846,5220641.136169434,4549713.134765625,-3080574.7509002686,-4932077.884674072,-8764901.161193848,-4584616.184234619,-5015608.310699463,-4515326.023101807,1593514.5616531372,2431648.4928131104,2310377.359390259,-5338162.422180176,-4387857.913970947,-4966118.335723877,-4789937.0193481445,-2667821.4073181152,-8746355.056762695,-2214761.49559021,-4545058.727264404,5796108.722686768
0.49,-57245662.689208984,-57026176.45263672,-39365959.16748047,-24199758.529663086,-32505081.176757812,-18837762.8326416,-18969064.712524414,-18272466.6595459,-24592741.012573242,-25050083.16040039,-19595039.36767578,-11036552.429199219,-12131669.044494629,-15130678.176879883,-20625255.584716797,-24698802.947998047,-9820244.789123535,-17747068.405151367,-19791675.567626953,-12539432.525634766,1255055.9043884277,-2569454.1931152344,-14618279.457092285,10691905.02166748,-17220899.58190918,-6183384.418487549,-12343138.694763184,-3277692.3179626465,14823376.655578613,-12974713.325500488,-364909.6190929413,-15229461.669921875,13796087.265014648,-8914316.177368164,3967597.484588623,-15015269.27947998,567892.0745849609,-7933471.6796875,-4143802.6428222656,993795.7525253296,823730.6475639343,6666610.240936279,7267683.029174805,6554856.777191162,-4546238.422393799,-1828925.9672164917,-9062888.145446777,-4378873.825073242,-4574632.64465332,-4269806.385040283,4232216.835021973,4832614.898681641,4656320.095062256,-2302496.6716766357,-4187069.892883301,-4633037.567138672,-4404301.643371582,2753387.928009033,-5702974.319458008,2010270.357131958,-4264498.710632324,8257563.591003418
0.495,-52423671.72241211,-48583171.84448242,-31534366.607666016,-21300647.735595703,-27809076.3092041,-16019618.98803711,-16147678.37524414,-15486352.920532227,-24503870.010375977,-24590463.638305664,-18640905.380249023,-7537678.7185668945,-8477291.107177734,-11951140.403747559,-18736690.521240234,-21758399.963378906,-9182089.805603027,-17408508.30078125,-18957973.48022461,-12331897.735595703,-103160.21740436554,640940.1297569275,-11552897.453308105,8695600.509643555,-15431951.522827148,-4645874.977111816,-12831669.807434082,-3254803.6575317383,13865286.827087402,-10162877.082824707,3535736.7992401123,-12002554.893493652,14718787.19329834,-8581735.610961914,6224927.90222168,-11807942.390441895,220802.02400684357,-9120642.66204834,-3087997.9133605957,2982043.981552124,2929084.7778320312,8045825.004577637,8788906.09741211,8159917.831420898,-4412955.760955811,3436348.1998443604,-6228403.568267822,-2114375.8296966553,-2218221.1875915527,-2070451.7364501953,5698348.522186279,6024433.612823486,5962031.841278076,3041417.121887207,-2012515.3064727783,-2440493.34526062,-2091417.0742034912,6438816.547393799,-2418285.608291626,7900672.435760498,-2092421.7700958252,11181720.733642578
