time,Fp1,Fpz,Fp2,AF3,AF4,F7,F5,F3,F1,Fz,F2,F4,F6,F8,FT7,FC5,FC3,FC1,FCz,FC2,FC4,FC6,FT8,T7,C5,C3,C1,Cz,C2,C4,C6,T8,TP7,CP5,CP3,CP1,CPz,CP2,CP4,CP6,TP8,P7,P5,P3,P1,Pz,P2,P4,P6,P8,PO7,PO5,PO3,POz,PO4,PO6,PO8,CB1,O1,Oz,O2,CB2
0.0,-681095.2425003052,-676537.5733375549,-1405949.592590332,328684.4491958618,-601853.07264328,-332686.30504608154,-351986.3486289978,-358788.96713256836,56887.98800110817,-162016.3470506668,-51445.59219479561,-1379911.7803573608,-1364049.5538711548,-1355200.8867263794,66850.01403093338,74342.0347571373,333406.6569805145,236575.94621181488,-65877.5344491005,-324851.9003391266,-1659749.3886947632,-1395331.5019607544,-1338003.396987915,248260.45334339142,476381.21247291565,-357112.4076843262,415639.9071216583,172728.3000946045,-119989.94648456573,-1217499.4945526123,-1581981.1820983887,-1334963.321685791,418659.5380306244,438586.562871933,-271110.6836795807,-1149637.1030807495,-69831.55757188797,-1019899.845123291,-1231849.4319915771,-1306988.5969161987,-1334352.0164489746,-228686.76483631134,-143553.39109897614,-94893.41825246811,-602298.7961769104,-169621.10996246338,-1123316.2879943848,-874778.3303260803,-929407.000541687,-891283.5121154785,-237202.07810401917,-201561.838388443,-205924.07882213593,-178869.21763420105,-933645.5464363098,-912691.9507980347,-880618.4530258179,-483406.84175491333,-445613.5928630829,-764021.7542648315,-915164.2918586731,-737907.8269004822
0.005,-4000315.6661987305,-12694698.333740234,-11064255.714416504,-8776670.455932617,-13586556.434631348,473357.9456806183,-257404.1187763214,-352566.51043891907,-9590949.058532715,-14877617.835998535,-13168534.278869629,-9672225.952148438,-8924185.752868652,-6292262.077331543,12974000.930786133,6623904.228210449,894726.0975837708,-5699184.417724609,-12132926.940917969,-13623615.264892578,-15272238.731384277,-8053644.180297852,-5497278.213500977,17687213.897705078,4606379.985809326,4433382.987976074,-1360151.1716842651,-5292006.492614746,-8470080.375671387,-11193856.239318848,-8951364.517211914,-5807054.51965332,17923450.469970703,5655225.2769470215,5371878.147125244,4153733.730316162,-1963930.7260513306,-8890166.282653809,-4774319.648742676,-5043951.034545898,-5843657.01675415,10317446.7086792,10009109.497070312,11054293.632507324,9207289.695739746,8603662.490844727,-2004173.755645752,-2372109.1747283936,-4156117.9161071777,-2906044.7216033936,7602158.069610596,8802704.811096191,9041121.482849121,8529996.871948242,-4046638.011932373,-3442366.361618042,-2780035.0189208984,2988999.366760254,4224912.643432617,934263.0505561829,-3539450.4070281982,432663.8877391815
0.01,-6392106.056213379,-18549808.502197266,-17013381.958007812,-11993803.024291992,-20957483.291625977,531214.1180038452,-319779.75368499756,-379677.08706855774,-12523995.399475098,-20421867.37060547,-19535758.97216797,-15725752.830505371,-14663688.659667969,-11330985.069274902,15867962.837219238,9631318.092346191,2596996.068954468,-7115899.085998535,-17021230.697631836,-20576622.009277344,-23827590.942382812,-14337768.5546875,-10201819.41986084,22076715.46936035,5502431.869506836,6017147.541046143,-997825.8013725281,-7909888.744354248,-12837299.346923828,-17949752.807617188,-15972264.289855957,-10540667.533874512,21769664.764404297,6591930.389404297,7273964.881896973,6293313.503265381,-2404912.9486083984,-12158695.220947266,-9364005.088806152,-10340999.603271484,-11295499.801635742,11059366.226196289,12396442.413330078,13726844.787597656,11540979.385375977,9416100.50201416,-5712455.749511719,-8084712.982177734,-10273843.765258789,-8842564.582824707,7053012.371063232,8647835.731506348,8982317.924499512,9247367.858886719,-10268568.03894043,-9476695.06072998,-8514883.041381836,-1107206.4638137817,2414541.721343994,-3855520.486831665,-9678071.022033691,-4283089.160919189
0.015,-7982956.409454346,-18289558.41064453,-18233785.62927246,-10760862.350463867,-21479942.321777344,-877018.15366745,-1366691.9469833374,-1383818.9840316772,-10348962.783813477,-17632038.116455078,-18882863.998413086,-17490320.205688477,-16511981.964111328,-13636871.337890625,10331752.77709961,8270190.238952637,3355817.3179626465,-5597519.874572754,-14857163.429260254,-20381057.739257812,-25605455.39855957,-17177608.489990234,-12614825.248718262,15940079.689025879,3279693.126678467,3483162.8799438477,-294385.701417923,-7464130.878448486,-12668249.130249023,-19472887.03918457,-19351232.528686523,-12782830.238342285,15697127.342224121,4331859.588623047,4836496.353149414,5160964.9658203125,-1738869.7862625122,-11092190.742492676,-12247157.096862793,-13512897.491455078,-14219181.060791016,5909748.554229736,9165983.200073242,10218331.336975098,7682300.567626953,5021618.843078613,-9822493.553161621,-13018049.240112305,-14639893.531799316,-13689379.692077637,2060408.8306427002,3427417.516708374,3658090.591430664,4788487.434387207,-14822777.74810791,-14186045.64666748,-13241485.595703125,-7891754.150390625,-2048061.3708496094,-10260948.181152344,-14470122.337341309,-10396220.207214355
0.02,-8870734.214782715,-16526954.650878906,-16804080.963134766,-10803851.127624512,-18822580.337524414,-2816149.2347717285,-3117411.6134643555,-3274232.6259613037,-9795606.61315918,-14873064.994812012,-16597944.259643555,-15541924.476623535,-14692172.050476074,-11405103.68347168,6796146.869659424,5480741.024017334,1067547.32131958,-5998085.498809814,-11860650.062561035,-17622098.922729492,-23287887.573242188,-14900052.070617676,-10578262.329101562,12711257.934570312,1646893.3820724487,-248320.84774971008,-2116735.4583740234,-6143314.838409424,-10890418.05267334,-16842895.5078125,-16830938.3392334,-10643862.7243042,14184820.175170898,3826005.220413208,1729251.8615722656,3362354.9938201904,-1365591.049194336,-9458910.942077637,-10382455.825805664,-10411211.013793945,-11114645.004272461,6367472.6486206055,8786813.735961914,9673160.552978516,5251124.858856201,4408578.872680664,-9365668.296813965,-9622300.148010254,-11015377.044677734,-10139242.172241211,3121234.893798828,4322656.631469727,4336041.9273376465,4281822.204589844,-11166778.564453125,-10681491.85180664,-9822669.02923584,-6510600.0900268555,-247330.59108257294,-8299267.768859863,-10990036.010742188,-8916499.137878418
0.025,-7853953.838348389,-15972661.018371582,-15791109.085083008,-13526866.912841797,-17837566.375732422,-2172533.0352783203,-2862619.8768615723,-3273069.6201324463,-13044050.216674805,-17093681.33544922,-17203168.869018555,-14164302.825927734,-13272979.736328125,-8773082.733154297,11883942.604064941,5886076.4503479,-1668259.5014572144,-9048560.14251709,-12671992.301940918,-17125953.674316406,-21868221.282958984,-11894004.821777344,-7983086.585998535,19350347.5189209,4320291.042327881,-413253.3669471741,-5304031.848907471,-5926551.818847656,-10808506.01196289,-14484158.515930176,-12511406.898498535,-8059369.087219238,22445844.650268555,7729129.791259766,2809896.230697632,3372589.588165283,-1753122.8065490723,-9781083.106994629,-6305467.128753662,-4324732.780456543,-5392630.577087402,15063681.602478027,14564064.025878906,15651216.506958008,8363434.791564941,9968856.811523438,-4237242.221832275,-498599.0524291992,-2390538.9308929443,-1011531.2337875366,12118104.934692383,13440707.206726074,13276555.061340332,10183889.389038086,-2255300.283432007,-1745750.069618225,-922176.8975257874,3789236.545562744,8648915.29083252,2036544.5613861084,-2048041.3436889648,-110284.80529785156
0.03,-3451653.242111206,-15038020.133972168,-16514215.469360352,-14157650.9475708,-20018486.02294922,3556292.0570373535,2180547.2373962402,1683808.3267211914,-15192078.590393066,-20768800.735473633,-19981092.45300293,-17220069.885253906,-16250577.926635742,-12103826.522827148,22400423.049926758,11637713.432312012,94009.73469018936,-10372695.922851562,-15772859.573364258,-19554800.033569336,-24438970.5657959,-14400764.465332031,-11263593.673706055,29888881.68334961,10917518.615722656,4416667.938232422,-5898326.873779297,-6730565.547943115,-13065386.772155762,-16453907.012939453,-13557891.845703125,-11283894.538879395,31726362.228393555,13590057.373046875,8715668.678283691,5500665.187835693,-2150624.0367889404,-11626944.541931152,-6208304.882049561,-3460233.9267730713,-4785032.272338867,23137300.491333008,21305631.637573242,22593358.993530273,13426762.580871582,14868379.592895508,-458438.2772445679,3427211.284637451,1116197.943687439,2805058.002471924,20051116.943359375,21437318.801879883,21188339.233398438,15492506.980895996,1512800.3358840942,2114556.312561035,2859718.5611724854,11957018.852233887,15758728.981018066,9472013.473510742,1760141.8495178223,5763598.442077637
0.035,3335278.7494659424,-12248244.285583496,-18325725.555419922,-9213676.452636719,-23179002.76184082,12749331.4743042,10949149.131774902,10617490.768432617,-11931686.401367188,-20515565.872192383,-21594213.485717773,-23635799.407958984,-22756460.189819336,-21706195.831298828,31419811.248779297,20013797.760009766,6580076.694488525,-7181909.561157227,-17075494.76623535,-22180830.001831055,-29589466.094970703,-22307826.99584961,-20878036.499023438,35760334.01489258,16982475.28076172,10329400.062561035,-3046324.4915008545,-7346684.93270874,-15690351.486206055,-22087072.372436523,-21449945.4498291,-20722555.16052246,33773532.86743164,17287343.978881836,14773291.58782959,8308093.070983887,-2035778.522491455,-13559986.114501953,-11790695.190429688,-10349165.916442871,-11549686.431884766,23576025.009155273,23376718.521118164,24543672.561645508,15113507.270812988,13553742.408752441,-2511309.862136841,-2401369.333267212,-4470597.743988037,-3053117.275238037,19906742.095947266,21120479.583740234,20790449.142456055,14335984.230041504,-4046831.6078186035,-3401148.796081543,-2826438.4269714355,10092740.058898926,14417782.7835083,6258813.858032227,-3909180.4027557373,2169863.700866699
0.04,8223844.528198242,-10528700.828552246,-21032762.52746582,-2661496.162414551,-25602888.107299805,20064928.05480957,18287368.774414062,18089044.57092285,-6272437.09564209,-17441341.400146484,-21510055.541992188,-29357713.69934082,-28686235.427856445,-31425559.997558594,35936252.59399414,25494264.602661133,11786769.86694336,-2893781.4235687256,-16155483.24584961,-23137813.568115234,-33420829.77294922,-29472269.05822754,-30633926.391601562,36098217.01049805,18297389.98413086,12668647.766113281,-490607.97691345215,-7612017.1546936035,-16994819.64111328,-26930665.969848633,-30357391.357421875,-30360391.61682129,31338928.22265625,17436712.26501465,16511220.932006836,10226521.492004395,-1830195.1885223389,-14788382.530212402,-17739093.780517578,-18652164.459228516,-19653511.04736328,19800695.419311523,21664234.161376953,22579933.166503906,13519803.047180176,9679338.455200195,-6880308.628082275,-10349494.934082031,-11946368.217468262,-10895837.783813477,15238652.229309082,16324022.29309082,15875692.367553711,10222911.834716797,-11629477.500915527,-10974334.716796875,-10512241.36352539,3127483.84475708,8286657.333374023,-2063742.3992156982,-11638938.903808594,-5455900.192260742
0.045,6728618.144989014,-14793835.639953613,-26232774.73449707,-2094265.6993865967,-28906463.623046875,20837333.67919922,19265914.916992188,18897756.576538086,-5088530.540466309,-17681308.74633789,-22771873.474121094,-33184577.94189453,-32605541.229248047,-37217399.59716797,36582118.98803711,24454423.904418945,10299162.864685059,-3078469.753265381,-16602949.142456055,-23651119.232177734,-34295951.84326172,-32561840.057373047,-36354602.8137207,34864841.46118164,14468332.290649414,11206839.561462402,-1471298.9330291748,-8654254.913330078,-17836297.9888916,-28607124.32861328,-35392047.88208008,-36145347.595214844,30960987.091064453,15357025.146484375,14648302.07824707,10627172.470092773,-2011981.48727417,-15275492.668151855,-19105449.676513672,-22352993.01147461,-23445312.5,18226398.468017578,20429674.14855957,21353446.96044922,12964517.593383789,10354738.235473633,-6561551.570892334,-12216350.555419922,-13735265.731811523,-12693502.426147461,13099601.745605469,14334127.426147461,13883694.648742676,10488363.265991211,-13467560.768127441,-12827979.08782959,-12263975.143432617,-1216.612639836967,4799779.415130615,-5574954.986572266,-13473468.780517578,-8560881.614685059
0.05,-1479806.661605835,-25498090.744018555,-34746234.89379883,-9702251.434326172,-35154254.91333008,15066836.3571167,13610339.164733887,12928430.557250977,-10483887.672424316,-23596134.185791016,-27222238.540649414,-37446075.439453125,-36751422.88208008,-41639427.185058594,33728427.88696289,18125848.7701416,3578133.5830688477,-8361735.3439331055,-20426338.19580078,-25698085.78491211,-34421562.19482422,-34843662.26196289,-40630702.97241211,33046390.533447266,8327516.555786133,9036235.809326172,-4712527.275085449,-10885148.048400879,-20208217.62084961,-29470933.91418457,-38265445.709228516,-40550056.45751953,32357936.85913086,12387850.761413574,12938411.712646484,9850378.99017334,-2341727.4951934814,-15568445.205688477,-17682485.580444336,-23319271.087646484,-24702562.33215332,18525999.069213867,20652072.90649414,21906776.428222656,15218770.980834961,15799921.035766602,-800893.1875228882,-10294290.542602539,-12061594.009399414,-10884703.636169434,13819342.613220215,15299890.518188477,15134612.083435059,15726567.268371582,-11792888.641357422,-11234567.642211914,-10434388.160705566,880755.364894867,4920411.109924316,-3670943.021774292,-11634091.3772583,-7431486.129760742
0.055,-11351425.170898438,-36471343.994140625,-43262989.04418945,-19344959.259033203,-42064041.13769531,7459185.600280762,6011476.993560791,5286674.022674561,-17308719.635009766,-30055252.075195312,-32004474.639892578,-42480220.794677734,-41606945.0378418,-47446743.01147461,27979341.506958008,11369641.304016113,-2076793.6706542969,-13688259.12475586,-24638090.133666992,-28515224.45678711,-35891014.099121094,-39159267.42553711,-46406444.54956055,28943727.493286133,3114181.2801361084,7916484.355926514,-6831550.121307373,-12750808.715820312,-23682399.74975586,-31834402.084350586,-41936122.89428711,-46352138.51928711,30908807.7545166,9157634.735107422,12713253.97491455,8571455.001831055,-2369134.6645355225,-16226528.16772461,-17934936.5234375,-26085834.503173828,-27618745.803833008,16367326.736450195,19841552.734375,21426357.26928711,17009801.864624023,19125471.115112305,3690417.528152466,-11768491.744995117,-13650835.990905762,-12537872.314453125,12624664.306640625,14193472.862243652,14466965.675354004,19165849.685668945,-13470262.52746582,-13004261.97052002,-12078005.79071045,-737865.5076026917,3805812.120437622,-3868807.554244995,-13130783.081054688,-8702134.132385254
0.06,-16489072.799682617,-40297130.5847168,-45986511.23046875,-23133802.41394043,-43937187.19482422,3296570.5394744873,1858640.193939209,1466824.7699737549,-19491548.538208008,-30718690.872192383,-32490329.74243164,-44158561.70654297,-43203361.51123047,-51069656.37207031,22327960.968017578,8234614.372253418,-2740659.9521636963,-14524502.754211426,-24854042.053222656,-28968971.252441406,-36977611.54174805,-41777324.67651367,-50184829.71191406,23446825.02746582,460700.4523277283,6816608.428955078,-6917856.216430664,-12350665.092468262,-24639142.990112305,-33098892.211914062,-43726284.02709961,-50082229.61425781,26206651.68762207,6335889.3394470215,11845374.10736084,7050084.114074707,-2162962.4366760254,-16558010.10131836,-19436487.197875977,-29215177.536010742,-30637556.076049805,11621809.959411621,16493936.538696289,18080686.569213867,14577905.654907227,15531772.61352539,1823343.276977539,-16683540.344238281,-18418798.446655273,-17459218.978881836,8043397.903442383,9594801.902770996,10062253.952026367,15772202.491760254,-18431692.123413086,-17921621.322631836,-17091041.564941406,-6559578.418731689,-765826.165676117,-9525859.832763672,-18026102.06604004,-14030306.816101074
0.065,-14880754.470825195,-35355571.74682617,-40766006.46972656,-19383722.30529785,-38353805.54199219,3822137.1173858643,2456481.456756592,2397949.695587158,-16583883.285522461,-25565279.006958008,-27940034.866333008,-39274345.39794922,-38328876.49536133,-47099784.85107422,19892059.326171875,8662298.202514648,-55573.269724845886,-11667414.665222168,-20883872.985839844,-25577045.440673828,-34634601.59301758,-37509422.302246094,-46397430.419921875,20020969.39086914,182555.77981472015,4758989.8109436035,-6632857.322692871,-9895586.013793945,-20359601.974487305,-29126838.68408203,-38971988.677978516,-46317577.36206055,22129320.14465332,4516486.167907715,8912545.204162598,5298960.208892822,-2081401.3481140137,-14899633.407592773,-18031763.076782227,-27494028.091430664,-28710273.74267578,8322853.088378906,11833428.382873535,13116544.723510742,8684855.461120605,7866086.959838867,-3578952.5508880615,-18423599.243164062,-19978437.423706055,-19024148.94104004,3573047.161102295,5174638.748168945,5376490.592956543,8135446.548461914,-20153469.08569336,-19463712.692260742,-18808345.794677734,-10842136.38305664,-5328761.577606201,-15377023.696899414,-19828323.364257812,-17810014.724731445
0.07,-9866609.573364258,-26695669.174194336,-32003334.045410156,-12876812.934875488,-29832672.119140625,6248706.340789795,5030569.553375244,4925542.831420898,-12759627.342224121,-20176776.885986328,-22550287.2467041,-31038639.068603516,-30117902.755737305,-37076229.095458984,20701311.111450195,10071403.503417969,2303069.591522217,-9193910.598754883,-16974945.068359375,-20972276.68762207,-29754173.278808594,-28283462.524414062,-36406444.54956055,20377426.147460938,1400055.6468963623,2929981.7085266113,-6875154.495239258,-7731636.524200439,-13454703.330993652,-21387678.146362305,-29602075.576782227,-36441062.927246094,20988815.307617188,4026486.396789551,6081804.7523498535,3985665.5597686768,-2172595.739364624,-11293980.598449707,-13306405.067443848,-20813745.498657227,-21906162.26196289,8679163.932800293,8261698.7228393555,9272841.453552246,4029333.1146240234,2591860.055923462,-6429456.2339782715,-14307464.599609375,-15809910.774230957,-14827898.979187012,2501871.109008789,4183851.2420654297,3908472.776412964,2754576.4446258545,-16016977.310180664,-15228095.054626465,-14635934.829711914,-8747658.729553223,-5655574.321746826,-15401243.209838867,-15850775.718688965,-15661536.21673584
0.075,-5174343.585968018,-20177659.98840332,-25828504.56237793,-8202733.039855957,-24858221.05407715,8686135.292053223,7630299.091339111,7191490.650177002,-10738570.213317871,-18726411.819458008,-20600908.279418945,-25965255.737304688,-25086519.241333008,-28549303.05480957,23927055.35888672,12026478.76739502,3559976.100921631,-9013474.464416504,-16705410.00366211,-19264520.6451416,-26829372.40600586,-21563253.40270996,-27794153.213500977,24216550.827026367,4269438.743591309,3712284.0881347656,-6377374.649047852,-7737606.525421143,-10133003.234863281,-16503269.19555664,-23161834.716796875,-27898437.5,23235549.926757812,6110396.385192871,7174994.945526123,4514464.378356934,-2217961.7881774902,-8633932.113647461,-9806546.211242676,-14774661.06414795,-15857518.196105957,12268690.10925293,8508324.62310791,9534073.829650879,4500607.490539551,3023393.6309814453,-5227383.136749268,-8771299.362182617,-10323669.43359375,-9504647.254943848,5629306.793212891,7268262.86315918,6713887.2146606445,3169853.687286377,-10461301.803588867,-9784390.449523926,-9151852.60772705,-1505761.0273361206,-957497.1199035645,-9496904.373168945,-10396698.951721191,-9309889.793395996
0.08,-616080.641746521,-17066148.75793457,-23659814.834594727,-5063836.097717285,-24646709.442138672,13163309.097290039,12097418.785095215,11451763.153076172,-9047229.766845703,-20089588.165283203,-22003068.923950195,-26212818.145751953,-25420709.60998535,-25639934.539794922,31141635.89477539,17097478.86657715,6008491.992950439,-9196289.0625,-19273626.32751465,-21408666.610717773,-27889841.079711914,-20824676.513671875,-24833017.349243164,31874206.54296875,9939348.220825195,8414887.428283691,-3878800.630569458,-9370819.091796875,-13268503.189086914,-17878541.946411133,-23002088.54675293,-24870277.404785156,30540996.551513672,12547682.762145996,13625661.849975586,7455411.911010742,-2160900.354385376,-9393430.709838867,-10135689.735412598,-12437047.004699707,-13548413.276672363,19338809.967041016,14661258.697509766,15850467.681884766,9785231.590270996,7642100.3341674805,-3292644.97756958,-5683880.805969238,-7347133.636474609,-6757719.993591309,12986080.169677734,14479325.294494629,13940543.174743652,7923923.015594482,-7372303.009033203,-6839607.715606689,-6228178.50112915,7327234.268188477,6881431.579589844,-1073982.4771881104,-7247290.134429932,-2149505.615234375
0.085,5549865.72265625,-14892894.744873047,-22423154.830932617,-980798.7213134766,-25170669.555664062,21302085.876464844,19923604.96520996,19400102.615356445,-5644965.171813965,-20819898.60534668,-23439029.693603516,-27998374.938964844,-27272579.193115234,-25355922.69897461,42391727.447509766,25495815.27709961,10676456.451416016,-7602712.154388428,-21219785.690307617,-24355821.60949707,-29802062.98828125,-22342409.133911133,-24570905.685424805,42231380.462646484,17417346.954345703,15341344.833374023,-371493.6077594757,-10589258.193969727,-18822557.44934082,-21659099.578857422,-24884567.260742188,-24476142.88330078,42418197.63183594,21702432.63244629,22273645.401000977,11142912.864685059,-2120454.5497894287,-12194203.37677002,-11617683.410644531,-11310924.530029297,-12384614.944458008,29077764.5111084,24644624.710083008,25827259.063720703,15896021.842956543,12717671.394348145,-3191309.928894043,-3897785.9020233154,-5707849.979400635,-5103886.127471924,22811931.610107422,24208801.26953125,23750740.05126953,13068755.149841309,-5596328.7353515625,-5003427.028656006,-4532071.113586426,15308347.702026367,14704353.332519531,6871069.431304932,-5293262.481689453,4433685.302734375
0.09,11649173.736572266,-12051266.67022705,-19986417.770385742,3470906.4960479736,-23475509.643554688,28687601.08947754,26904762.268066406,26624462.127685547,-1950631.1416625977,-19618009.567260742,-22708297.729492188,-27414562.225341797,-26650197.982788086,-24095802.307128906,50747039.794921875,31366024.017333984,14544991.493225098,-5345484.733581543,-20473049.16381836,-24750450.134277344,-28999418.258666992,-22013902.66418457,-23324356.079101562,48949352.2644043,21676076.889038086,19702432.63244629,1578192.114830017,-10177782.05871582,-20586145.401000977,-22742034.912109375,-24712198.25744629,-23151178.35998535,51091339.111328125,26854162.216186523,27030042.64831543,12797374.725341797,-2102653.741836548,-13677394.86694336,-11539998.054504395,-9695748.329162598,-10629847.526550293,35652614.59350586,31036148.071289062,32018062.591552734,18374744.415283203,14957118.98803711,-4268658.638000488,-2087533.4739685059,-3998391.86668396,-3123554.468154907,29308746.337890625,30678689.95666504,30196481.704711914,15116780.281066895,-3763890.266418457,-2974866.8670654297,-2612636.089324951,19627321.243286133,18519105.911254883,11373003.005981445,-3325057.029724121,8686101.913452148
0.095,13574444.770812988,-9469547.271728516,-17387380.599975586,4991796.016693115,-20898721.69494629,28461467.742919922,26594284.057617188,26393100.73852539,-1123956.322669983,-17760311.126708984,-20564498.901367188,-24808673.858642578,-23962348.93798828,-22838558.197021484,48062030.79223633,28733695.98388672,13901251.792907715,-5173044.681549072,-17824888.229370117,-22342691.42150879,-26252414.70336914,-20725961.685180664,-22051614.76135254,45516349.79248047,18414892.196655273,17568021.774291992,675099.3132591248,-8629985.809326172,-17272600.173950195,-21230503.08227539,-24163154.60205078,-21852579.11682129,48011077.880859375,22890853.881835938,24251613.61694336,11521645.545959473,-2003269.4339752197,-13112552.642822266,-11276771.545410156,-9985001.564025879,-10792294.5022583,33007968.90258789,28074535.369873047,28973655.700683594,15818918.228149414,13196116.44744873,-5106925.964355469,-2045300.006866455,-3932062.3874664307,-2822689.5332336426,27249694.82421875,28548698.42529297,27998453.14025879,13052298.545837402,-3654651.403427124,-2830181.59866333,-2409173.7270355225,17810979.84313965,16379467.010498047,10134171.485900879,-3226871.967315674,8018699.645996094
0.1,10778132.438659668,-8140691.757202148,-15842118.263244629,2790721.1780548096,-19720857.620239258,21014711.380004883,19463802.337646484,19175874.710083008,-3286190.0329589844,-16648090.362548828,-18829849.243164062,-22688861.846923828,-21869808.197021484,-23594966.888427734,36915832.51953125,20415170.669555664,9908390.045166016,-7204525.947570801,-15228187.561035156,-19426189.422607422,-24652856.826782227,-20943384.170532227,-22842697.143554688,35082946.77734375,10818109.512329102,11077690.124511719,-1433060.0500106812,-7036277.294158936,-12996184.349060059,-20324285.50720215,-25816980.361938477,-22576040.267944336,36384807.58666992,14092692.375183105,17173496.24633789,9455638.885498047,-1849939.9423599243,-12819174.766540527,-12614355.087280273,-13120723.724365234,-13978837.966918945,24323150.634765625,19598834.991455078,20686111.450195312,11057645.797729492,9248745.918273926,-5566140.174865723,-4358233.451843262,-6120015.621185303,-4999201.774597168,19674943.923950195,20849102.020263672,20249010.08605957,9055850.982666016,-5871601.581573486,-5291309.833526611,-4745546.340942383,12170561.790466309,11616080.284118652,5279360.771179199,-5562549.114227295,3637656.6886901855
0.105,7645967.483520508,-7496832.370758057,-14803565.979003906,379203.2599449158,-19768108.367919922,14979492.1875,13736719.131469727,13414014.81628418,-5119245.529174805,-16623767.852783203,-18393787.384033203,-22104318.618774414,-21426700.592041016,-25048128.128051758,29590757.369995117,15876689.910888672,8045382.499694824,-8524009.704589844,-13998875.617980957,-18123908.99658203,-25042467.11730957,-22051979.064941406,-24388593.673706055,28949193.954467773,7321212.7685546875,7297263.145446777,-1944751.1434555054,-5934848.308563232,-11524948.120117188,-20808399.200439453,-27692041.397094727,-24003707.885742188,29439792.63305664,10341486.930847168,13257176.399230957,9272554.397583008,-1795153.4986495972,-14122562.408447266,-13804018.020629883,-15195196.151733398,-16260639.190673828,20001991.271972656,15304341.316223145,16581907.272338867,8555151.93939209,6608736.515045166,-5923263.5498046875,-5723419.189453125,-7344633.57925415,-6340448.379516602,15646100.997924805,16786218.643188477,16062004.089355469,6746581.554412842,-7081131.935119629,-6832267.284393311,-6298609.733581543,9043646.812438965,9869674.682617188,2734299.421310425,-6910606.861114502,1098583.1022262573
0.11,7635899.543762207,-7002335.071563721,-13961800.575256348,915416.4791107178,-19763454.43725586,16308624.267578125,15002341.270446777,14808483.123779297,-4433789.253234863,-17460676.193237305,-19100641.25061035,-22518665.313720703,-21922300.338745117,-25153984.06982422,32530082.70263672,19178167.34313965,11008593.559265137,-7428738.594055176,-14466464.99633789,-18838998.794555664,-25776805.877685547,-22139417.64831543,-24523832.321166992,32504505.157470703,11100610.733032227,10025948.524475098,-301423.49004745483,-5403499.126434326,-12523489.952087402,-21026464.462280273,-26886619.567871094,-24098119.735717773,33523880.004882812,14805682.182312012,15961207.389831543,11076478.004455566,-1874070.5251693726,-15350090.980529785,-12736882.209777832,-13498247.146606445,-14704613.68560791,24045753.479003906,18526218.41430664,19721920.013427734,10160882.949829102,7129394.53125,-6003646.373748779,-4226754.665374756,-5767723.560333252,-4827731.609344482,18589212.41760254,19868331.909179688,18895992.279052734,7665166.37802124,-5368186.950683594,-5308055.400848389,-4904828.5484313965,10816736.221313477,11851511.001586914,4889174.938201904,-5322059.631347656,2905643.7015533447
0.115,9691299.438476562,-7012003.421783447,-14064484.596252441,3525704.1454315186,-19416418.075561523,21390228.271484375,19797475.814819336,19766351.6998291,-2357550.621032715,-18154695.510864258,-19928174.97253418,-23112966.537475586,-22460414.88647461,-24880317.68798828,39034511.56616211,24370237.350463867,15054975.509643555,-5716985.22567749,-15903102.87475586,-20375879.287719727,-25530742.645263672,-21557632.446289062,-24155462.26501465,38901355.7434082,16120412.826538086,15374177.932739258,1264610.2905273438,-5421810.626983643,-13781858.444213867,-20567764.282226562,-25053194.046020508,-23848991.39404297,40699073.791503906,20608034.133911133,21209529.876708984,12676784.51538086,-1957812.0708465576,-14688321.113586426,-11170433.044433594,-11428818.702697754,-12569073.677062988,29136648.178100586,22990484.2376709,23979915.618896484,13742894.172668457,9347861.289978027,-5870551.586151123,-3198447.9427337646,-4775510.787963867,-3770953.416824341,22397335.052490234,23884969.71130371,22706724.166870117,9956751.823425293,-4211620.807647705,-4155745.9831237793,-3759380.578994751,13008923.530578613,12786603.927612305,7460419.654846191,-4253789.42489624,4814127.9220581055
0.12,12230851.173400879,-6778044.2237854,-14337827.682495117,6177630.90133667,-18363525.390625,24472381.591796875,22746860.50415039,22730993.270874023,-9676.43316835165,-16507913.589477539,-18954481.12487793,-22819671.630859375,-22138864.517211914,-25826427.459716797,41353778.83911133,25374757.766723633,15789444.923400879,-5296046.257019043,-16425985.336303711,-20849290.84777832,-24153335.571289062,-21623792.64831543,-25006593.704223633,40483669.28100586,16398876.190185547,18115499.49645996,1185690.999031067,-5556424.140930176,-14639980.31616211,-20581773.75793457,-25575355.529785156,-24857809.06677246,42147464.752197266,21618221.282958984,23639860.153198242,12715980.529785156,-1940580.129623413,-13092607.498168945,-11991269.1116333,-12939635.276794434,-13927589.416503906,28586483.001708984,23274082.18383789,24243236.541748047,16153692.245483398,10667342.185974121,-6236451.625823975,-5844712.734222412,-7556560.516357422,-6402563.095092773,21660539.627075195,23279779.4342041,22116485.595703125,11011368.751525879,-6970409.870147705,-6783796.787261963,-6186170.57800293,12036608.695983887,10311150.550842285,6531394.004821777,-6991753.101348877,3056782.7224731445
0.125,17014850.616455078,-3667821.4073181152,-11882427.215576172,9766713.14239502,-15161356.925964355,26889297.485351562,25246683.12072754,25088155.74645996,4146543.025970459,-10840356.826782227,-14691796.30279541,-20625398.635864258,-20096715.927124023,-26473552.703857422,42479240.41748047,24927537.91809082,14956026.077270508,-4598544.120788574,-14134586.334228516,-19067504.8828125,-21746957.778930664,-21629743.576049805,-25686527.252197266,39991992.95043945,14681991.577148438,19188003.540039062,1153510.8089447021,-4859334.945678711,-15559670.448303223,-21045564.651489258,-27616992.950439453,-25545450.21057129,40935817.71850586,20771053.314208984,23601774.215698242,12224661.827087402,-1837837.3384475708,-12825066.566467285,-14179115.295410156,-15703937.530517578,-16634275.436401367,26316720.962524414,22451019.287109375,23558948.516845703,16534763.33618164,10353519.439697266,-7499983.310699463,-9383528.709411621,-11187294.960021973,-9919633.865356445,19817058.563232422,21458995.819091797,20446365.356445312,10410594.940185547,-10759020.805358887,-10318112.37335205,-9571986.198425293,11149550.437927246,8501046.180725098,4751020.908355713,-10602442.741394043,969152.6293754578
0.13,25034328.46069336,3010210.9909057617,-6207883.358001709,15778338.432312012,-9983064.651489258,32776290.893554688,31200263.97705078,30892234.802246094,10928591.72821045,-2935467.7200317383,-8584733.009338379,-17494146.3470459,-17161052.703857422,-24837820.053100586,48654869.079589844,28530176.162719727,17301269.53125,-1197084.7845077515,-9426584.243774414,-15974219.32220459,-19215295.791625977,-20449729.919433594,-24130329.132080078,43959651.947021484,16935325.622558594,22340404.510498047,3465662.2409820557,-3003213.64402771,-16114915.84777832,-20877244.94934082,-27879693.98498535,-23860538.482666016,44316749.572753906,23417207.717895508,24712966.918945312,12624429.702758789,-1707131.5050125122,-14158794.403076172,-14543907.165527344,-15149092.674255371,-16108076.095581055,29058719.635009766,25313457.489013672,26440708.16040039,16057928.085327148,9526000.022888184,-8954327.583312988,-9231794.357299805,-10974689.483642578,-9735833.168029785,22291471.481323242,23891641.61682129,22929372.787475586,9480633.735656738,-10734285.354614258,-9979389.190673828,-9394932.746887207,14259207.725524902,11063126.564025879,6283040.523529053,-10338622.093200684,3265968.5611724854
0.135,31072957.99255371,8684549.331665039,-2133316.7552948,20939502.716064453,-6812979.698181152,38746395.111083984,37121116.638183594,36788288.11645508,16160163.879394531,2090074.7776031494,-4989519.119262695,-16516136.169433594,-16171117.782592773,-23076160.430908203,55680442.810058594,33454772.94921875,21770523.071289062,2931430.3398132324,-5648627.281188965,-14257447.242736816,-18811161.041259766,-19699251.174926758,-22319875.717163086,49549095.153808594,21364477.157592773,25576110.83984375,6605386.734008789,-1282003.8795471191,-15527393.341064453,-20589298.248291016,-26788751.60217285,-22000745.77331543,49209053.03955078,27069004.05883789,26465158.462524414,13268217.086791992,-1592006.6833496094,-15112398.147583008,-13336210.250854492,-12654166.221618652,-13614944.458007812,33776153.564453125,28912210.46447754,29899017.333984375,15385350.227355957,9039996.147155762,-9355066.299438477,-6612771.511077881,-8271547.317504883,-7163455.009460449,26199840.545654297,27713706.970214844,26668788.90991211,8984884.262084961,-8082649.230957031,-7143248.558044434,-6868459.224700928,17896171.56982422,14366374.015808105,8947605.13305664,-7570218.563079834,7052784.9197387695
0.14,27958087.921142578,7416800.022125244,-4751155.853271484,18937414.169311523,-9671673.774719238,36276294.70825195,34606925.96435547,34364044.189453125,13837466.2399292,276224.40457344055,-7121357.9177856445,-19331024.169921875,-18774013.51928711,-24987409.591674805,53104042.053222656,31415182.11364746,21500465.393066406,2495352.7450561523,-6304298.877716064,-15759210.586547852,-21811363.220214844,-21845619.201660156,-24073713.302612305,47369998.931884766,20110078.811645508,22755086.89880371,6342956.54296875,-1524091.4821624756,-14645144.46258545,-22009746.551513672,-27869106.29272461,-23896825.790405273,45776088.71459961,24669700.622558594,24408800.12512207,12321292.877197266,-1531711.5783691406,-14234054.565429688,-13869564.056396484,-13590893.745422363,-14535781.860351562,31367670.0592041,26465446.47216797,27391296.38671875,14019870.75805664,8876551.628112793,-7924668.788909912,-6627099.514007568,-8401288.032531738,-7356835.842132568,24071790.69519043,25472612.380981445,24417833.32824707,8768995.28503418,-8124993.324279785,-7254623.889923096,-7033589.839935303,15583676.3381958,12153105.735778809,7296108.722686768,-7687111.377716064,5284510.135650635
0.145,16684383.392333984,-372024.267911911,-12263907.432556152,9096411.70501709,-16718194.961547852,24961496.353149414,23308832.1685791,23161252.975463867,4182656.764984131,-6911153.316497803,-13212162.971496582,-23329402.923583984,-22602581.024169922,-29532896.041870117,40864826.20239258,21587539.672851562,14055894.85168457,-3755786.418914795,-11307404.518127441,-19440301.8951416,-26033004.760742188,-25706953.048706055,-28579397.201538086,36548397.064208984,11674034.118652344,14104687.690734863,1787294.7454452515,-3775176.525115967,-15315183.639526367,-25074504.852294922,-31322957.99255371,-28572343.826293945,33794643.40209961,16282398.223876953,17935892.10510254,9773082.733154297,-1537383.9139938354,-12468070.030212402,-16780097.96142578,-18225240.70739746,-19229610.443115234,21140207.290649414,18542444.229125977,19565090.17944336,12014558.792114258,9167387.962341309,-5034049.987792969,-9903830.528259277,-11944164.276123047,-10819876.670837402,15911007.88116455,17245460.510253906,16367506.02722168,9000469.207763672,-11576888.084411621,-10886404.991149902,-10382163.047790527,8248316.764831543,5147513.389587402,1884223.5803604126,-11271561.622619629,-1992568.2544708252
0.15,7167886.734008789,-7278226.852416992,-17422677.993774414,-646718.5616493225,-21362005.23376465,15448395.729064941,13802783.966064453,13660483.360290527,-5005179.882049561,-13846426.010131836,-18124441.146850586,-24498235.70251465,-23753980.63659668,-31543678.283691406,31368177.41394043,13374878.883361816,6446377.277374268,-10071359.634399414,-16763452.529907227,-22498540.8782959,-27909135.818481445,-27367750.16784668,-30790781.021118164,27677747.72644043,4430137.157440186,8309836.387634277,-2493206.024169922,-5871639.728546143,-17551887.51220703,-27363586.42578125,-33249893.188476562,-30772989.27307129,24966979.98046875,10234599.113464355,12868053.436279297,7978498.458862305,-1557069.182395935,-11893406.867980957,-18850854.873657227,-20982215.881347656,-22095563.888549805,12920713.424682617,13295324.325561523,14354009.628295898,10494590.759277344,10013685.22644043,-2434708.1184387207,-11866389.274597168,-14023849.487304688,-12799184.799194336,10005964.279174805,11374349.594116211,10699992.179870605,9838308.334350586,-13654291.152954102,-13000468.254089355,-12256336.212158203,3454078.435897827,365008.145570755,-1081368.2079315186,-13370660.781860352,-7016724.109649658
0.155,6501241.207122803,-7727869.033813477,-16565076.82800293,-2763940.3343200684,-20275691.986083984,15594657.897949219,13967422.485351562,13746646.881103516,-7186877.250671387,-16544042.587280273,-19017383.575439453,-22530632.01904297,-21795318.603515625,-29367660.522460938,32431331.634521484,13803341.86553955,6219796.657562256,-10624221.801757812,-18979124.069213867,-23258893.966674805,-26854375.8392334,-25752382.278442383,-28885364.532470703,28132568.359375,5174094.676971436,11109006.881713867,-2200387.0010375977,-5883099.555969238,-18950868.606567383,-27282646.17919922,-31951494.216918945,-28720296.85974121,26548357.009887695,11471988.677978516,13961345.672607422,8622969.627380371,-1545498.4903335571,-13118071.556091309,-18122285.842895508,-19256662.368774414,-20404375.076293945,13208992.004394531,14902886.390686035,15815013.885498047,9830878.257751465,10230957.03125,-2324046.1349487305,-10533740.043640137,-12536287.307739258,-11334108.352661133,10792831.420898438,12221826.553344727,11574053.764343262,10009355.545043945,-12224383.354187012,-11436008.45336914,-10818875.312805176,3999850.273132324,834074.0203857422,280166.00012779236,-11856799.125671387,-5979514.598846436
0.16,10631514.549255371,-4570550.441741943,-13643118.858337402,583129.8232078552,-17315309.524536133,20322383.880615234,18805202.48413086,18533706.665039062,-4633801.9371032715,-16249193.19152832,-17978319.16809082,-20784294.12841797,-20013809.204101562,-27090091.705322266,37340499.87792969,18510478.973388672,11257274.627685547,-7087789.535522461,-18109640.12145996,-22349298.47717285,-25321411.1328125,-23859434.127807617,-26680879.592895508,32576347.35107422,10076439.85748291,17317537.307739258,1025170.9222793579,-4359043.121337891,-17776048.66027832,-25704307.556152344,-30272129.05883789,-26450502.395629883,31858514.7857666,15164346.694946289,18563905.715942383,10409811.973571777,-1547410.488128662,-14527139.663696289,-16447731.018066406,-16818187.713623047,-17913408.279418945,17054389.95361328,18261373.51989746,19035516.7388916,8877391.815185547,8364692.687988281,-5140020.370483398,-9368600.845336914,-11149778.366088867,-10085003.852844238,13109493.255615234,14491219.520568848,13711974.143981934,7990365.028381348,-10909164.428710938,-10040242.195129395,-9742149.353027344,4450192.451477051,1926823.9736557007,751740.9920692444,-10501244.54498291,-4069096.565246582
0.165,10996644.973754883,-4339093.6851501465,-13945348.739624023,1263768.196105957,-17769435.88256836,20222631.454467773,18784994.12536621,18596525.192260742,-4375704.288482666,-16808544.158935547,-18510082.244873047,-21318107.60498047,-20582256.317138672,-27752347.946166992,36641937.255859375,19263973.236083984,13290051.460266113,-6033088.207244873,-17183052.06298828,-21326025.009155273,-24792940.139770508,-23789031.982421875,-27169061.6607666,32631778.717041016,11242902.755737305,18537227.630615234,2205551.1474609375,-3395240.306854248,-15427083.015441895,-24001205.444335938,-30342638.01574707,-27023096.084594727,31764913.55895996,14809703.826904297,20804071.4263916,10857026.100158691,-1631015.0623321533,-14270953.178405762,-15767271.041870117,-16811864.852905273,-17887054.443359375,17282016.75415039,17597110.748291016,18421392.4407959,6974518.775939941,5459651.470184326,-8538171.768188477,-10774630.546569824,-12444030.76171875,-11561530.113220215,11432090.759277344,12651661.87286377,11746400.833129883,4967954.158782959,-12310261.726379395,-11571132.65991211,-11360575.675964355,1146292.3288345337,-277949.66101646423,-2656044.2447662354,-11975468.635559082,-6030057.907104492
0.17,6688630.5809021,-7726569.652557373,-16603748.321533203,-2901466.8464660645,-20902933.12072754,15672520.637512207,14046837.80670166,14022903.442382812,-8070441.246032715,-19190574.645996094,-20596769.332885742,-22228172.302246094,-21639610.290527344,-28607065.200805664,32610675.811767578,15920215.606689453,9805172.92022705,-9643056.869506836,-17855478.286743164,-20817594.528198242,-23995290.756225586,-23624422.073364258,-27812013.626098633,29801097.869873047,8216549.873352051,14849162.101745605,24944.134056568146,-3794575.9296417236,-14578443.52722168,-22189531.326293945,-30032531.73828125,-27723527.908325195,28563030.242919922,11808892.250061035,19616378.784179688,9625283.241271973,-1754307.0316314697,-12487163.543701172,-15021415.710449219,-16703365.325927734,-17826309.204101562,15677082.061767578,15163149.8336792,16105440.139770508,5487695.693969727,4702343.463897705,-9680593.490600586,-11715659.141540527,-13299059.867858887,-12621464.729309082,9005385.398864746,10092774.391174316,9114395.141601562,4301403.045654297,-13306260.108947754,-12797213.554382324,-12336370.468139648,-702349.7223854065,-2137670.5169677734,-4718727.588653564,-13056361.198425293,-7908643.72253418
0.175,5274742.126464844,-8505647.659301758,-16038700.103759766,-4898880.958557129,-21027284.622192383,15573119.163513184,13573249.816894531,13583398.818969727,-9793981.552124023,-20038827.896118164,-20741815.5670166,-20620006.561279297,-20118091.583251953,-25791141.510009766,34689926.14746094,15503685.95123291,7111345.7679748535,-12739866.256713867,-18393075.942993164,-20187416.076660156,-21689653.396606445,-20877775.192260742,-24963962.55493164,31985366.821289062,7575490.951538086,13560441.017150879,-1699316.6208267212,-4178080.5587768555,-15690054.893493652,-20036365.509033203,-27049425.12512207,-24755569.458007812,31207771.30126953,12503119.468688965,19125545.501708984,8782046.3180542,-1802481.6513061523,-11055194.854736328,-12901458.740234375,-13355101.585388184,-14471957.206726074,19053247.451782227,17107332.229614258,18037992.477416992,5998552.322387695,6986895.0843811035,-8624528.884887695,-9000469.207763672,-10452116.966247559,-9931200.981140137,12516642.570495605,13602943.420410156,12511645.317077637,6794445.991516113,-10507346.153259277,-10131075.859069824,-9388643.264770508,5142332.553863525,1844940.5431747437,86471.33409976959,-10258758.544921875,-3636806.2496185303
0.18,11803292.274475098,-2269948.2440948486,-9746067.04711914,1303828.8354873657,-15315538.40637207,23673767.08984375,21529588.69934082,21304271.697998047,-4668247.699737549,-16294029.235839844,-16821998.596191406,-16533397.674560547,-15941780.090332031,-20604291.915893555,44346050.26245117,21320426.94091797,10942520.141601562,-10086120.60546875,-16505382.537841797,-18697807.31201172,-19019279.47998047,-16658992.767333984,-19924621.58203125,40372909.54589844,12622108.459472656,18305353.16467285,408835.2918624878,-3136496.3054656982,-16854642.868041992,-18468809.127807617,-23361282.348632812,-19518255.23376465,40546207.427978516,18319225.311279297,22079772.94921875,9846557.6171875,-1771818.1610107422,-11249940.872192383,-11070425.033569336,-9042489.051818848,-10029452.323913574,27414970.39794922,23695642.471313477,24525901.794433594,7753049.373626709,8737133.026123047,-8251195.907592773,-5361599.445343018,-6788056.85043335,-6210513.591766357,20910833.35876465,22055383.682250977,20793722.15270996,8621518.1350708,-6674927.234649658,-6296261.310577393,-5513324.26071167,15045397.758483887,9501564.979553223,7854236.602783203,-6422012.3291015625,4091710.090637207
0.185,21677284.240722656,7302476.406097412,-1670935.1539611816,11699292.182922363,-7607286.9300842285,33076251.983642578,31179058.074951172,30603961.944580078,3820376.396179199,-9986430.168151855,-11353626.251220703,-12703223.22845459,-12006142.616271973,-17574871.063232422,52646064.75830078,28349124.908447266,18431793.212890625,-3655155.1818847656,-13089318.27545166,-16784599.30419922,-17845443.725585938,-14219807.624816895,-17039216.995239258,47218105.31616211,18722473.14453125,24655048.370361328,4781916.14151001,-1352284.4314575195,-16941789.627075195,-18578639.98413086,-22468561.17248535,-16573083.877563477,47498767.8527832,23762113.571166992,26293926.239013672,11806936.264038086,-1805808.9017868042,-12387243.270874023,-11935604.095458984,-8290352.821350098,-9135560.989379883,32905258.178710938,28675443.649291992,29477752.685546875,8652155.876159668,6490494.251251221,-10281613.34991455,-5955667.018890381,-7545810.222625732,-6672350.883483887,25822854.99572754,26969247.817993164,25627344.131469727,6277162.075042725,-7154824.256896973,-6739104.747772217,-6067103.862762451,19035078.048706055,12791093.826293945,9671551.704406738,-7014299.8695373535,6556189.060211182
0.19,26437904.357910156,12767987.251281738,2472167.0150756836,16802125.930786133,-3856163.740158081,35504352.56958008,33859378.814697266,33145977.020263672,7694497.108459473,-6721840.381622314,-9023729.32434082,-11475750.923156738,-10836828.231811523,-18101423.263549805,52641033.17260742,29984676.361083984,21880071.64001465,-259017.9741382599,-11613063.81225586,-16090549.46899414,-18425657.272338867,-14789091.110229492,-17557243.34716797,46639034.271240234,19760421.752929688,26553735.733032227,7068006.0386657715,-830385.2677345276,-17228933.334350586,-20153699.87487793,-24431528.091430664,-17222402.572631836,45819461.822509766,23934377.670288086,28023345.947265625,12577876.091003418,-2007903.814315796,-13138001.441955566,-14789113.04473877,-11183475.494384766,-11998955.726623535,30654552.459716797,27791273.11706543,28627996.44470215,8363712.310791016,2389579.5345306396,-12632856.369018555,-10528241.157531738,-12238946.914672852,-11092632.293701172,22937355.041503906,24055856.704711914,22855466.842651367,2097616.9109344482,-11734850.883483887,-11315475.463867188,-10642609.596252441,14343016.624450684,8889662.742614746,4264723.777770996,-11749181.747436523,1690502.5243759155
0.195,23276636.123657227,10900029.182434082,743771.4338302612,12682187.0803833,-6219034.671783447,30670972.82409668,28888650.89416504,28359983.444213867,3687692.403793335,-9743276.596069336,-11899898.529052734,-13283658.027648926,-12770603.17993164,-19793798.446655273,47188755.03540039,25379104.614257812,18009281.158447266,-3428938.627243042,-14034922.59979248,-17944709.77783203,-19919773.10180664,-16964166.64123535,-19118318.557739258,41378517.150878906,15365489.00604248,23019548.416137695,5198378.086090088,-2418581.962585449,-19137626.64794922,-21948879.24194336,-26539329.528808594,-18955331.802368164,39640499.114990234,20042270.66040039,26352014.541625977,11609105.110168457,-2280255.5561065674,-13286501.88446045,-16570959.091186523,-13820814.13269043,-14664549.827575684,24905326.84326172,23667356.491088867,24475187.301635742,8669133.186340332,2048955.4405212402,-11850676.536560059,-13417676.92565918,-15005105.018615723,-13867028.23638916,17429903.030395508,18603612.899780273,17713920.59326172,1794775.128364563,-14637072.563171387,-14240651.13067627,-13394655.227661133,9019326.210021973,4254849.910736084,-60750.51799416542,-14636096.000671387,-2761800.765991211
0.2,16124835.968017578,4313093.185424805,-4746391.296386719,3862747.6692199707,-12495584.487915039,23969017.028808594,21837249.755859375,21572893.142700195,-4079315.185546875,-16831989.288330078,-17895391.4642334,-17145099.639892578,-16636756.896972656,-21020845.413208008,42488925.93383789,18700574.87487793,11037894.248962402,-9948209.762573242,-18583391.189575195,-21528543.47229004,-21827337.26501465,-19205160.14099121,-20217462.53967285,36894725.79956055,9899828.910827637,17609161.376953125,1129362.3447418213,-4808653.831481934,-21511520.385742188,-22750045.776367188,-27351655.960083008,-20134016.036987305,35846012.115478516,16319292.068481445,23201473.236083984,10298360.824584961,-2416963.577270508,-13404689.78881836,-15759059.90600586,-14007006.645202637,-14813424.110412598,22052145.00427246,21077632.904052734,21822116.85180664,10390679.359436035,6843611.717224121,-7629166.126251221,-11277051.92565918,-12706561.088562012,-11762275.695800781,16070505.142211914,17367818.83239746,16796714.782714844,6607697.010040283,-12482194.900512695,-12121562.957763672,-11129474.639892578,10287321.090698242,5441534.519195557,2716781.1393737793,-12261653.900146484,-523039.3409729004
0.205,9700034.141540527,-2755032.3009490967,-10785621.643066406,-3361316.442489624,-19147140.502929688,19111867.904663086,16885816.57409668,16672933.578491211,-9741580.963134766,-23192853.927612305,-23309440.61279297,-21073207.85522461,-20493465.423583984,-22236471.17614746,39683517.45605469,13972429.275512695,7391972.541809082,-14229155.540466309,-22034162.521362305,-24139381.408691406,-23580814.361572266,-20789968.490600586,-21354328.155517578,34065269.470214844,6752686.977386475,14186505.317687988,-1746608.3765029907,-6179171.085357666,-21699609.756469727,-21717273.712158203,-27155506.134033203,-21299013.137817383,34751682.28149414,14597324.37133789,20643777.84729004,10143926.620483398,-2341957.8075408936,-13341737.747192383,-13357299.8046875,-12789042.472839355,-13512146.949768066,22197597.50366211,20785312.65258789,21593194.96154785,11889663.696289062,11697403.907775879,-3277452.4688720703,-6958549.022674561,-8518086.433410645,-7656036.376953125,18339223.861694336,19664621.353149414,19315149.307250977,11358870.506286621,-8215689.659118652,-7877009.868621826,-6949340.8203125,14950754.165649414,10184911.727905273,8281201.362609863,-7802632.3318481445,4760030.269622803
0.21,5959814.548492432,-7381959.915161133,-14762046.813964844,-6455648.899078369,-23158655.166625977,16545459.747314453,14526307.106018066,14162998.19946289,-11118765.830993652,-25857316.970825195,-25688045.501708984,-22469650.268554688,-21897363.662719727,-22858173.370361328,36690925.59814453,12512865.06652832,9334285.736083984,-14063196.182250977,-23010732.650756836,-23775999.069213867,-23715280.532836914,-20759990.692138672,-21889383.31604004,31170932.76977539,5979448.7953186035,14363361.358642578,-1795515.8948898315,-6184363.842010498,-18976478.576660156,-18545410.15625,-25491823.196411133,-21911682.12890625,32587299.346923828,13928732.872009277,19511356.353759766,11166720.390319824,-2203292.3698425293,-12251806.259155273,-10492853.164672852,-11056098.937988281,-11768977.165222168,21316337.58544922,20339714.05029297,21358402.252197266,11566331.86340332,11764522.552490234,-1657619.7147369385,-4716722.011566162,-6588290.691375732,-5629751.205444336,18899080.276489258,20080469.131469727,19818389.892578125,11324858.665466309,-6121798.515319824,-5710207.462310791,-4994163.513183594,15309283.256530762,11463286.399841309,8963738.441467285,-5725134.84954834,5963104.248046875
0.215,5551403.522491455,-7705110.0730896,-14929743.766784668,-5585684.776306152,-22529802.322387695,16519975.662231445,14605714.797973633,14134212.493896484,-9325631.141662598,-24628843.307495117,-24463363.647460938,-19916297.912597656,-19357404.708862305,-20705192.56591797,34475891.11328125,13758490.562438965,13865772.247314453,-11376567.840576172,-22175167.083740234,-21075735.092163086,-21174221.03881836,-18240550.994873047,-19623823.165893555,29528865.814208984,6486455.917358398,17017189.025878906,48174.213618040085,-5766694.068908691,-15466427.80303955,-14212032.318115234,-21535198.211669922,-19753372.192382812,29673215.866088867,13819050.788879395,19833435.05859375,12218429.565429688,-2194704.294204712,-10223209.381103516,-7402011.394500732,-8335621.8338012695,-9107043.266296387,19108919.143676758,19078344.345092773,20281507.49206543,10324430.465698242,8380437.850952148,-2324302.6733398438,-4706531.047821045,-6651851.177215576,-5632615.089416504,16431787.490844727,17433465.9576416,17084857.940673828,7993433.952331543,-6258028.507232666,-5638638.019561768,-5040716.171264648,10975636.48223877,8122646.331787109,4778883.934020996,-5971828.460693359,3149301.767349243
0.22,9016311.645507812,-3367065.668106079,-11422040.939331055,-1317196.011543274,-17656522.750854492,19692523.956298828,17593732.833862305,17173362.731933594,-5906970.024108887,-20684051.513671875,-20593992.233276367,-15132030.487060547,-14395661.354064941,-15899250.030517578,36558170.318603516,16520938.873291016,16727172.8515625,-8851195.335388184,-20399871.826171875,-18360961.9140625,-17274795.532226562,-14314013.481140137,-14768659.591674805,32490894.317626953,8078085.899353027,19396940.231323242,1817221.2839126587,-5479965.686798096,-13633056.640625,-11029372.215270996,-16916284.561157227,-14924145.698547363,30711734.771728516,15274371.147155762,21321968.07861328,12377867.698669434,-2320065.498352051,-8780970.573425293,-4906077.861785889,-5218813.896179199,-5971160.411834717,19965856.552124023,19428125.381469727,20665344.23828125,10268912.315368652,6316067.695617676,-3311766.1476135254,-4237223.148345947,-5905396.938323975,-4993609.90524292,15615133.285522461,16559032.440185547,15962276.458740234,6092709.064483643,-5844202.518463135,-5016360.759735107,-4292962.074279785,9341499.328613281,6553418.159484863,2833868.980407715,-5549007.892608643,2769610.1665496826
0.225,15262394.905090332,2996501.684188843,-6831645.0119018555,4638676.643371582,-12071048.736572266,24893173.217773438,22634243.01147461,22285446.166992188,-2130459.5470428467,-16057533.264160156,-16404224.395751953,-11922885.89477539,-10899192.810058594,-12205406.188964844,42965251.92260742,19410114.288330078,16570877.075195312,-7415947.437286377,-18305938.720703125,-17285919.189453125,-15050201.416015625,-11923480.033874512,-11165610.313415527,39490505.21850586,10616700.172424316,19700061.798095703,2375162.124633789,-4944225.311279297,-14063805.58013916,-10853550.910949707,-15181582.4508667,-11245214.462280273,37184268.951416016,18455497.74169922,23123039.24560547,11694105.14831543,-2389156.1031341553,-9064996.719360352,-4533918.380737305,-3753372.6692199707,-4352801.322937012,25917436.599731445,22964847.564697266,24142391.204833984,11763529.777526855,7365721.702575684,-4014093.8758850098,-2334055.6621551514,-3728353.261947632,-2963038.206100464,20005159.378051758,20970682.14416504,20137151.71813965,7281851.291656494,-3898870.9449768066,-3075094.223022461,-2110630.750656128,14792396.545410156,11393133.163452148,7170083.522796631,-3493498.3253479004,7884521.484375
0.23,20839010.23864746,7089461.326599121,-4110821.7239379883,8794245.719909668,-9726553.916931152,28704105.377197266,26627372.74169922,26229045.867919922,255884.73677635193,-13471870.422363281,-14530797.958374023,-12286293.983459473,-11198852.5390625,-12365576.74407959,48199436.18774414,20744895.935058594,14840681.076049805,-6952391.147613525,-16960515.97595215,-17757024.76501465,-16119445.80078125,-12761343.002319336,-11508121.490478516,44536670.68481445,12222470.2835083,18250841.14074707,1716210.8421325684,-3966814.0411376953,-15705537.796020508,-13017690.658569336,-17403680.8013916,-11512658.11920166,43436809.53979492,20756647.10998535,23484245.30029297,10540173.530578613,-2260451.078414917,-10075680.73272705,-6222590.446472168,-4483129.501342773,-4941678.524017334,32206775.665283203,26969200.134277344,28078832.626342773,12960112.571716309,9277351.379394531,-4835319.042205811,-604830.4438591003,-2035337.209701538,-1286055.088043213,26215503.692626953,27141473.7701416,26313859.939575195,9279428.482055664,-2064258.098602295,-1469771.385192871,-449355.810880661,22331632.614135742,18643892.288208008,13624618.530273438,-1633197.0691680908,14002733.23059082
0.235,22185646.057128906,6829217.433929443,-3955245.018005371,8420988.082885742,-11221214.294433594,28143341.064453125,26437364.57824707,25954349.517822266,-288610.5179786682,-14499081.6116333,-15772238.731384277,-14427571.296691895,-13598686.218261719,-14394916.534423828,46652107.23876953,18994647.979736328,12813176.155090332,-7655746.936798096,-17244153.97644043,-18641780.853271484,-18869136.810302734,-15150209.426879883,-13712713.241577148,42213722.229003906,10274099.349975586,15929851.531982422,311052.531003952,-3215320.348739624,-17101486.206054688,-14793566.703796387,-20504041.67175293,-13698449.13482666,42450534.82055664,18879219.05517578,20956167.221069336,8998196.601867676,-2028745.8896636963,-9737321.853637695,-7679913.520812988,-5609786.9873046875,-6094108.104705811,32135398.864746094,26723022.4609375,27747495.651245117,12163654.327392578,9733963.012695312,-5375124.931335449,-556103.9447784424,-2224372.148513794,-1357024.4312286377,27359809.87548828,28207221.98486328,27648656.845092773,9805227.279663086,-1917495.0122833252,-1521112.9188537598,-782777.4286270142,23749855.041503906,20461490.631103516,15469642.639160156,-1577747.2257614136,15035451.889038086
0.24,18679462.432861328,3969415.1878356934,-5044878.4828186035,4500605.10635376,-13725977.897644043,23554323.196411133,22038272.857666016,21613666.534423828,-3197760.820388794,-17563638.68713379,-18153484.344482422,-15237719.535827637,-14694684.028625488,-14743274.688720703,39022144.31762695,14558414.459228516,10805681.228637695,-9395117.75970459,-18363592.14782715,-18807937.622070312,-20094388.961791992,-15980914.115905762,-14196107.864379883,34041755.67626953,5162305.83190918,13096075.057983398,-929040.8492088318,-3255327.2247314453,-17106536.865234375,-14197497.367858887,-21085302.352905273,-14142831.802368164,34185703.27758789,13237919.807434082,16802301.40686035,7493004.322052002,-1910031.1994552612,-7668385.982513428,-7218888.759613037,-5995913.505554199,-6625329.971313477,25159961.700439453,21416584.014892578,22334415.435791016,9958600.997924805,8735740.661621094,-4919805.04989624,-2085758.6860656738,-3914180.9940338135,-2892310.380935669,21409902.572631836,22316226.959228516,22033641.815185547,8824482.917785645,-3452212.5720977783,-2998267.412185669,-2691395.7595825195,17503952.026367188,14878048.89678955,11228496.551513672,-3169276.475906372,10159840.58380127
0.245,13395092.964172363,1663504.2428970337,-6164775.848388672,1016180.8729171753,-14478162.76550293,18971967.697143555,17398883.819580078,17161281.58569336,-5636418.81942749,-19270940.78063965,-18964586.25793457,-13842514.991760254,-13354439.735412598,-13241632.461547852,32363574.981689453,11124907.493591309,10118263.244628906,-10602435.111999512,-18551998.138427734,-17864036.560058594,-18211437.225341797,-14242225.646972656,-12785175.323486328,27714212.41760254,1671334.7434997559,11234148.979187012,-545392.3344612122,-3661460.3996276855,-15670725.82244873,-11910813.331604004,-19186033.248901367,-12629785.537719727,26522382.736206055,9125083.923339844,15186255.45501709,7396495.819091797,-1971489.667892456,-5913450.241088867,-5836588.382720947,-6507478.2371521,-7237419.605255127,18283945.083618164,16393285.751342773,17261766.43371582,8992835.04486084,7661769.866943359,-3949107.4085235596,-3997490.644454956,-5822682.857513428,-4696325.302124023,14324543.952941895,15468197.8225708,15224968.910217285,7681488.513946533,-5471575.2601623535,-4793662.071228027,-4718535.423278809,10287697.792053223,8226039.886474609,5736743.450164795,-5156154.632568359,4085507.392883301
0.25,10694988.250732422,1454793.2147979736,-6871254.920959473,1106464.6244049072,-13196236.610412598,18855640.411376953,17218482.971191406,17091194.15283203,-5160505.771636963,-18219398.498535156,-17648914.337158203,-11780344.96307373,-11220765.113830566,-12362914.085388184,32908962.24975586,12878373.146057129,12733511.924743652,-9556918.144226074,-17583183.28857422,-16593610.763549805,-14623341.56036377,-11762667.655944824,-11901063.919067383,29270668.029785156,4166004.6577453613,13062951.08795166,2087311.2678527832,-3720623.016357422,-14435379.028320312,-10188141.822814941,-17159458.16040039,-11701333.999633789,27140857.696533203,11501195.907592773,18876279.830932617,9644371.032714844,-2068069.6964263916,-6511647.2244262695,-5369792.461395264,-7421432.971954346,-8156881.332397461,18698238.372802734,17723119.735717773,18626878.73840332,11502591.133117676,8041892.051696777,-3339610.3382110596,-4607889.652252197,-6334766.387939453,-5227368.354797363,13849959.373474121,15208594.32220459,14828993.797302246,8008648.872375488,-6119394.779205322,-5324035.64453125,-5149689.197540283,9371066.093444824,7815490.245819092,4787501.335144043,-5814064.502716064,2247908.8306427
0.255,12057180.404663086,2683144.3309783936,-6653978.34777832,3957113.9812469482,-11178379.05883789,22966163.635253906,21395921.70715332,21210165.02380371,-2544641.2563323975,-16320129.39453125,-15895674.705505371,-10216354.370117188,-9671144.485473633,-12536693.572998047,38626293.18237305,18770942.68798828,17554218.292236328,-6924243.927001953,-16991956.71081543,-16199045.181274414,-11860395.431518555,-10467301.368713379,-11946492.195129395,36095787.048339844,10468535.423278809,18274845.123291016,5113703.727722168,-3444485.1875305176,-15147697.448730469,-10093420.98236084,-16171340.942382812,-11874874.114990234,34835517.88330078,18528917.31262207,24863006.591796875,12735883.712768555,-2031601.4289855957,-8948268.89038086,-5784801.006317139,-6947669.982910156,-7681279.65927124,25752868.65234375,24662891.387939453,25552297.592163086,16518583.297729492,10730929.374694824,-2705512.523651123,-2516052.24609375,-4060038.5665893555,-3122262.716293335,20697641.372680664,22073558.807373047,21651254.653930664,10798697.471618652,-3839243.6504364014,-3132606.9831848145,-2736148.8342285156,14851237.297058105,13883117.67578125,9534392.356872559,-3660135.03074646,6035464.763641357
0.26,13632388.1149292,3191973.4477996826,-5576192.378997803,5197772.50289917,-9879241.943359375,25100999.83215332,23636014.938354492,23394485.473632812,-1396444.9167251587,-16100429.53491211,-15302074.432373047,-8722734.451293945,-8236785.888671875,-11471181.869506836,40451396.94213867,21816247.940063477,19776582.717895508,-5521038.53225708,-17467807.76977539,-16698347.091674805,-10845542.907714844,-10093950.271606445,-10735172.271728516,39130413.05541992,13335098.266601562,21553974.151611328,5600603.103637695,-3203654.0508270264,-16951517.10510254,-10497925.758361816,-15496991.157531738,-10851472.854614258,40348876.953125,22619804.38232422,26862026.21459961,13694656.372070312,-1836979.3891906738,-10814074.516296387,-5881657.600402832,-4255240.917205811,-5031740.188598633,31424589.157104492,29709636.688232422,30416109.085083008,19816411.9720459,14367444.038391113,-1588071.1078643799,1349749.5651245117,94017.93032884598,820666.0151481628,27280349.731445312,28567321.77734375,28325792.31262207,14637482.643127441,339203.3278942108,902512.6695632935,1392676.9495010376,19709867.477416992,19598527.908325195,15283650.398254395,396823.9724636078,11170054.43572998
0.265,9769309.043884277,794831.0971260071,-5331491.470336914,1221970.9157943726,-10400918.006896973,19706045.150756836,18323871.612548828,18209081.649780273,-4153869.62890625,-17674840.927124023,-15792011.260986328,-6878636.837005615,-6317380.428314209,-8272850.99029541,32727718.353271484,17031658.172607422,16676996.231079102,-6886216.163635254,-17706016.540527344,-16693819.046020508,-10539779.663085938,-9208009.719848633,-7518323.89831543,33130325.317382812,9198344.230651855,18506872.177124023,3199605.4649353027,-2902211.6661071777,-16812967.30041504,-9962707.51953125,-14466497.421264648,-7663377.285003662,36777671.813964844,19177385.330200195,22892753.60107422,11640993.118286133,-1579365.9687042236,-10646522.521972656,-5734483.71887207,-1900708.1985473633,-2708601.713180542,29247930.5267334,27225662.231445312,27713184.356689453,17878747.940063477,15456414.222717285,-1439109.8022460938,3231889.7247314453,2255205.3928375244,2902748.1079101562,26117156.982421875,27404596.32873535,27411119.46105957,15819437.026977539,2389550.9243011475,2887596.368789673,3360908.031463623,17453882.217407227,18714611.053466797,15823942.184448242,2436338.6631011963,11278192.520141602
0.27,733757.0786476135,-3850338.6974334717,-7145683.765411377,-5880333.90045166,-12348661.422729492,9878296.852111816,8643221.855163574,8723692.893981934,-8630486.488342285,-18893568.03894043,-16172948.837280273,-5293094.158172607,-4537231.922149658,-5052550.792694092,21063484.19189453,8457355.499267578,11656290.054321289,-9517480.850219727,-16781543.731689453,-15410644.53125,-10028388.977050781,-7456067.5621032715,-4398753.1661987305,23371925.354003906,2596606.492996216,11861267.08984375,634145.1406478882,-2459032.2971343994,-13669466.972351074,-8731359.481811523,-13187198.638916016,-4403302.192687988,27865600.5859375,12200058.937072754,17627035.14099121,9000878.33404541,-1377275.2285003662,-9164946.556091309,-6219794.750213623,-2456889.3909454346,-3241911.4112854004,21768358.23059082,20128286.361694336,20640634.536743164,12316367.149353027,12474867.820739746,-3346276.7601013184,774872.1837997437,-137806.80298805237,583765.5663490295,18562572.479248047,19921644.21081543,20026651.38244629,12730617.52319336,-158796.7425584793,289631.33692741394,834316.3728713989,9681726.455688477,12546028.137207031,10243062.019348145,-94583.34743976593,5198342.323303223
0.275,-5210091.590881348,-6220194.339752197,-8769648.551940918,-9137637.1383667,-13024016.380310059,5262208.938598633,4230648.517608643,4283208.847045898,-9985140.800476074,-18081245.42236328,-15613709.449768066,-4396872.997283936,-3516617.0597076416,-3356089.5919799805,16821613.311767578,4657917.9763793945,9374106.407165527,-11398978.233337402,-16233173.370361328,-14283419.609069824,-9815004.348754883,-5720042.705535889,-2788535.1181030273,19993179.321289062,45520.21995186806,8078784.942626953,-239896.0441350937,-2720727.4436950684,-10737258.911132812,-8119358.062744141,-11502772.331237793,-2686032.772064209,23940341.94946289,9289717.674255371,16082702.63671875,8377458.572387695,-1325976.2525558472,-7796724.796295166,-6416320.80078125,-3879816.5321350098,-4634329.319000244,17844358.444213867,16290187.83569336,17134044.647216797,9251366.61529541,9494035.720825195,-4094164.3714904785,-2386092.9012298584,-3513724.3270874023,-2713755.1307678223,13576109.886169434,14874700.546264648,14928898.811340332,9594748.497009277,-3535373.2109069824,-3202346.8017578125,-2456167.697906494,5336370.468139648,8861815.452575684,5408987.045288086,-3527169.704437256,267387.5093460083
0.28,-1270584.3448638916,-2914794.445037842,-6863533.973693848,-4880089.282989502,-10334576.606750488,10167249.67956543,9171680.450439453,8918737.411499023,-7004568.099975586,-16326576.232910156,-14728042.602539062,-3772559.881210327,-2904148.578643799,-1741433.2628250122,23669300.079345703,7846680.164337158,8989011.764526367,-12811229.705810547,-18270692.825317383,-15404199.600219727,-10571875.57220459,-4526973.724365234,-1191627.6216506958,26223684.310913086,2044210.9107971191,8988354.682922363,-797590.4941558838,-4635373.592376709,-11906595.230102539,-8487684.24987793,-8981519.69909668,-1109336.8530273438,29962020.874023438,12679484.367370605,17738248.825073242,9586385.726928711,-1449108.7198257446,-7057330.131530762,-4109436.03515625,-1610412.836074829,-2355397.7012634277,22676605.224609375,19477422.7142334,20683090.209960938,13139343.26171875,12363181.114196777,1225663.5427474976,260386.46697998047,-1172008.1567764282,-377715.8558368683,17607555.389404297,18646938.32397461,18703914.642333984,12458291.053771973,-1052614.2120361328,-792955.5773735046,73425.00239610672,11229396.82006836,13448714.256286621,9326354.026794434,-1092123.27003479,4889500.617980957
0.285,7605247.974395752,2009567.9759979248,-3168742.895126343,1060448.0504989624,-7222463.130950928,17337984.085083008,16079135.89477539,15547451.01928711,-4700304.985046387,-16994794.845581055,-15590852.737426758,-3821555.8528900146,-2970235.586166382,905624.5684623718,33074665.069580078,11544638.633728027,6309042.930603027,-15208296.775817871,-22728649.139404297,-18795545.57800293,-11776754.379272461,-3908966.541290283,1437529.0870666504,34890476.22680664,3901007.890701294,10876562.118530273,-2697273.2543945312,-7528598.308563232,-16794731.14013672,-9058626.174926758,-6586015.224456787,1504885.0774765015,40077663.42163086,17745431.900024414,18944540.02380371,10902280.807495117,-1631413.6981964111,-6799399.852752686,302514.7616863251,4419793.128967285,3738067.865371704,32066539.764404297,26036529.541015625,27341690.063476562,21748563.766479492,20746257.781982422,11357522.010803223,9134805.679321289,7571672.9164123535,8350388.526916504,27342445.373535156,28107719.42138672,28371164.321899414,20989480.97229004,7751958.847045898,8152245.52154541,8881093.978881836,23772960.662841797,23277425.76599121,21236156.463623047,7812690.734863281,17382225.036621094
0.29,9147193.908691406,58150.872588157654,-4220850.944519043,-642410.5763435364,-9785730.361938477,16898185.72998047,15320240.020751953,14831681.251525879,-8357318.878173828,-22182802.200317383,-19821638.107299805,-6356286.525726318,-5437276.363372803,1913909.0776443481,34650287.62817383,9795335.76965332,1531088.3522033691,-18310117.721557617,-27109952.926635742,-22303775.787353516,-12704420.08972168,-4751373.291015625,2412734.031677246,37114250.18310547,2764583.110809326,11131625.175476074,-4598846.912384033,-9359310.150146484,-21226985.931396484,-9649578.094482422,-6822973.251342773,2558946.371078491,44642913.818359375,19529968.26171875,18576553.344726562,11788676.261901855,-1675562.858581543,-7075829.982757568,2742894.411087036,8187974.92980957,7684456.825256348,37203296.66137695,29973344.802856445,31149036.407470703,28246980.667114258,27151973.724365234,17854623.794555664,16120542.526245117,14671723.365783691,15481157.302856445,33512989.044189453,34174018.85986328,34764923.095703125,27518703.46069336,14728442.192077637,15421253.204345703,15874456.405639648,31993497.848510742,29248008.728027344,30742902.755737305,14979923.248291016,26000474.92980957
0.295,-461494.3563938141,-10146519.660949707,-12250368.118286133,-10317631.721496582,-18777978.897094727,8896777.153015137,7307045.459747314,7109238.147735596,-15949179.649353027,-29280622.482299805,-25805370.330810547,-11596983.909606934,-10604845.04699707,-2017842.5312042236,27733337.40234375,4380008.220672607,-425193.4885978699,-20267040.252685547,-29203548.431396484,-24000484.466552734,-13863330.841064453,-8254986.763000488,-1468696.4750289917,31671842.575073242,33794.693648815155,10783766.746520996,-4284469.127655029,-9022528.648376465,-22222740.173339844,-11197449.684143066,-10879683.494567871,-1281169.7721481323,40245819.091796875,17473363.876342773,18014091.49169922,12540643.692016602,-1514200.4489898682,-8040270.805358887,65934.87411737442,4763621.807098389,4460911.273956299,33757675.17089844,28772066.116333008,29854639.053344727,27951805.114746094,25517040.252685547,14864408.493041992,13849781.99005127,12576294.898986816,13383885.383605957,30702350.616455078,31413669.58618164,32226024.627685547,25824720.38269043,12504244.804382324,13336057.662963867,13657477.378845215,29104637.145996094,25840370.178222656,28824325.561523438,12820256.233215332,22171714.782714844
0.3,-10370613.098144531,-18363830.56640625,-19679740.90576172,-17268976.21154785,-25956609.72595215,2836515.9034729004,1534739.8519515991,1559626.4600753784,-19465593.338012695,-32177089.69116211,-28711269.37866211,-15709129.333496094,-14730894.088745117,-8755035.400390625,20514228.82080078,1144335.9851837158,2581945.4193115234,-20121156.692504883,-28475770.950317383,-23557876.586914062,-15817873.95477295,-13122040.748596191,-8045241.355895996,24692783.35571289,-2143947.3628997803,10629615.783691406,-2423867.94090271,-7394462.108612061,-20603219.985961914,-13943613.052368164,-16278331.756591797,-7969810.962677002,31837272.64404297,13980501.174926758,17632652.282714844,12492045.402526855,-1313753.0088424683,-9482099.533081055,-5593680.858612061,-2965785.7418060303,-3201837.5396728516,25550130.84411621,24380443.572998047,25523309.7076416,22371820.4498291,18330308.91418457,6754091.262817383,5202131.271362305,3940607.0709228516,4665140.628814697,22355627.059936523,23184226.989746094,23963644.02770996,18430181.5032959,3955641.269683838,4577814.57901001,5013654.708862305,19629070.281982422,17043077.46887207,18305759.42993164,4116559.5054626465,10928005.21850586
0.305,-8047071.45690918,-14089045.524597168,-17142200.469970703,-12539422.988891602,-22784027.099609375,5818085.670471191,4718606.472015381,4734961.032867432,-14339520.454406738,-27327325.82092285,-25026309.967041016,-14106910.705566406,-13184062.004089355,-11414856.910705566,20152658.462524414,2894803.047180176,7230720.043182373,-18283401.489257812,-25429946.899414062,-21451898.5748291,-17098829.26940918,-15197061.538696289,-10597176.551818848,22665613.174438477,-2784052.1335601807,10005140.30456543,-1263184.1897964478,-5782081.604003906,-18611129.760742188,-16207361.221313477,-18812692.642211914,-10643313.40789795,27105958.938598633,11609004.974365234,17030464.17236328,10942136.764526367,-1304514.4081115723,-10968931.198120117,-9085676.193237305,-7248098.373413086,-7571674.823760986,20299766.540527344,20865127.563476562,22070436.477661133,16861619.94934082,12977212.905883789,2282317.1615600586,-78906.88627958298,-1494472.622871399,-822742.760181427,16719810.485839844,17734226.22680664,18261705.39855957,12932972.90802002,-1230379.8198699951,-987758.9344978333,-360617.9356575012,14089713.096618652,11974617.958068848,10722631.454467773,-1294597.5065231323,4969066.143035889
0.31,5166326.04598999,-231077.23891735077,-5692273.139953613,-197223.55902194977,-11521526.336669922,15087888.717651367,13849555.015563965,13734342.575073242,-5036816.120147705,-18298912.048339844,-17116649.627685547,-7432397.365570068,-6517250.061035156,-6404799.938201904,26335765.838623047,8085193.634033203,10342612.266540527,-15331562.042236328,-21263031.005859375,-18288000.106811523,-15300350.189208984,-11854443.550109863,-5687891.960144043,27088371.27685547,-1032571.9118118286,9835624.694824219,-791326.9996643066,-4463640.213012695,-16988075.256347656,-15864970.207214355,-16825634.002685547,-5659346.103668213,29832359.313964844,12051433.563232422,17258705.139160156,9142454.147338867,-1541197.8960037231,-11922892.570495605,-8054816.246032715,-4319755.554199219,-4769050.121307373,22397157.669067383,21310716.62902832,22433910.369873047,15122858.047485352,12875314.712524414,3693037.986755371,2746217.727661133,1213142.0373916626,1971203.9232254028,18657306.671142578,19921110.153198242,20111045.837402344,12936880.111694336,1610383.152961731,1671395.4210281372,2366087.4366760254,17718782.424926758,15132823.944091797,13133053.77960205,1463760.6143951416,9904806.137084961
0.315,16349222.183227539,9914398.193359375,3962370.1572418213,7968421.459197998,-3141015.5296325684,22613061.904907227,21088169.09790039,20867538.452148438,340205.9078216553,-12484881.401062012,-11394668.579101562,-1487766.0274505615,-570352.9119491577,1987583.875656128,33239616.39404297,13679007.530212402,12463365.55480957,-12191794.395446777,-18025299.072265625,-15264708.518981934,-10655941.009521484,-5678000.450134277,2486638.7844085693,34180892.94433594,2982046.8425750732,12035377.502441406,651777.1482467651,-3334435.46295166,-15361536.979675293,-12709278.106689453,-12600425.720214844,2711233.615875244,37054656.982421875,15057503.700256348,19119567.87109375,9030809.40246582,-1863364.6965026855,-11369728.088378906,-4673305.511474609,2138454.6756744385,1592893.9580917358,29031698.22692871,24983001.708984375,25969591.14074707,16270973.205566406,14973900.79498291,6003963.947296143,8759773.254394531,7278682.708740234,8181336.402893066,25181295.39489746,26602384.567260742,26477731.704711914,15324741.36352539,7538843.631744385,7750008.106231689,8385599.136352539,25720008.850097656,22033857.345581055,20835363.388061523,7511294.364929199,18961408.615112305
0.32,17201107.025146484,9040584.564208984,4883886.337280273,6901840.2099609375,-3821627.8553009033,23888748.168945312,22295392.990112305,22010705.947875977,-778505.8617591858,-13110284.805297852,-11280349.731445312,-84579.52737808228,719797.4920272827,7122394.561767578,35474784.85107422,16931646.3470459,14326185.22644043,-10759648.323059082,-17417524.337768555,-13824082.374572754,-6503165.245056152,-1512651.3242721558,7536008.358001709,38365791.32080078,6239325.523376465,15081921.577453613,2645947.9331970215,-2869931.697845459,-13979969.97833252,-8559798.240661621,-9328164.100646973,7800925.731658936,41819202.4230957,17722003.936767578,20426448.822021484,10312304.496765137,-2044377.326965332,-8658905.029296875,-1957587.1229171753,6439561.367034912,5795357.227325439,33181324.005126953,27513988.494873047,28480268.478393555,16976413.72680664,15213377.952575684,5526935.577392578,10902866.36352539,9555167.198181152,10500945.091247559,28964424.13330078,30285064.697265625,29918767.92907715,15750137.329101562,9560944.557189941,10007873.53515625,10597983.360290527,29559801.10168457,24807949.06616211,24210073.471069336,9724647.521972656,22413877.487182617
0.325,12613404.273986816,3778807.4016571045,1887579.083442688,2908470.869064331,-7878775.119781494,21177709.579467773,19827770.233154297,19479202.270507812,-3664686.441421509,-16125640.869140625,-13480776.7868042,-306101.4711856842,265359.0738773346,8201080.322265625,32787151.336669922,16672079.086303711,14392035.484313965,-11928657.531738281,-18832090.377807617,-13867574.691772461,-5024617.671966553,-230636.68608665466,8754420.280456543,37429748.53515625,5586611.270904541,15123864.17388916,2991863.250732422,-3404269.4568634033,-13545310.020446777,-5083236.6943359375,-7467892.169952393,8823952.674865723,40387069.70214844,17432018.280029297,18894145.965576172,11023611.068725586,-1945485.9495162964,-4919484.615325928,-194612.7712726593,7610877.03704834,6884235.858917236,31360364.91394043,25957273.483276367,26992103.576660156,15902152.061462402,13587596.893310547,4119488.23928833,8734849.92980957,7456218.719482422,8332196.235656738,26698308.94470215,27728202.81982422,27231678.009033203,14032810.21118164,7348421.573638916,7803342.342376709,8441905.02166748,26720046.997070312,21343414.306640625,20625682.830810547,7594822.883605957,19063766.479492188
0.33,11990802.764892578,4303995.132446289,3536314.7258758545,3936318.3975219727,-6365337.84866333,19744541.16821289,18731231.689453125,18344284.057617188,-2861434.4596862793,-15687397.956848145,-12482092.85736084,2845432.0430755615,3248942.8520202637,9587705.612182617,29887016.29638672,14970815.658569336,12525419.235229492,-13328595.161437988,-19768617.630004883,-13426540.37475586,-4483047.008514404,1648140.1920318604,10338375.091552734,34763706.20727539,2745120.2869415283,12723011.016845703,1810119.9865341187,-4135290.1458740234,-13967074.394226074,-2427045.5837249756,-5197761.058807373,10204882.621765137,36671283.72192383,15842580.795288086,16862052.91748047,10848288.536071777,-1607912.6596450806,-2769653.797149658,2125839.2333984375,8906266.212463379,8231099.1287231445,27615959.16748047,23130222.32055664,24150466.918945312,15041062.355041504,12824121.475219727,4419832.706451416,7279219.627380371,6009315.013885498,6819537.63961792,22829448.699951172,23623365.40222168,23153898.239135742,13071766.85333252,5972295.761108398,6214619.6365356445,6939932.346343994,22534704.208374023,17145603.17993164,16408235.549926758,6143268.585205078,15810287.475585938
0.335,17035476.684570312,11086601.257324219,10230497.360229492,9911071.77734375,1103264.2126083374,22039266.58630371,21224966.049194336,20895763.397216797,1859291.1958694458,-10902089.11895752,-7342364.78805542,8872204.780578613,9336446.762084961,12777468.68133545,30781616.2109375,15457876.205444336,11980032.920837402,-11745553.970336914,-18723882.6751709,-11133912.086486816,-2352808.952331543,5698357.582092285,13581754.684448242,34801078.79638672,2525143.623352051,13035571.098327637,1777022.2425460815,-3990329.9808502197,-14493391.036987305,-205050.39393901825,-2067974.56741333,13448533.058166504,36965160.36987305,16783758.16345215,18466283.798217773,11287662.506103516,-1262171.983718872,-3535031.55708313,5143936.1572265625,11784969.329833984,11324516.296386719,27840177.536010742,23893583.297729492,24797492.98095703,16285829.544067383,13993289.947509766,5540667.533874512,9156950.950622559,7933233.737945557,8726697.92175293,23297891.61682129,24041584.014892578,23761484.146118164,14216086.387634277,7946231.365203857,8065332.412719727,8816852.569580078,22396543.502807617,17676565.170288086,17301090.240478516,8027904.510498047,17378166.19873047
0.34,21864179.611206055,16521997.451782227,14978584.289550781,14830471.03881836,7132434.368133545,25324213.0279541,24522443.771362305,24367275.23803711,6386606.216430664,-5865358.829498291,-2219231.367111206,12201286.315917969,12869644.165039062,13650575.637817383,33460002.899169922,18178636.55090332,14333720.207214355,-7995605.46875,-16791130.06591797,-8139610.290527344,607555.6874275208,8426286.697387695,14368167.877197266,36608989.71557617,5297438.144683838,17213975.90637207,3451270.10345459,-3202224.7314453125,-14813732.147216797,1239421.010017395,-357928.69329452515,14365536.6897583,40809879.302978516,19889055.252075195,22441101.07421875,12349863.052368164,-1161742.5680160522,-5463906.288146973,7020668.506622314,13401647.567749023,13143806.457519531,31306091.30859375,27634506.225585938,28485074.996948242,18190540.313720703,15285486.221313477,5576991.081237793,11441554.069519043,10306131.362915039,11062629.699707031,27199571.60949707,28001577.377319336,27985404.96826172,15641985.893249512,10184949.87487793,10479151.725769043,11150809.288024902,24883586.883544922,21315690.994262695,20974401.473999023,10333193.7789917,20508481.979370117
0.345,22756727.21862793,16987388.610839844,14432396.88873291,15465964.317321777,7259263.038635254,25370206.832885742,24474725.7232666,24535228.729248047,7454427.242279053,-4326566.219329834,-868853.9862632751,9928987.503051758,10694170.951843262,9481050.491333008,32770114.89868164,18986904.14428711,16148340.225219727,-6333590.984344482,-15898130.416870117,-6614486.6943359375,1618712.5444412231,6404116.630554199,10121498.107910156,35470714.5690918,6095679.28314209,19669513.702392578,3999335.527420044,-3007287.02545166,-15341211.318969727,1152682.900428772,-1944941.6399002075,10176935.195922852,41735588.07373047,20579399.10888672,23226493.83544922,12081500.053405762,-1324551.2247085571,-5934122.085571289,6362051.010131836,11109100.341796875,10859053.611755371,31986019.134521484,28863653.1829834,29779556.274414062,17994329.45251465,14877218.246459961,5165254.11605835,10720701.217651367,9625949.85961914,10288404.46472168,28550123.21472168,29425329.208374023,29587133.407592773,15260204.315185547,9300971.031188965,9896820.068359375,10408266.067504883,25215627.670288086,22535783.767700195,21574703.216552734,9630157.470703125,19955640.79284668
0.35,22536689.75830078,16981674.194335938,13345947.265625,14256324.768066406,4889561.176300049,22057687.759399414,21069173.81286621,21253559.112548828,5564183.712005615,-6222627.16293335,-2751833.438873291,5839096.0693359375,6494764.32800293,4853434.085845947,28358343.12438965,15927206.993103027,14236572.265625,-8365757.942199707,-16373102.188110352,-6932296.276092529,405994.0576553345,2083646.297454834,5488764.762878418,30780946.731567383,2695657.730102539,16910758.97216797,2031988.8591766357,-3781138.4201049805,-16336645.126342773,-149526.25334262848,-4976003.170013428,5487532.615661621,37494029.9987793,17437065.12451172,19690729.14123535,10159249.305725098,-1497359.037399292,-4692008.018493652,4261007.785797119,7268820.285797119,6886682.033538818,28072891.235351562,25732074.737548828,26661996.841430664,15879373.550415039,13422695.15991211,5985703.945159912,8368782.043457031,7246585.845947266,7818075.656890869,25648389.81628418,26615447.998046875,26756849.28894043,13648412.704467773,6895113.468170166,7582752.227783203,7939581.871032715,23301570.892333984,20309083.938598633,18761054.99267578,7300787.448883057,16815752.029418945
0.355,23918960.571289062,20146881.103515625,16158372.87902832,13779510.498046875,4551342.487335205,18989206.314086914,18000871.658325195,18139942.169189453,2959450.9601593018,-9332632.064819336,-5128190.517425537,5057201.385498047,5583614.349365234,6327606.201171875,25059589.385986328,12567608.833312988,11056991.577148438,-10846422.19543457,-17177139.282226562,-7645624.160766602,-332796.96106910706,1002154.5886993408,6936124.324798584,27261556.62536621,-670300.0664710999,13276982.307434082,349107.86151885986,-4505070.209503174,-17373201.370239258,-941769.4807052612,-5648977.279663086,6883985.0425720215,33386352.5390625,14681006.43157959,16958789.825439453,9091031.074523926,-1454586.148262024,-3539721.965789795,3124247.3125457764,6642558.574676514,6192043.781280518,24448181.15234375,22694143.295288086,23481029.510498047,14605790.138244629,12835968.971252441,7577794.075012207,8182959.55657959,7040179.252624512,7587635.9939575195,23060386.657714844,24119031.90612793,24117940.90270996,12977108.9553833,6878616.3330078125,7382488.72756958,7691383.838653564,23154764.17541504,18692222.595214844,17242607.11669922,7165700.912475586,16267541.885375977
0.36,23294054.03137207,22083663.940429688,19179119.110107422,12236174.583435059,4962622.165679932,17343797.68371582,16489290.237426758,16511360.168457031,343608.021736145,-12279033.660888672,-6879000.186920166,7425620.555877686,8019068.717956543,12989927.291870117,24295156.478881836,12059161.186218262,10748076.438903809,-10974648.475646973,-17827920.91369629,-7892362.594604492,909248.6500740051,4269019.603729248,13479032.516479492,26692361.83166504,-513550.63915252686,13491580.00946045,1583553.7910461426,-4333604.81262207,-17760160.446166992,211712.3007774353,-3113392.5914764404,13445745.468139648,32845447.540283203,14895212.173461914,17925025.939941406,10372268.676757812,-1266263.6041641235,-3329373.1212615967,3709190.1302337646,9553527.83203125,9156544.68536377,23832798.00415039,22711469.650268555,23372198.1048584,14974552.154541016,13375876.426696777,8007654.190063477,9932382.583618164,8811820.983886719,9399971.961975098,22942428.588867188,23985176.08642578,23956556.32019043,13680393.21899414,8811095.237731934,9141261.100769043,9531468.391418457,24379615.783691406,18913011.55090332,17923353.19519043,8963510.513305664,18091497.42126465
0.365,15672409.057617188,16514986.038208008,15746418.952941895,6733882.427215576,2215357.0652008057,13891517.639160156,13246951.10321045,13279723.167419434,-3090546.6079711914,-15007509.231567383,-8712123.87084961,8797311.782836914,9592111.587524414,17149679.18395996,21051918.029785156,11626399.993896484,12251677.513122559,-10592147.827148438,-18963701.248168945,-8317141.532897949,2459545.373916626,7445582.389831543,17519386.291503906,24255714.416503906,-88556.12576007843,14803565.979003906,3787099.599838257,-3866777.8968811035,-17230426.788330078,2728196.620941162,-464496.04630470276,17509750.366210938,31429880.142211914,14320157.051086426,18901597.97668457,11938293.45703125,-1172893.5241699219,-2955898.5233306885,4520210.742950439,11202517.50946045,10832382.202148438,21820085.525512695,22283351.89819336,23025375.366210938,14799740.7913208,13508580.207824707,7007589.340209961,9121770.858764648,8008977.890014648,8656858.444213867,20804117.20275879,21690429.6875,21905090.33203125,13992362.976074219,7932726.3832092285,8339911.460876465,8839700.698852539,20933031.08215332,16643606.185913086,15796175.956726074,8111032.485961914,15866133.689880371
0.37,3771594.524383545,5570906.162261963,6747387.886047363,-996139.5263671875,-2886374.2351531982,7104716.777801514,6636918.544769287,6831730.842590332,-7052364.349365234,-17544464.111328125,-10756289.4821167,7469540.596008301,8328760.147094727,14755343.437194824,12757396.697998047,7276743.8888549805,11133828.163146973,-12633555.41229248,-21092788.696289062,-9434062.957763672,2592858.5529327393,7249636.173248291,15139181.137084961,16890270.233154297,-3777470.827102661,12288960.456848145,3272406.1012268066,-4313868.522644043,-16137861.251831055,4826727.867126465,-13061.842881143093,15111523.628234863,25294620.513916016,9530603.408813477,16844375.610351562,11407391.548156738,-1268037.0807647705,-1383549.0942001343,4673081.874847412,9040513.038635254,8547739.028930664,15241927.146911621,18161130.905151367,19075506.21032715,13272263.526916504,12813151.359558105,6649580.478668213,4454387.664794922,3296934.8430633545,3954216.480255127,14016420.364379883,14748945.236206055,15340529.441833496,13165936.470031738,3016229.6295166016,3618408.203125,4141980.6480407715,11472096.44317627,10048677.444458008,9046702.38494873,3282263.75579834,7802052.4978637695
0.375,-3286799.430847168,-1703891.9925689697,392515.00368118286,-5571546.55456543,-5342439.1746521,1518233.8953018188,1142207.0264816284,1391885.8766555786,-9507997.512817383,-19583862.3046875,-12034810.066223145,6008508.682250977,6681961.536407471,10512756.34765625,5841341.018676758,1422426.8198013306,7189569.473266602,-15907524.108886719,-23651100.158691406,-10561979.293823242,2213492.1550750732,5818062.305450439,11013525.96282959,10371381.759643555,-8932994.842529297,8193152.42767334,274856.44817352295,-5806565.761566162,-15319935.79864502,5894999.027252197,186004.1618347168,10983391.761779785,20081020.35522461,4836507.797241211,15561870.574951172,9926520.347595215,-1435172.9154586792,804886.5795135498,5852550.983428955,7351705.074310303,6651367.664337158,10145160.675048828,14440490.72265625,15369587.898254395,13155685.424804688,13323712.348937988,8842820.167541504,1835557.5799942017,640190.3033256531,1187176.8236160278,9012757.301330566,9743890.762329102,10529688.835144043,13321061.134338379,276423.27547073364,889139.8906707764,1373755.931854248,4881723.880767822,5481844.902038574,4637258.529663086,497575.22344589233,2347172.498703003
0.38,-1308596.6110229492,-932523.3101844788,1291908.7409973145,-4775012.016296387,-3465588.092803955,1948395.3714370728,1611263.632774353,1601573.7056732178,-9400876.04522705,-21009342.193603516,-12284932.136535645,6591958.522796631,7040061.950683594,10661275.863647461,7498785.972595215,194150.85017681122,5100660.32409668,-16825866.69921875,-25489036.560058594,-11003538.131713867,2777941.4653778076,6622237.682342529,11227064.13269043,12100059.509277344,-9157040.5960083,8766285.89630127,-1487359.642982483,-7173819.541931152,-15529467.582702637,7035212.516784668,3075384.3784332275,11255874.633789062,23644975.662231445,7020122.528076172,19502090.454101562,10184804.916381836,-1552959.680557251,2427752.97164917,9848633.766174316,11357481.002807617,10510416.984558105,14312659.26361084,17013677.5970459,17816465.377807617,16322532.653808594,16631828.308105469,13194393.157958984,7287047.863006592,6136551.856994629,6481567.3828125,13277791.023254395,14116925.239562988,14765523.910522461,16473396.301269531,5837866.78314209,6252904.415130615,6753437.9959106445,9459330.558776855,9741461.753845215,9487867.35534668,5940844.535827637,7645167.827606201
0.385,3864891.290664673,2939514.16015625,5117267.13180542,-2171884.775161743,-1350363.2545471191,6108138.561248779,5796564.57901001,5417203.426361084,-8301823.616027832,-21740432.739257812,-12429694.175720215,7817756.652832031,8268248.558044434,14664996.147155762,14727724.075317383,4403834.342956543,7488208.293914795,-14780042.64831543,-25682826.99584961,-10991906.16607666,3470991.849899292,9098911.28540039,15188089.370727539,19994510.650634766,-3792419.910430908,13967209.815979004,-73251.94776058197,-7252755.165100098,-16438432.693481445,8949708.938598633,7480751.037597656,15267253.875732422,33052505.493164062,14964677.810668945,25497280.12084961,12017451.286315918,-1618323.4453201294,3106699.7051239014,14847143.173217773,18914621.353149414,18052600.860595703,24722822.189331055,23727758.407592773,24494756.6986084,19571290.969848633,20550140.380859375,17070858.001708984,17674268.72253418,16637277.603149414,16862527.84729004,23293874.740600586,24202421.188354492,24534711.837768555,20630058.28857422,16346338.272094727,16647211.074829102,17229751.586914062,20401926.040649414,19499870.30029297,19401115.41748047,16491634.368896484,19170827.865600586
0.39,4886722.564697266,3812182.903289795,5929849.147796631,-1871375.2031326294,-2673218.7271118164,7714101.314544678,7394880.771636963,6947906.017303467,-8265618.324279785,-21441123.962402344,-12954807.28149414,7423514.366149902,8080605.506896973,17382236.48071289,18341318.130493164,8466609.954833984,11335015.296936035,-12660726.547241211,-24110681.533813477,-10904490.47088623,2498065.233230591,9988995.552062988,17850646.97265625,24993015.28930664,1233166.217803955,17246456.146240234,2578294.038772583,-6102522.373199463,-16645656.58569336,10343173.98071289,9163474.082946777,17893447.875976562,37315265.65551758,20612350.463867188,26647100.4486084,12714388.847351074,-1668306.7083358765,3040439.3672943115,16601861.953735352,22484939.575195312,21721168.518066406,30284746.170043945,26582155.227661133,27451478.958129883,18257188.79699707,20853662.490844727,17607801.43737793,23339136.123657227,22380308.151245117,22726106.643676758,28047996.520996094,28954092.025756836,29013607.025146484,21289390.563964844,21959648.13232422,22397258.758544922,22986747.74169922,25270456.314086914,24630115.509033203,23337535.858154297,22321790.69519043,24675760.26916504
0.395,1839137.1965408325,1953158.0209732056,3806014.7762298584,-3798114.776611328,-5998328.685760498,5033937.454223633,4630561.351776123,4483864.784240723,-9501422.882080078,-20461458.206176758,-13443384.170532227,5645140.171051025,6441313.743591309,16461950.302124023,15425415.992736816,8092985.153198242,12278835.29663086,-12693117.141723633,-21903295.516967773,-10643939.971923828,-38972.83971309662,8143561.363220215,16919424.057006836,22854658.126831055,1447852.1347045898,15193593.978881836,3789314.031600952,-4825976.371765137,-15419251.441955566,9344720.840454102,6469308.853149414,16898967.742919922,32131778.717041016,19550062.17956543,22170291.900634766,11267402.648925781,-1712272.6440429688,2206229.2098999023,13507225.99029541,18764522.552490234,18147989.27307129,26298171.997070312,22825544.357299805,23744594.57397461,12856424.331665039,16438659.66796875,14175181.38885498,19897775.650024414,18888414.38293457,19511495.59020996,23531082.153320312,24445051.193237305,24340805.053710938,16994134.9029541,18394702.911376953,18997289.657592773,19435543.060302734,20085653.30505371,21076421.7376709,17667985.916137695,18881788.25378418,19757722.854614258
0.4,-907115.6978607178,571723.4015464783,2026164.2932891846,-5840050.69732666,-8308651.924133301,1628692.5077438354,1086636.0664367676,1236186.6235733032,-11177951.81274414,-20415805.81665039,-14005942.344665527,4063928.6041259766,4780888.080596924,13670109.748840332,10998197.555541992,4555338.382720947,9743540.76385498,-14270547.866821289,-20844877.243041992,-10350223.541259766,-2508078.098297119,5229789.733886719,14096437.454223633,17429140.090942383,-1775621.4141845703,11381210.327148438,3286099.910736084,-4235357.284545898,-14067450.523376465,5981775.760650635,2110531.3301086426,14098355.293273926,24162710.189819336,15174504.280090332,17704862.594604492,9772280.6930542,-1763012.7668380737,521594.8820114136,8303915.023803711,12041398.048400879,11519472.122192383,19011520.385742188,17770093.91784668,18623893.73779297,8487555.503845215,10766287.803649902,9040699.005126953,12662917.137145996,11511102.676391602,12291225.43334961,16537704.467773438,17477201.461791992,17280967.712402344,11217336.654663086,11155977.249145508,11660644.53125,11918033.599853516,12573390.007019043,14506326.675415039,9690382.957458496,11524238.586425781,11576360.702514648
0.405,-2335671.901702881,-374289.03579711914,979940.3548240662,-7635436.058044434,-9706875.801086426,-52630.312740802765,-684447.5269317627,-525980.8301925659,-12949598.31237793,-22278839.111328125,-15414436.340332031,2965813.636779785,3543228.3878326416,10755215.644836426,8813671.112060547,1107594.37084198,6598147.392272949,-15705017.08984375,-21468996.047973633,-10610216.14074707,-4139073.371887207,2739505.7678222656,11118339.538574219,13251428.604125977,-4917317.3904418945,9920458.793640137,2652875.4234313965,-3976727.4856567383,-14479947.090148926,2330199.956893921,-813386.5594863892,11193057.0602417,20456768.035888672,12199724.197387695,16773120.880126953,10246291.160583496,-1828170.2995300293,-1435205.4595947266,4383148.193359375,7658614.635467529,7104838.848114014,15494358.06274414,16286310.195922852,17139343.26171875,8285455.703735352,7773348.331451416,5383447.170257568,8532061.576843262,7334924.697875977,7998751.640319824,13898131.370544434,14772142.41027832,14561841.011047363,8169370.651245117,7158563.613891602,7394152.641296387,7626034.736633301,9974756.240844727,11284940.719604492,6802217.00668335,7348386.764526367,7617370.60546875
0.41,-3787739.038467407,-2145811.3193511963,-423197.06082344055,-9197802.543640137,-11371802.33001709,-555286.1094474792,-1156750.3213882446,-1112205.982208252,-14038882.2555542,-24007997.512817383,-16970161.43798828,1981649.0411758423,2577435.4934692383,8235199.928283691,7884507.179260254,-573331.892490387,5557814.121246338,-15956578.254699707,-22013526.916503906,-11126223.56414795,-5101815.700531006,1002440.6909942627,8620845.794677734,11162409.782409668,-6333593.845367432,10366730.690002441,2963632.822036743,-3191527.1282196045,-16312730.78918457,414344.6087837219,-1877082.347869873,8673747.062683105,20967578.887939453,11240145.683288574,17285413.74206543,11836754.79888916,-1859624.743461609,-2430605.173110962,2643857.479095459,6400290.012359619,5750735.282897949,15953958.511352539,17183921.813964844,18163240.432739258,10310818.672180176,8014665.603637695,4604533.1954956055,8407145.500183105,7426462.650299072,7848256.1111450195,15031925.201416016,15706159.591674805,15568716.049194336,8524499.893188477,7187585.830688477,7356396.675109863,7709987.640380859,11520068.168640137,11880973.815917969,8638141.632080078,7368035.316467285,8144536.018371582
0.415,-3403683.1855773926,-2413318.395614624,-412359.47608947754,-8324577.331542969,-11725982.666015625,608752.6082992554,73197.66283035278,160973.99592399597,-12566059.112548828,-22313991.54663086,-16302019.119262695,1839740.6339645386,2566745.2812194824,7385313.987731934,8209147.4533081055,359379.8875808716,6968929.290771484,-14731050.491333008,-20549037.93334961,-10492672.92022705,-4966065.883636475,554281.8307876587,7901878.356933594,11516053.199768066,-5851948.261260986,10758335.11352539,3747928.1425476074,-1879961.8482589722,-17145895.00427246,612627.2678375244,-1874008.1787109375,7836976.528167725,23249597.549438477,11254295.349121094,16895145.416259766,12179414.749145508,-1797274.8279571533,-1564447.9990005493,2654912.233352661,6714416.027069092,6054019.927978516,17904462.814331055,17710441.58935547,18723791.122436523,11457957.26776123,9554624.557495117,5752153.8734436035,9757507.32421875,9144602.77557373,9455844.87915039,16955396.65222168,17440307.6171875,17365537.643432617,10186046.600341797,8636547.088623047,9053227.424621582,9501404.762268066,14352190.017700195,14373675.346374512,11626174.926757812,8917704.582214355,10975243.56842041
0.42,1578797.1019744873,1633937.954902649,2933802.366256714,-3665574.073791504,-8910202.980041504,4927895.545959473,4315892.696380615,4544310.092926025,-8371215.8203125,-17616439.819335938,-12953453.063964844,2955013.9904022217,3697373.390197754,9036848.068237305,12133657.455444336,3822190.284729004,8756045.3414917,-12866879.4631958,-18091817.85583496,-8562522.888183594,-3446692.943572998,1609698.6532211304,9586980.819702148,15114233.016967773,-4153446.1975097656,11070528.030395508,3655293.2262420654,-1087726.5930175781,-16048561.096191406,1733897.089958191,-1157212.6150131226,9490625.381469727,27150598.526000977,12383653.64074707,16505304.336547852,10425937.65258789,-1674715.3997421265,593312.7999305725,4154549.5986938477,8096016.883850098,7527389.5263671875,21028747.55859375,18245630.264282227,19055282.592773438,11386728.286743164,10886202.812194824,7052423.000335693,11650544.166564941,11211215.019226074,11610218.048095703,19648906.707763672,20150217.056274414,20018121.71936035,11479420.66192627,10557388.305664062,11201556.205749512,11619601.249694824,18838624.954223633,18303396.224975586,14841852.188110352,10831928.253173828,15986471.176147461
0.425,8058747.291564941,7292543.411254883,6663825.511932373,1284801.8407821655,-5185026.6456604,10151696.20513916,9292901.039123535,9498685.836791992,-4950802.326202393,-14613487.243652344,-10157274.24621582,3505813.5986328125,4094457.1495056152,10577902.793884277,18090293.884277344,6862838.268280029,8276797.294616699,-12326357.8414917,-17705709.45739746,-7587186.336517334,-2233571.0525512695,2318255.4244995117,10922697.067260742,19436895.3704834,-3431107.759475708,11483287.811279297,1976709.7234725952,-1445729.4940948486,-15212135.314941406,2042540.0733947754,-683168.4708595276,10952967.643737793,31490480.422973633,14001463.890075684,16941698.07434082,8064529.4189453125,-1592407.9418182373,2130421.8769073486,5770652.294158936,9561386.108398438,9027030.944824219,24446407.318115234,19592758.178710938,20160106.658935547,11184396.743774414,11488324.165344238,7147500.038146973,13413106.918334961,12783246.994018555,13300010.681152344,22859138.48876953,23605810.165405273,23343410.49194336,11946422.576904297,12274444.580078125,12807473.182678223,13142809.867858887,24342000.96130371,22173097.610473633,17771595.001220703,12402584.075927734,21420631.408691406
0.43,9516885.757446289,9341645.240783691,6466734.409332275,1874094.1286087036,-4337978.363037109,11173856.735229492,10137998.580932617,10156079.292297363,-5476473.808288574,-16110517.501831055,-10666989.32647705,1829983.9496612549,2297454.1187286377,8471663.475036621,19778240.203857422,5759419.4412231445,5419822.216033936,-13865606.307983398,-19956945.419311523,-9100267.41027832,-3313167.095184326,533997.7145195007,8591156.005859375,19461965.560913086,-5497767.925262451,10825205.80291748,-185731.6792011261,-2052125.9307861328,-16625488.28125,747550.368309021,-2106066.942214966,8708886.14654541,31994495.391845703,13627104.759216309,16445301.055908203,7130287.647247314,-1579880.2375793457,1697053.5516738892,4881765.365600586,8355980.87310791,7710075.855255127,24549758.911132812,19649133.682250977,20179782.86743164,10472338.676452637,10730431.55670166,5300379.753112793,12230050.086975098,11306914.329528809,11796892.166137695,23025411.60583496,24064834.594726562,23731695.1751709,11124693.870544434,11015150.07019043,11243707.656860352,11537943.840026855,26073490.142822266,22026824.951171875,17354196.548461914,11030693.054199219,22078359.603881836
0.435,5912230.491638184,8173434.257507324,4161431.312561035,-651748.2399940491,-5690102.577209473,7645161.151885986,6738614.082336426,6668307.304382324,-7906873.70300293,-18766698.837280273,-12501893.997192383,-106405.22092580795,400853.87229919434,4258632.659912109,15278121.948242188,1599129.7960281372,3338473.320007324,-15266256.332397461,-21540821.075439453,-11029611.587524414,-5509506.702423096,-2417683.1245422363,4455624.103546143,15037349.700927734,-8410078.048706055,9105059.623718262,-757727.6825904846,-1601930.9759140015,-18850004.196166992,-1001905.4412841797,-5011167.049407959,4442642.688751221,27504343.032836914,10699419.975280762,13986757.278442383,8133124.351501465,-1571975.7080078125,313091.36748313904,1226093.8882827759,3990277.7671813965,3241279.125213623,20381160.736083984,16790317.53540039,17412185.668945312,8453319.549560547,8615210.53314209,2123263.5974884033,7313094.139099121,6347706.317901611,6694895.7443237305,18615472.7935791,19782661.43798828,19457286.834716797,9036346.435546875,6082589.626312256,6200458.526611328,6497820.854187012,21871221.5423584,16994253.158569336,12705387.115478516,6125652.79006958,16678522.109985352
0.44,4216012.954711914,8631112.098693848,5159626.9607543945,-796126.4252662659,-5578019.142150879,5500264.644622803,4904526.233673096,4940891.265869141,-7734017.848968506,-17943935.39428711,-12014328.002929688,805263.340473175,1360904.0975570679,3338835.7162475586,11188158.988952637,-38831.80394768715,4615751.266479492,-14034200.668334961,-20016092.30041504,-10506999.969482422,-5730132.579803467,-3041929.7218322754,3850530.1475524902,12368495.94116211,-8079075.813293457,8818670.272827148,851687.9081726074,-382348.8652706146,-19253704.071044922,-1364540.3385162354,-6478719.711303711,3627859.354019165,23647851.943969727,8623774.528503418,12010893.821716309,9755056.381225586,-1522324.3236541748,270422.5480556488,-1572605.3714752197,688169.1217422485,22739.892825484276,16953678.131103516,13852121.353149414,14485604.286193848,6592600.8224487305,7066100.597381592,61435.7627928257,3528854.1316986084,2731392.1451568604,3007626.77192688,14455103.874206543,15530105.590820312,15205904.006958008,7481728.076934814,2378929.615020752,2658801.794052124,2968305.826187134,17290828.704833984,12464088.439941406,9056914.329528809,2498174.4289398193,12001555.442810059
0.445,7715594.76852417,11186189.651489258,9040531.158447266,2665327.787399292,-4031685.3523254395,8602395.057678223,8107195.854187012,8217548.370361328,-4756842.136383057,-14560620.307922363,-9710268.9743042,3508973.5984802246,3950877.1896362305,6921717.166900635,13698326.110839844,3469035.1486206055,7740705.0132751465,-11098811.149597168,-17570541.381835938,-8403813.362121582,-3796657.8006744385,-1028723.2398986816,7588135.242462158,15473097.801208496,-4033745.765686035,11589721.6796875,2980628.9672851562,-23226.939141750336,-18099369.049072266,-247172.22154140472,-5099553.58505249,7340209.484100342,25722692.489624023,10391722.679138184,13208896.63696289,10467145.919799805,-1446963.7870788574,1955231.9049835205,-610423.5649108887,2116483.449935913,1635538.5780334473,18707433.700561523,14743560.791015625,15347377.77709961,7438734.05456543,8124318.1228637695,1388585.090637207,5585326.194763184,4837992.191314697,5226342.20123291,15639024.73449707,16525817.87109375,16180824.279785156,8480488.777160645,4551273.822784424,4969721.31729126,5282092.094421387,18333782.196044922,13379208.5647583,11500868.797302246,4670930.3855896,14178981.78100586
0.45,11122301.10168457,10918664.932250977,9555490.493774414,4932520.866394043,-4770337.5816345215,13156186.1038208,12408802.98614502,12384459.495544434,-3119766.4737701416,-13267395.01953125,-9275354.385375977,3770069.122314453,4061581.1347961426,9717024.803161621,19654073.71520996,7990586.280822754,9268749.237060547,-9533349.990844727,-17599258.422851562,-8010740.280151367,-2992512.4645233154,-44879.22787666321,10218978.881835938,20255849.838256836,-704133.6297988892,15190037.727355957,3876353.2638549805,-1111418.604850769,-17638711.92932129,504220.78371047974,-3408845.901489258,10119067.192077637,30808256.149291992,14021054.2678833,16173942.565917969,10129116.05834961,-1364617.2285079956,3153091.9075012207,1918475.3894805908,5582489.967346191,5143894.672393799,22548137.664794922,18326215.744018555,19022798.538208008,10589980.125427246,10669317.245483398,5089683.055877686,10348180.770874023,9461181.640625,10022746.086120605,19676755.905151367,20439926.147460938,20122354.50744629,11071733.474731445,9407891.273498535,9752567.291259766,10022047.04284668,22305030.822753906,16987398.147583008,16853769.302368164,9468865.394592285,19345901.489257812
0.455,9412164.688110352,6555347.919464111,5119306.0874938965,3105838.5372161865,-8134337.425231934,13704071.998596191,12689669.609069824,12483967.781066895,-4531586.647033691,-15000698.08959961,-11319335.9375,819146.3351249695,1169987.0824813843,7762334.823608398,21401767.73071289,8610657.691955566,8652795.791625977,-10084806.442260742,-19309711.456298828,-9651807.78503418,-4858227.729797363,-2004258.394241333,8072115.898132324,20690464.01977539,-1528581.8576812744,16155174.255371094,3711605.7872772217,-2203495.2640533447,-17932205.200195312,-122476.92793607712,-4176403.045654297,8038413.047790527,31935825.34790039,15210013.389587402,17021549.224853516,9696883.201599121,-1307762.622833252,2288663.387298584,1908800.8403778076,5665980.815887451,5076286.792755127,22349149.703979492,19636404.037475586,20463268.280029297,12286573.41003418,11221011.1618042,7285456.657409668,10647879.600524902,9710738.182067871,10291442.87109375,20035856.246948242,20778089.52331543,20529304.50439453,11863776.206970215,9770017.623901367,10022793.769836426,10168016.43371582,22024633.407592773,16968660.354614258,17443510.055541992,9832542.419433594,19187095.642089844
0.46,5759749.889373779,3634845.733642578,1936916.5897369385,661124.3486404419,-9688410.758972168,11090689.659118652,10175421.714782715,9979455.947875977,-5908838.748931885,-16082658.767700195,-12462864.875793457,-1225688.5766983032,-634478.509426117,4153275.0129699707,17909778.594970703,6376195.907592773,8335651.397705078,-10767851.829528809,-19254566.192626953,-10259962.08190918,-6596953.868865967,-4005027.2941589355,4535349.8458862305,17666006.088256836,-4444536.6859436035,14343377.113342285,3588690.5193328857,-1984849.5721817017,-16987657.54699707,-730498.0158805847,-6153311.252593994,4383810.043334961,28437366.485595703,13416325.569152832,14798389.434814453,9697188.377380371,-1381745.9344863892,853095.5910682678,-446698.03977012634,2390326.499938965,1654761.552810669,18574501.037597656,17225482.940673828,17973436.35559082,10383683.204650879,9011326.789855957,5954524.517059326,6097699.6421813965,5334174.633026123,5762682.4378967285,16257055.282592773,16998178.482055664,16741924.285888672,9898576.736450195,5221408.843994141,5602625.846862793,5612016.677856445,17366909.02709961,13213453.29284668,12406464.576721191,5412770.2713012695,13654367.446899414
0.465,6319380.760192871,6007216.453552246,4156870.8419799805,1702677.3691177368,-7400391.578674316,10625015.258789062,10066978.454589844,10006145.477294922,-4879384.994506836,-14825128.555297852,-11206358.909606934,216120.83911895752,961497.9028701782,4036201.9538879395,15995307.922363281,6156277.179718018,9406030.654907227,-10720908.164978027,-17421140.670776367,-8763077.735900879,-5450734.1384887695,-2933512.9261016846,4650441.1697387695,17432348.251342773,-5058364.391326904,12944467.544555664,3561805.9635162354,-1405168.6525344849,-15131582.260131836,221491.88816547394,-6010215.282440186,4361504.077911377,27051727.294921875,12512743.949890137,12937293.05267334,9825741.7678833,-1670093.5363769531,1197232.0079803467,-1042737.9608154297,1328419.0893173218,620685.1005554199,18177042.00744629,15662258.14819336,16161651.611328125,8052546.501159668,8186976.432800293,4032663.8221740723,4220572.471618652,3600391.626358032,3929961.4429473877,15060127.258300781,15761638.641357422,15370911.598205566,9070009.231567383,3251554.9659729004,3855482.1014404297,3878634.9296569824,16191082.000732422,12400093.078613281,9654642.105102539,3639327.28767395,11550538.063049316
0.47,11151021.957397461,9911409.378051758,7544601.4404296875,4922910.690307617,-5148307.800292969,14405918.12133789,13990458.488464355,13932165.145874023,-3433269.739151001,-14315078.735351562,-10476380.348205566,2363345.8614349365,3083306.312561035,7398788.4521484375,20832998.275756836,9783242.225646973,10281771.659851074,-11305400.848388672,-17720085.14404297,-8045704.8416137695,-2816700.220108032,-79964.31738138199,8124952.31628418,22824810.028076172,-2212975.7404327393,14562449.45526123,3066987.7529144287,-2356933.116912842,-15402455.32989502,2048693.1800842285,-3171369.3141937256,7806913.375854492,32500064.849853516,15527050.971984863,14925609.588623047,10062872.886657715,-2054139.6141052246,3142250.0610351562,2083187.5801086426,5491277.21786499,4949811.935424805,24816127.77709961,19318534.85107422,19741029.739379883,10186394.691467285,12809464.454650879,6057488.441467285,9696538.925170898,8976197.242736816,9419995.307922363,20714307.78503418,21403982.162475586,20861244.201660156,13488537.788391113,8630629.539489746,9224458.694458008,9454792.976379395,23124626.15966797,18491762.161254883,15269948.00567627,9150897.979736328,18186859.130859375
0.475,15153376.579284668,10382676.124572754,7091316.699981689,6593037.6052856445,-6324952.602386475,19223598.48022461,18518941.87927246,18304681.7779541,-3869690.418243408,-16790943.145751953,-12420984.268188477,2115686.1782073975,2812990.90385437,10510143.280029297,29195896.14868164,14395888.328552246,10161964.416503906,-12713895.797729492,-21562862.396240234,-9888731.956481934,-1550562.9777908325,1576237.678527832,11173358.917236328,29884950.637817383,1590242.624282837,18516132.354736328,2596685.6479644775,-4682854.652404785,-18269741.05834961,3261706.590652466,8965.438231825829,10866063.117980957,40892688.7512207,20810394.287109375,19828464.50805664,11057409.286499023,-2268285.7513427734,4686001.777648926,6429058.074951172,11356758.117675781,11009047.508239746,33472755.432128906,26030809.40246582,26687356.94885254,16541826.248168945,20760185.24169922,12165418.62487793,17906391.143798828,17023397.44567871,17653142.92907715,28744678.497314453,29540699.005126953,28971725.463867188,21329051.971435547,16894924.16381836,17207256.317138672,17656766.891479492,32695594.787597656,26943302.154541016,25265806.198120117,17394147.872924805,28116624.83215332
0.48,15308200.83618164,8564736.366271973,4949745.178222656,6253748.416900635,-8557302.474975586,21091339.111328125,19983118.057250977,19721641.540527344,-4778689.861297607,-19404657.3638916,-14493917.465209961,1145535.3498458862,1910789.966583252,11789810.180664062,33116027.83203125,16478771.209716797,10599516.868591309,-12707642.555236816,-24839588.165283203,-11517153.7399292,-1555307.149887085,2071769.2375183105,12354783.058166504,32615882.873535156,3629019.7372436523,21611118.31665039,3220384.120941162,-6040485.382080078,-19627929.6875,3926565.408706665,1894346.1179733276,12051957.130432129,43833442.68798828,23748325.34790039,22918247.22290039,12804571.151733398,-2181169.7483062744,5170348.644256592,8763501.167297363,13902063.369750977,13716697.692871094,36001125.33569336,29003982.543945312,29916028.97644043,20945384.979248047,25109273.91052246,17254108.428955078,21403419.494628906,20536865.234375,21178077.697753906,31094985.961914062,32048976.89819336,31620058.059692383,25759016.036987305,20548686.981201172,20642015.45715332,21117885.58959961,35706153.869628906,29862318.03894043,30134115.21911621,20901481.62841797,31883071.899414062
0.485,12651814.460754395,8041667.938232422,5319931.983947754,5822715.282440186,-8340921.401977539,19041463.85192871,17870744.705200195,17812265.396118164,-4007938.3850097656,-18569423.67553711,-13580612.182617188,2475738.763809204,3213773.9658355713,12171733.856201172,28515720.36743164,15116155.624389648,12392313.957214355,-10268475.532531738,-23525522.232055664,-9866526.60369873,-896500.289440155,3202588.3197784424,12653205.871582031,28707202.911376953,2976131.2007904053,21126226.4251709,4646688.938140869,-4982789.039611816,-16518688.201904297,4760227.680206299,2674055.0994873047,12458815.574645996,37542892.45605469,21417604.446411133,20715135.57434082,13956562.995910645,-1903067.8272247314,5558948.993682861,8429008.483886719,12242949.485778809,12132103.91998291,29753358.840942383,24545026.779174805,25427309.036254883,18441068.649291992,21900930.404663086,16789308.547973633,18766036.987304688,17980102.5390625,18451116.56188965,25162717.819213867,26113424.30114746,25942436.21826172,22578859.329223633,17899993.896484375,18105028.15246582,18432571.411132812,29415176.391601562,24514032.3638916,25319919.58618164,18092002.868652344,26403142.92907715
0.49,9082252.502441406,8240828.514099121,6633070.468902588,5651872.158050537,-6796900.749206543,15115798.950195312,14293016.43371582,14451462.745666504,-2609972.7153778076,-15393208.503723145,-10943112.37335205,5102233.409881592,5604001.998901367,11959198.951721191,19516613.006591797,11974295.616149902,13770345.687866211,-7776801.586151123,-19310802.459716797,-6458084.1064453125,541524.8274803162,4690921.783447266,12321669.578552246,21224296.56982422,419282.7641963959,17679702.758789062,5451962.947845459,-2778964.5195007324,-11884496.688842773,5169190.406799316,2673175.33493042,12372746.467590332,27041103.36303711,15590543.746948242,15073511.123657227,13463717.460632324,-1588555.3359985352,6019728.183746338,6674738.40713501,9224627.494812012,9038581.848144531,19870285.034179688,16468940.734863281,17110710.14404297,11494360.92376709,14608362.197875977,12030501.365661621,14414492.6071167,13551925.659179688,13884323.120117188,16146806.716918945,16819168.090820312,16932462.692260742,15097247.123718262,13271501.541137695,13783354.759216309,13972485.542297363,19615434.646606445,15529413.223266602,15433938.980102539,13377884.864807129,17022974.014282227
0.495,6454386.234283447,6851594.924926758,5421918.869018555,5165892.124176025,-6538509.845733643,12739201.545715332,12330062.866210938,12427204.132080078,-2505704.164505005,-13386807.441711426,-9676831.245422363,6311132.907867432,6600034.236907959,11569416.999816895,14548756.59942627,9957496.643066406,13432679.176330566,-7552125.453948975,-16794382.095336914,-4780203.342437744,1655361.7715835571,5305895.805358887,11829739.570617676,16375408.172607422,-1877801.4183044434,15242671.012878418,5312167.644500732,-1513991.7135238647,-10458677.291870117,4492476.940155029,2304592.8478240967,12040362.358093262,21661252.975463867,11495838.165283203,11653510.093688965,12216290.473937988,-1302986.979484558,5671989.440917969,5229337.692260742,8095767.021179199,7741342.067718506,14483428.001403809,12348340.034484863,12815455.436706543,7165465.831756592,9981942.176818848,8340076.446533203,12682320.594787598,11708023.071289062,12054402.351379395,11748080.253601074,12039008.140563965,12329840.660095215,10308170.318603516,11300804.138183594,11968767.166137695,12130918.502807617,14455773.35357666,10296559.33380127,9405104.637145996,11396137.237548828,11720098.495483398
0.5,6772233.009338379,5222587.585449219,3867804.2888641357,5081616.8785095215,-6490182.399749756,13909271.240234375,13627602.577209473,13480317.115783691,-2909183.2637786865,-13247692.108154297,-9738881.11114502,6951192.378997803,7314287.185668945,13446886.06262207,17409564.971923828,10829543.113708496,12782668.113708496,-8623888.969421387,-17259788.513183594,-4980086.326599121,2959769.2489624023,6200155.735015869,13755638.122558594,18107252.12097168,-1994299.5309829712,16899133.682250977,5292392.253875732,-1590368.0324554443,-12102066.993713379,4152771.9497680664,2977578.1631469727,13823703.76586914,25638092.041015625,12604870.796203613,13643120.765686035,11799867.630004883,-1123625.636100769,4856118.679046631,5735002.040863037,10319747.924804688,9869265.55633545,17317647.93395996,15421526.908874512,15861394.882202148,8676506.042480469,10678165.435791016,8819314.002990723,14365813.255310059,13523094.177246094,13949006.080627441,14926844.596862793,15049913.40637207,15298943.519592285,11167613.983154297,13108084.678649902,13644184.112548828,13836514.472961426,16997653.96118164,12367333.41217041,11955788.612365723,13208795.547485352,14030646.324157715
