time,Fp1,Fpz,Fp2,AF3,AF4,F7,F5,F3,F1,Fz,F2,F4,F6,F8,FT7,FC5,FC3,FC1,FCz,FC2,FC4,FC6,FT8,T7,C5,C3,C1,Cz,C2,C4,C6,T8,TP7,CP5,CP3,CP1,CPz,CP2,CP4,CP6,TP8,P7,P5,P3,P1,Pz,P2,P4,P6,P8,PO7,PO5,PO3,POz,PO4,PO6,PO8,CB1,O1,Oz,O2,CB2
0.0,2048145.5326080322,1420235.514640808,270833.8499069214,1054869.4133758545,-720680.2368164062,1917517.6620483398,2002926.3496398926,1987235.5461120605,638690.0544166565,492003.6196708679,160853.25181484222,-294260.9488964081,-301418.36404800415,-964395.1058387756,2472245.693206787,1867386.817932129,1889942.0499801636,325318.69411468506,601254.2843818665,-110802.3077249527,-241381.55579566956,-597916.9011116028,-931940.1979446411,2061871.05178833,2128508.8062286377,772871.0174560547,419855.2668094635,46031.393110752106,-220912.79923915863,-169128.85010242462,-292031.854391098,-918637.0968818665,459534.3768596649,1663315.773010254,929633.4981918335,243798.59864711761,-65663.97100687027,293403.41687202454,-196319.63968276978,-273116.8270111084,-280801.59425735474,1431309.461593628,818980.8130264282,818881.0348510742,280802.24990844727,127917.48344898224,72767.01182126999,66230.87078332901,48185.10636687279,58921.16203904152,785795.9866523743,769204.0205001831,716684.6990585327,138318.85159015656,104151.97163820267,99687.44963407516,82466.7140841484,1098618.984222412,562341.2728309631,497627.5861263275,72575.09231567383,486887.8126144409
0.005,-32319339.752197266,-24725118.63708496,-21846961.975097656,-24935110.092163086,-18832283.02001953,-41411670.68481445,-37782188.415527344,-38430763.244628906,-20257604.598999023,-13573218.34564209,-14087945.938110352,-12799851.417541504,-12858360.290527344,-22861505.50842285,-38438301.08642578,-36896297.454833984,-21009590.14892578,-18345575.3326416,-7922636.50894165,-7949856.758117676,-16033567.428588867,-20995031.356811523,-21994400.024414062,-12289597.511291504,-43748958.587646484,-25290876.388549805,-13823212.623596191,-2164432.7640533447,-9202887.535095215,-11847543.716430664,-20941501.61743164,-21941509.246826172,-13030325.889587402,-22919775.009155273,-25822000.50354004,-11918677.33001709,-820426.4640808105,54006.25616312027,-8439619.064331055,-15942979.81262207,-17338991.165161133,-15242828.369140625,-14765095.710754395,-14965447.425842285,-6263105.869293213,-4115071.2966918945,-4417911.529541016,-13180056.57196045,-14373641.014099121,-13365207.67211914,-14542856.216430664,-15143921.852111816,-12053151.13067627,-3745182.752609253,-12583496.09375,-12771556.854248047,-13002197.265625,-18705606.46057129,-15593764.305114746,-12872414.588928223,-13408663.749694824,-16929178.23791504
0.01,-46985774.993896484,-34667427.06298828,-28102100.372314453,-35451126.09863281,-23723812.103271484,-60703960.41870117,-55493537.90283203,-56550861.35864258,-29181367.874145508,-18222736.358642578,-17929601.669311523,-14266278.266906738,-14472159.385681152,-28152399.06311035,-59088882.44628906,-56394309.997558594,-33083919.525146484,-26710281.372070312,-10712926.864624023,-8917263.984680176,-19793142.318725586,-25622091.29333496,-27049385.07080078,-21758842.46826172,-66418640.13671875,-39171051.025390625,-21294263.83972168,-3032015.800476074,-11425335.884094238,-14390100.479125977,-26888719.55871582,-26863458.63342285,-20436296.463012695,-35984752.6550293,-39852001.19018555,-17957258.224487305,-1142567.2769546509,378703.65381240845,-10503063.201904297,-20159065.24658203,-22173398.971557617,-23743364.334106445,-23080217.361450195,-23210247.039794922,-10169278.144836426,-7138781.0707092285,-6713345.527648926,-18018182.7545166,-19717348.098754883,-18352380.752563477,-21897426.60522461,-22802158.35571289,-18346973.419189453,-6479617.118835449,-17159303.665161133,-17374818.801879883,-17918153.762817383,-27129285.81237793,-22943460.46447754,-18483949.661254883,-18361610.412597656,-24201599.12109375
0.015,-41510208.12988281,-29319972.99194336,-21151931.762695312,-30416990.280151367,-17893682.4798584,-55630268.09692383,-50859321.59423828,-51990772.24731445,-25886844.635009766,-14165427.207946777,-12744361.877441406,-7845029.354095459,-8179284.09576416,-20414545.0592041,-57507961.27319336,-55293849.94506836,-33464900.970458984,-24801267.623901367,-8318482.398986816,-5005100.250244141,-13890949.249267578,-17954854.96520996,-19624670.028686523,-24408903.121948242,-65079933.166503906,-40004028.3203125,-21548456.1920166,-2989355.3256988525,-8285183.906555176,-9812267.303466797,-20612314.224243164,-19238615.036010742,-20732486.724853516,-36610851.2878418,-40515682.220458984,-17873081.20727539,-1071336.5077972412,894275.6056785583,-8006052.017211914,-15062775.611877441,-16967859.268188477,-23727682.11364746,-23525442.123413086,-23449167.251586914,-10901833.534240723,-8063580.513000488,-6619766.2353515625,-15714531.898498535,-17273956.298828125,-16117292.404174805,-21491605.758666992,-22398983.001708984,-18303073.88305664,-7312896.251678467,-14861707.68737793,-14990306.854248047,-15762001.037597656,-24853309.631347656,-22016477.584838867,-17118679.04663086,-16008562.088012695,-22131977.081298828
0.02,-32468753.814697266,-23302412.033081055,-16566011.428833008,-23074325.561523438,-14183546.06628418,-45709125.51879883,-41862751.00708008,-42802459.716796875,-20498828.887939453,-10218055.725097656,-8885354.042053223,-5454192.161560059,-5765398.979187012,-16274599.075317383,-49131618.49975586,-48370510.10131836,-30409315.10925293,-21119901.657104492,-6378731.727600098,-3694891.2143707275,-10887436.866760254,-13952848.434448242,-15811266.899108887,-23169197.08251953,-58029747.009277344,-36709415.435791016,-19627496.71936035,-3446203.4702301025,-7035341.739654541,-7706612.110137939,-16668828.964233398,-15310100.555419922,-18349361.419677734,-33512592.315673828,-37222236.63330078,-16234743.118286133,-971649.0507125854,486211.00187301636,-7498847.961425781,-12123767.852783203,-13813899.993896484,-22141494.750976562,-21526048.66027832,-21414794.921875,-9888221.740722656,-6903552.532196045,-5327056.407928467,-14045307.159423828,-15344731.330871582,-14408264.16015625,-20068994.522094727,-20903472.900390625,-17387212.7532959,-6336775.779724121,-13223086.3571167,-13289721.488952637,-14008517.265319824,-21826358.795166016,-20262519.83642578,-15553765.296936035,-14200860.023498535,-19649923.32458496
0.025,-33018024.444580078,-26151594.161987305,-21939041.137695312,-23730768.20373535,-18338844.299316406,-45669956.20727539,-42032520.29418945,-42716873.16894531,-21232206.344604492,-12291954.99420166,-12452546.119689941,-11353453.636169434,-11589460.372924805,-22613557.815551758,-48071567.53540039,-48123798.37036133,-31025512.6953125,-21902492.52319336,-8560029.983520508,-7693263.530731201,-16942026.138305664,-20273983.001708984,-22147153.854370117,-23013481.14013672,-59517261.50512695,-36547935.485839844,-19671987.533569336,-4703283.309936523,-11170238.494873047,-12468111.991882324,-22346824.645996094,-21731071.47216797,-18017337.799072266,-34214759.826660156,-37146808.62426758,-16084365.844726562,-1038742.3038482666,-1326462.5072479248,-11454001.426696777,-16832483.291625977,-18565732.955932617,-24646358.489990234,-21695034.02709961,-21730833.053588867,-8702601.432800293,-4834281.444549561,-3729520.320892334,-16572999.954223633,-17819570.541381836,-16842975.616455078,-22008888.244628906,-22882804.87060547,-19165798.18725586,-4598985.195159912,-15699478.149414062,-15751397.132873535,-16294988.632202148,-24102972.03063965,-21933324.813842773,-17119758.60595703,-16633214.950561523,-21847372.05505371
0.03,-39474525.451660156,-32504341.12548828,-29235853.19519043,-29564493.17932129,-23959476.470947266,-51584945.67871094,-47631572.72338867,-48189907.07397461,-26240337.371826172,-17524791.717529297,-18868415.83251953,-17781677.24609375,-18062637.329101562,-29926115.036010742,-52803245.544433594,-52676445.00732422,-34234992.98095703,-25459327.697753906,-12548932.075500488,-12088767.051696777,-24906558.990478516,-27763174.057006836,-29261220.932006836,-24946350.09765625,-66297340.393066406,-38609992.98095703,-21194257.736206055,-5656487.464904785,-16127065.658569336,-18587612.15209961,-30042446.13647461,-29039329.528808594,-19529258.728027344,-37685993.19458008,-38896148.681640625,-16855939.865112305,-1153319.8356628418,-3308019.6380615234,-15545292.854309082,-23030033.111572266,-24906045.91369629,-29098699.56970215,-23266149.520874023,-23391590.118408203,-7958486.080169678,-3492528.9154052734,-2171734.094619751,-19130022.048950195,-20451543.8079834,-19367383.95690918,-24772928.23791504,-25726228.713989258,-21490554.809570312,-3441911.9358062744,-18248111.724853516,-18249946.59423828,-18805656.43310547,-27625577.926635742,-23893022.537231445,-18372644.424438477,-19196132.65991211,-24776973.724365234
0.035,-40384845.73364258,-32602294.921875,-28630990.982055664,-31779155.731201172,-24191457.748413086,-52116340.63720703,-48090557.09838867,-48705730.43823242,-28549991.607666016,-19973121.643066406,-20608798.98071289,-17105171.20361328,-17510314.94140625,-28278945.922851562,-52897045.13549805,-52955791.47338867,-34684906.005859375,-27009334.564208984,-13940504.07409668,-11873634.338378906,-25418956.756591797,-26685823.440551758,-27471256.256103516,-25087106.704711914,-67626350.40283203,-38518222.80883789,-21561866.760253906,-5549117.565155029,-15966936.111450195,-19424358.367919922,-29807851.791381836,-27346387.86315918,-18989187.240600586,-38401687.62207031,-38104167.93823242,-17316568.37463379,-1182418.2271957397,-3675772.190093994,-15287726.402282715,-22934000.01525879,-24830390.93017578,-29294984.817504883,-22811298.370361328,-22904533.38623047,-7666585.445404053,-3651199.5792388916,-1222350.9550094604,-17176633.834838867,-18575037.002563477,-17490253.448486328,-23836509.704589844,-24711307.525634766,-20534006.118774414,-3454591.989517212,-16434148.788452148,-16334798.812866211,-17076707.83996582,-25842966.079711914,-21749923.706054688,-15518791.198730469,-17291036.60583496,-22745410.919189453
0.04,-33582019.8059082,-26498802.185058594,-21997261.04736328,-28228252.410888672,-20786418.914794922,-45480785.36987305,-41765548.70605469,-42526470.18432617,-25834764.48059082,-18525173.18725586,-17132225.036621094,-11608491.897583008,-12049912.452697754,-20675937.65258789,-45578861.236572266,-46682727.8137207,-30892484.664916992,-25355022.430419922,-12112483.024597168,-8245132.4462890625,-19511341.094970703,-19740732.192993164,-19791803.35998535,-20881982.803344727,-61372779.846191406,-35529129.02832031,-19960063.934326172,-4936266.4222717285,-11573451.042175293,-16153747.55859375,-22851053.23791504,-19623725.89111328,-14780785.56060791,-34752090.45410156,-34685726.165771484,-17566123.962402344,-1174762.7258300781,-2471951.723098755,-12015666.961669922,-17398626.32751465,-19235736.846923828,-23700057.983398438,-19572238.92211914,-19707187.65258789,-7793704.986572266,-4577207.088470459,-1404976.0103225708,-12399189.949035645,-13903762.817382812,-12803213.119506836,-19262605.667114258,-19893442.153930664,-16358503.341674805,-4041388.511657715,-11845941.543579102,-11665290.832519531,-12471242.904663086,-19063274.383544922,-16318033.218383789,-10287342.071533203,-12528164.863586426,-16557537.078857422
0.045,-27787086.486816406,-22446100.23498535,-18054580.688476562,-24491214.752197266,-18799146.65222168,-39719955.44433594,-36203071.59423828,-37059707.64160156,-22041593.551635742,-16432054.51965332,-13720484.733581543,-8165327.072143555,-8545342.445373535,-16451250.076293945,-39110919.95239258,-40658042.907714844,-26861171.72241211,-22872793.197631836,-10040507.316589355,-5474494.457244873,-15590696.334838867,-15874876.022338867,-15454272.270202637,-15626105.308532715,-55379337.310791016,-32877052.307128906,-17847591.400146484,-4521458.148956299,-8908782.958984375,-14807683.944702148,-18243547.439575195,-15278750.4196167,-10156674.3850708,-30828924.17907715,-32379718.780517578,-17956609.72595215,-1191069.483757019,-1769368.052482605,-10297355.651855469,-13163310.050964355,-14968400.955200195,-17531742.095947266,-16433534.622192383,-16774511.337280273,-8378582.954406738,-5064839.839935303,-2346036.434173584,-9908645.629882812,-11529824.256896973,-10281938.552856445,-15316916.465759277,-15778194.427490234,-12736074.447631836,-4322866.439819336,-9437352.180480957,-9228396.41571045,-9874706.268310547,-13386776.9241333,-11983245.849609375,-7401131.629943848,-10029729.843139648,-11913950.92010498
0.05,-29167224.884033203,-24430742.263793945,-19543502.807617188,-24702764.5111084,-18409311.294555664,-40275630.950927734,-36572494.50683594,-37399738.31176758,-20879848.48022461,-15540964.126586914,-13184391.021728516,-8272495.269775391,-8625339.50805664,-17996625.900268555,-40274513.244628906,-40964176.177978516,-26454368.591308594,-21439043.045043945,-9498967.170715332,-4602481.842041016,-16954719.54345703,-17341934.204101562,-16894676.208496094,-14537979.125976562,-56192745.208740234,-33121475.219726562,-16781761.169433594,-4055348.8731384277,-10313094.139099121,-17262979.50744629,-20147146.224975586,-16861066.818237305,-9251131.057739258,-30897060.39428711,-33700492.85888672,-18294479.370117188,-1154977.2024154663,-2987600.088119507,-11617395.401000977,-13490019.798278809,-15243500.709533691,-16258279.800415039,-16285434.72290039,-16796985.626220703,-9579772.94921875,-5056938.171386719,-3209463.119506836,-11600435.256958008,-13191926.002502441,-11820561.408996582,-15156783.103942871,-15708571.434020996,-12611368.179321289,-4417100.90637207,-11088755.60760498,-10886355.40008545,-11380570.411682129,-13066142.082214355,-11260274.887084961,-8736862.182617188,-11746562.004089355,-12175100.326538086
0.055,-34127082.82470703,-28429002.76184082,-22006200.790405273,-27130445.48034668,-16966882.705688477,-44545768.73779297,-40547592.16308594,-41254959.10644531,-21907400.131225586,-15068221.092224121,-13568246.841430664,-8332031.25,-8729902.267456055,-20360620.498657227,-45997112.27416992,-46240470.88623047,-29134248.733520508,-21176391.6015625,-9474415.77911377,-3381539.3447875977,-18582101.821899414,-19123846.05407715,-19275297.164916992,-18458585.739135742,-62260269.16503906,-35685111.99951172,-17140441.89453125,-3135007.14302063,-11768802.642822266,-19665746.688842773,-24109138.48876953,-19389766.693115234,-12400629.043579102,-34860046.38671875,-37914390.563964844,-18676610.946655273,-1024310.9464645386,-4946252.346038818,-13355175.018310547,-15752791.404724121,-17379465.103149414,-20049598.693847656,-19085153.579711914,-19524475.09765625,-11506566.047668457,-5651072.978973389,-3916598.081588745,-15031989.097595215,-16399221.420288086,-15114772.79663086,-18285577.77404785,-19070613.861083984,-15648930.549621582,-5291983.604431152,-14431813.24005127,-14292430.877685547,-14832715.034484863,-17434303.283691406,-13481884.002685547,-12504940.032958984,-15220553.398132324,-15941043.853759766
0.06,-36887840.270996094,-30436077.117919922,-22500711.44104004,-29035335.540771484,-15116853.713989258,-48204849.24316406,-44136394.50073242,-44752429.9621582,-23349123.001098633,-15038152.694702148,-13259783.744812012,-6865374.0882873535,-7297965.049743652,-20298864.364624023,-49983024.59716797,-51382858.27636719,-31994005.20324707,-22071704.864501953,-9211916.92352295,-893317.2821998596,-16192590.713500977,-18085559.844970703,-19312231.063842773,-23878553.39050293,-68105186.46240234,-38518966.67480469,-18514272.689819336,-2328783.9889526367,-9646364.212036133,-19128679.275512695,-24887817.3828125,-19387741.088867188,-16513685.22644043,-39415977.478027344,-42759201.04980469,-19553491.592407227,-959971.54712677,-5482896.80480957,-13080065.727233887,-16673614.501953125,-18208213.806152344,-25296623.22998047,-22439601.89819336,-22629526.138305664,-13530738.830566406,-7212504.3869018555,-4963504.791259766,-17294939.041137695,-18431180.953979492,-17343046.188354492,-22330743.78967285,-23221733.09326172,-19542810.440063477,-7073203.563690186,-16558679.580688477,-16566825.866699219,-17252702.713012695,-23670028.686523438,-16947738.647460938,-16289710.998535156,-17461320.877075195,-20231807.708740234
0.065,-37033710.47973633,-31041790.008544922,-22299978.256225586,-30354045.867919922,-15194633.483886719,-50219394.68383789,-46288333.892822266,-46948329.92553711,-24762472.15270996,-16512327.194213867,-13309691.429138184,-5939609.050750732,-6361957.550048828,-19187263.48876953,-50950916.2902832,-53276485.443115234,-33241004.943847656,-23876089.096069336,-9624155.99822998,1131975.531578064,-12452391.624450684,-16290205.001831055,-18255830.764770508,-27114021.30126953,-70162910.46142578,-39741905.212402344,-19931884.765625,-2477631.5689086914,-6248041.62979126,-17675907.135009766,-22588562.01171875,-18140737.533569336,-18242189.407348633,-41208133.697509766,-45595829.010009766,-20415861.129760742,-1116134.524345398,-4274285.316467285,-11277701.377868652,-15799700.736999512,-17403354.64477539,-28399831.771850586,-23516427.993774414,-23507762.908935547,-14038512.229919434,-8238950.729370117,-6115958.213806152,-17313716.888427734,-18377975.463867188,-17353921.89025879,-24656356.811523438,-25437078.47595215,-21576190.948486328,-8165246.963500977,-16360242.84362793,-16502744.674682617,-17257390.97595215,-28573966.97998047,-19390378.952026367,-18036916.732788086,-17364105.224609375,-22616264.34326172
0.07,-35997119.90356445,-30465091.705322266,-21268095.016479492,-30701995.849609375,-15563910.484313965,-50098484.03930664,-46340293.884277344,-47148700.71411133,-25430236.81640625,-18140295.028686523,-13759525.299072266,-6087723.255157471,-6480493.545532227,-17929628.372192383,-50047004.69970703,-51070251.46484375,-32397369.384765625,-24797065.73486328,-10807278.633117676,1437854.290008545,-11703587.532043457,-15567289.352416992,-17036720.275878906,-26134826.66015625,-67437278.7475586,-37887611.389160156,-19981163.024902344,-3310194.253921509,-6028109.073638916,-18239521.026611328,-19906372.0703125,-16767332.077026367,-15720377.922058105,-38411876.6784668,-43942974.09057617,-19945402.145385742,-1345564.4845962524,-2980237.4839782715,-9648432.731628418,-13787901.878356934,-15534133.911132812,-26876373.291015625,-20563522.338867188,-20525262.8326416,-11960241.317749023,-7114388.465881348,-6406646.728515625,-15131955.14678955,-16203710.556030273,-15092648.50616455,-22763326.64489746,-23386596.6796875,-19431442.260742188,-7007800.579071045,-13980472.564697266,-14082604.40826416,-14813776.016235352,-28540052.41394043,-17804094.314575195,-15634121.894836426,-15044362.06817627,-20994018.5546875
0.075,-32561363.220214844,-26281250.0,-16899759.29260254,-27922420.501708984,-12510901.45111084,-46314342.4987793,-42734985.3515625,-43624458.31298828,-23722465.51513672,-16888408.660888672,-12392357.82623291,-5004496.5744018555,-5325343.608856201,-15135530.471801758,-46108573.91357422,-45190673.828125,-29555181.5032959,-23108459.47265625,-11115207.67211914,932371.6163635254,-13273698.806762695,-14501184.463500977,-14401454.92553711,-20791963.577270508,-61019165.0390625,-33032615.661621094,-18153133.392333984,-3816464.1857147217,-8988567.352294922,-20204475.40283203,-17803661.346435547,-14086363.792419434,-9325556.755065918,-31898651.123046875,-37921314.23950195,-18134048.461914062,-1343724.250793457,-2975994.348526001,-8856081.008911133,-10957187.65258789,-12701674.461364746,-20350135.803222656,-14467243.194580078,-14509715.08026123,-8596943.855285645,-4653220.653533936,-5562604.904174805,-11688883.781433105,-12712562.561035156,-11556763.648986816,-16351419.448852539,-16963626.861572266,-13201949.119567871,-4459268.093109131,-10542578.69720459,-10453123.092651367,-11126078.605651855,-22448202.13317871,-11536045.07446289,-9289459.228515625,-11525403.97644043,-15197659.492492676
0.08,-26718990.325927734,-19439903.259277344,-10613826.751708984,-22424133.30078125,-7269603.252410889,-40130321.50268555,-36750873.56567383,-37538177.490234375,-20082530.975341797,-13289207.458496094,-9118898.391723633,-2181327.3429870605,-2369851.589202881,-11236058.235168457,-39058326.721191406,-38484535.217285156,-25954507.82775879,-20022394.18029785,-10101080.894470215,794881.4034461975,-13800740.242004395,-12189087.867736816,-10755584.716796875,-13881358.14666748,-54725208.2824707,-27770385.7421875,-15870783.805847168,-3747523.546218872,-11241671.562194824,-21245481.491088867,-16283243.179321289,-10418363.571166992,-2134161.7107391357,-25541473.388671875,-31639074.325561523,-16711257.934570312,-1105054.9745559692,-4056326.8661499023,-8716899.871826172,-8537582.397460938,-10078476.905822754,-12467853.546142578,-8876338.005065918,-8992498.397827148,-6589981.0791015625,-3471573.829650879,-4356008.052825928,-9227271.08001709,-10201924.324035645,-9124988.555908203,-9286218.643188477,-10035812.377929688,-6741684.436798096,-3137492.895126343,-8282031.059265137,-8102515.22064209,-8663270.950317383,-14930739.402770996,-4994277.000427246,-3694854.0210723877,-9046246.528625488,-9140379.905700684
0.085,-22903783.798217773,-16233503.341674805,-8447394.371032715,-18693946.838378906,-5377061.367034912,-36314743.04199219,-33040752.410888672,-33663356.78100586,-17769626.61743164,-11721375.465393066,-7547785.758972168,-593104.0048599243,-692002.8924942017,-9538678.169250488,-33633045.1965332,-35084690.09399414,-23724681.854248047,-18501001.358032227,-9715270.99609375,1058167.2191619873,-13152228.355407715,-10726806.640625,-9192561.149597168,-9999131.202697754,-52816635.13183594,-25200853.34777832,-15007564.544677734,-3676356.315612793,-10844506.26373291,-21417806.62536621,-16383346.557617188,-8798875.80871582,2081016.7789459229,-23196451.18713379,-29455730.438232422,-16780820.846557617,-1013939.0230178833,-5275832.176208496,-9113852.500915527,-8494199.752807617,-9824884.414672852,-8816275.596618652,-7053894.996643066,-7155692.100524902,-6729243.278503418,-4543375.492095947,-3348393.678665161,-9477906.227111816,-10516825.675964355,-9514592.170715332,-6543855.1902771,-7410504.8179626465,-4442429.065704346,-4077192.783355713,-8659126.281738281,-8665808.67767334,-9049891.471862793,-12453082.084655762,-3545837.163925171,-3834028.959274292,-9262671.47064209,-7759968.7576293945
0.09,-23886295.318603516,-19682401.657104492,-12374876.022338867,-19163480.758666992,-8207283.020019531,-36812309.26513672,-33452102.661132812,-34081123.35205078,-18400054.931640625,-13725269.317626953,-9558552.742004395,-2034132.480621338,-2190481.424331665,-11452504.15802002,-33634082.79418945,-35659217.834472656,-23575038.90991211,-19112804.412841797,-10834457.397460938,1769855.1416397095,-13741893.768310547,-11765671.730041504,-11016289.710998535,-10621629.71496582,-55062778.47290039,-25596841.81213379,-15499876.022338867,-3664480.209350586,-9600196.838378906,-22614601.135253906,-18594430.923461914,-10573902.130126953,2724215.7459259033,-24495527.267456055,-30955425.262451172,-17437208.17565918,-1359164.1187667847,-5972604.751586914,-9803739.547729492,-10867836.952209473,-12206776.61895752,-10643715.858459473,-8380403.518676758,-8374680.519104004,-7177502.632141113,-5823338.985443115,-2430160.0456237793,-11341369.62890625,-12486564.636230469,-11465192.794799805,-8482002.258300781,-9295065.879821777,-6212911.605834961,-5337685.585021973,-10373287.200927734,-10683618.545532227,-10948617.935180664,-15387776.374816895,-6702485.56137085,-8502041.816711426,-11040904.998779297,-11107603.073120117
0.095,-25433212.280273438,-24048719.40612793,-16402801.513671875,-20313198.08959961,-10627503.395080566,-37523014.068603516,-34026340.48461914,-34860115.05126953,-19336891.174316406,-15272038.459777832,-11845859.52758789,-4201151.371002197,-4474984.169006348,-14312135.696411133,-35384975.43334961,-36210018.157958984,-23739778.518676758,-19505315.78063965,-11155218.124389648,3516630.8879852295,-15647489.547729492,-13674420.356750488,-13698501.586914062,-11953183.1741333,-56483627.31933594,-26318313.598632812,-15513556.480407715,-3041570.1866149902,-9378895.75958252,-25046478.271484375,-21061872.482299805,-13256056.785583496,2851181.983947754,-25409372.329711914,-31903764.724731445,-17433067.321777344,-1922064.9003982544,-5847174.644470215,-10304182.052612305,-13317406.65435791,-14888378.143310547,-13085502.624511719,-9446603.775024414,-9341196.060180664,-6420486.4501953125,-5203709.602355957,-1867451.786994934,-12276080.131530762,-13416494.369506836,-12376502.990722656,-10671708.106994629,-11297708.511352539,-7921569.347381592,-4794436.454772949,-11052704.811096191,-11476724.624633789,-11819629.669189453,-17932241.439819336,-8945971.488952637,-11631507.873535156,-11918807.029724121,-14451772.689819336
0.1,-22780141.830444336,-23264160.15625,-15349608.421325684,-18601806.640625,-9206301.68914795,-34756408.69140625,-31308734.893798828,-32307437.896728516,-17989845.275878906,-13366607.666015625,-11054465.293884277,-4607160.568237305,-4904170.989990234,-15794476.509094238,-32981929.779052734,-33972343.44482422,-22511194.229125977,-18386602.4017334,-8812202.453613281,5836915.969848633,-16491365.432739258,-14408641.815185547,-15072190.284729004,-10204586.029052734,-53917407.98950195,-25341583.251953125,-14056694.030761719,-1698571.6819763184,-9751154.899597168,-26812265.396118164,-21806423.18725586,-14669501.304626465,4581806.182861328,-23754938.12561035,-30171192.169189453,-16915765.7623291,-2215575.2182006836,-4925406.455993652,-10640713.691711426,-14428079.605102539,-16242033.004760742,-11956818.580627441,-8701106.071472168,-8652469.635009766,-5421950.817108154,-3592086.07673645,-2432429.552078247,-12051280.02166748,-13110173.225402832,-12150385.856628418,-10234466.552734375,-10758541.107177734,-7340077.4002075195,-3204785.3469848633,-10810863.494873047,-11087065.696716309,-11659523.010253906,-16858018.87512207,-7726782.79876709,-10635644.912719727,-11789409.637451172,-15169778.823852539
0.105,-19054731.369018555,-20383491.51611328,-12712300.300598145,-16769401.550292969,-7754677.295684814,-31374872.2076416,-28168203.353881836,-29107339.85900879,-16236616.134643555,-11335402.488708496,-9321538.925170898,-4610454.082489014,-4893936.634063721,-17272720.336914062,-27946832.65686035,-31792949.676513672,-20823162.078857422,-17472993.850708008,-5953784.465789795,6765360.8322143555,-15788762.092590332,-14900504.112243652,-16495954.513549805,-7202924.2515563965,-50325855.25512695,-23614479.064941406,-12344681.739807129,-570376.455783844,-9855577.46887207,-26899366.37878418,-21606342.315673828,-16168649.673461914,5865850.925445557,-21958629.608154297,-28117633.819580078,-16679698.944091797,-2059383.6307525635,-3702132.4634552,-11431062.698364258,-15476310.729980469,-17334646.224975586,-9578304.290771484,-8065804.481506348,-8267809.867858887,-5654512.882232666,-3435472.7268218994,-3764321.3272094727,-12813582.420349121,-13872001.647949219,-13012639.045715332,-9371484.756469727,-10057621.002197266,-6845003.604888916,-2956607.8186035156,-11849409.103393555,-11947302.81829834,-12681265.830993652,-15686305.99975586,-6493507.385253906,-9295800.20904541,-12800347.328186035,-15959373.474121094
0.11,-20415203.094482422,-22133237.838745117,-14603443.145751953,-19239280.700683594,-10999771.118164062,-32036464.69116211,-29050159.454345703,-29822162.628173828,-17386926.651000977,-13599947.929382324,-10790941.23840332,-6803253.173828125,-7226733.684539795,-20336355.209350586,-26840591.430664062,-33471290.588378906,-20887922.286987305,-18491964.34020996,-5947622.776031494,5244842.052459717,-15846403.121948242,-17100057.60192871,-19498989.10522461,-7333989.143371582,-50231273.65112305,-23430797.576904297,-12200397.491455078,-465819.20981407166,-10088179.588317871,-26566495.895385742,-22473628.997802734,-19277147.29309082,3904419.8989868164,-23026159.286499023,-28563529.96826172,-16872562.408447266,-1737288.1174087524,-2815419.912338257,-12720333.099365234,-17591083.526611328,-19289073.944091797,-10506482.124328613,-9404426.574707031,-9897918.701171875,-6467228.412628174,-4861945.629119873,-3961713.0756378174,-15009147.644042969,-16132167.81616211,-15254611.015319824,-10909173.965454102,-11919277.19116211,-8849867.820739746,-4324223.99520874,-14293620.109558105,-14400889.39666748,-15043966.293334961,-17786609.649658203,-8238185.882568359,-10832087.516784668,-15209739.685058594,-19209066.39099121
0.115,-25471714.01977539,-27588624.954223633,-19720254.89807129,-24181634.9029541,-16616123.19946289,-35639095.306396484,-32735004.425048828,-33459636.688232422,-20857362.747192383,-18420261.38305664,-14874061.584472656,-10367862.701416016,-11041684.1506958,-23019701.00402832,-30746168.13659668,-37761684.41772461,-23357902.52685547,-20716360.092163086,-8581076.622009277,2888421.2970733643,-17873672.485351562,-20319356.91833496,-22169523.239135742,-10814517.974853516,-53682029.724121094,-25815837.860107422,-14068788.528442383,-1223810.9111785889,-10837658.882141113,-27286701.202392578,-24343252.182006836,-22022474.28894043,-199977.41281986237,-26286487.579345703,-31229890.823364258,-17403680.8013916,-1608888.3876800537,-2433764.696121216,-13623332.977294922,-19397163.39111328,-20915355.682373047,-14277471.542358398,-11767760.276794434,-12376503.944396973,-6293719.76852417,-5510998.725891113,-2071262.3596191406,-16184835.433959961,-17257987.97607422,-16261741.638183594,-13622719.764709473,-14796208.381652832,-11726790.428161621,-5078920.841217041,-15414470.672607422,-15674823.760986328,-15999924.659729004,-20494314.193725586,-10583991.050720215,-12888592.720031738,-16357566.833496094,-22219530.10559082
0.12,-26946617.126464844,-29824367.52319336,-21751518.24951172,-25844688.415527344,-18502573.013305664,-37286193.84765625,-34407806.396484375,-35214740.75317383,-23275712.966918945,-20572275.161743164,-17352127.075195312,-12199701.309204102,-12933513.641357422,-22743240.356445312,-33927799.224853516,-40409629.821777344,-26718915.939331055,-22563402.17590332,-10857252.12097168,2060460.8058929443,-20048992.156982422,-22161195.755004883,-21989828.10974121,-13794049.263000488,-57187076.568603516,-29580381.393432617,-16732872.009277344,-2272459.9838256836,-11308029.174804688,-28699018.478393555,-25493743.896484375,-21832099.91455078,-2830618.381500244,-28922439.575195312,-34068733.21533203,-18419557.571411133,-1720178.1272888184,-2303562.879562378,-13668863.296508789,-19409933.09020996,-20905387.87841797,-16611389.16015625,-13267743.110656738,-13734251.976013184,-5489598.751068115,-4277747.15423584,75711.76439523697,-15089712.142944336,-15985658.645629883,-14917960.166931152,-14704620.361328125,-15700396.537780762,-12663059.23461914,-4009491.443634033,-14076408.386230469,-14432143.211364746,-14455242.156982422,-20184909.82055664,-10328606.605529785,-12424017.906188965,-15024772.644042969,-21576936.721801758
0.125,-23576164.24560547,-27759950.637817383,-20097797.393798828,-23821441.650390625,-16214199.06616211,-36232852.935791016,-33377357.482910156,-34214511.87133789,-23820262.908935547,-19506254.196166992,-17209875.106811523,-11845399.856567383,-12327596.664428711,-21441524.505615234,-33451602.935791016,-40534118.65234375,-28948667.526245117,-23714965.8203125,-11638074.87487793,2975144.624710083,-20476886.749267578,-22414117.81311035,-20797409.057617188,-14534144.401550293,-58973964.69116211,-32172077.178955078,-18353481.29272461,-3217224.8363494873,-10916390.419006348,-29454357.147216797,-25909437.17956543,-20605745.315551758,-3037808.656692505,-30030485.153198242,-35888050.0793457,-19384870.529174805,-1848631.1435699463,-2400871.992111206,-13773879.051208496,-19337615.966796875,-20961458.206176758,-16600938.79699707,-13856565.475463867,-14039774.894714355,-5732540.607452393,-3067066.192626953,-36469.727754592896,-14592847.82409668,-15408312.797546387,-14384241.104125977,-14712689.399719238,-15373638.153076172,-12402961.730957031,-2838393.211364746,-13454733.848571777,-13755310.05859375,-13773917.198181152,-19432395.935058594,-9462530.136108398,-11776570.320129395,-14345230.102539062,-19744647.979736328
0.13,-22394865.036010742,-28111268.997192383,-21107133.865356445,-23720714.569091797,-15830798.149108887,-36390640.25878906,-33468959.80834961,-34209667.20581055,-24615940.09399414,-19514148.712158203,-17731489.181518555,-12336790.084838867,-12538455.00946045,-23969188.690185547,-33187820.434570312,-40836082.458496094,-29028774.26147461,-24345527.64892578,-12380199.432373047,3821472.644805908,-19874002.45666504,-23426776.885986328,-23290130.615234375,-15360506.057739258,-60150135.0402832,-31770444.869995117,-17827589.03503418,-3608994.483947754,-10676433.563232422,-29237512.588500977,-27590028.762817383,-23157617.568969727,-3511495.1133728027,-30978271.484375,-36478145.599365234,-18986831.665039062,-1795287.4898910522,-2986898.899078369,-15096745.491027832,-22410186.767578125,-24148868.560791016,-17957349.77722168,-14778410.911560059,-14746342.658996582,-7085045.337677002,-3849133.7299346924,-2279641.86668396,-18276329.040527344,-19215185.165405273,-18276260.375976562,-16738134.384155273,-17225414.276123047,-14150448.7991333,-3584306.001663208,-17203691.482543945,-17388742.446899414,-17741319.65637207,-23696973.80065918,-12519276.61895752,-15400140.762329102,-18080659.866333008,-22767641.067504883
0.135,-27589128.494262695,-34394557.95288086,-28037607.192993164,-28112131.118774414,-21182516.09802246,-39363597.86987305,-36243556.97631836,-36888713.83666992,-26303728.103637695,-22324636.459350586,-20732706.06994629,-15959470.748901367,-16181716.918945312,-31531370.162963867,-36391998.291015625,-42483890.533447266,-27640529.63256836,-24117816.925048828,-13725418.090820312,3162275.3143310547,-20258958.81652832,-26610538.482666016,-30679330.825805664,-18166162.490844727,-61703670.501708984,-29470146.17919922,-15893765.449523926,-3076809.4062805176,-12033214.569091797,-29168121.337890625,-31258897.78137207,-30680936.813354492,-6465905.666351318,-32769592.28515625,-36008922.5769043,-17154481.887817383,-1547227.144241333,-3973820.209503174,-17493080.139160156,-28840063.095092773,-30545038.2232666,-22894142.150878906,-16587162.017822266,-16555601.119995117,-7946164.608001709,-5812771.797180176,-4292992.115020752,-25552268.981933594,-26618185.04333496,-25734773.635864258,-21667497.634887695,-22219820.022583008,-18871915.817260742,-5642507.076263428,-24544158.935546875,-24673364.639282227,-25386463.165283203,-32840019.22607422,-19810655.59387207,-22865039.825439453,-25527898.78845215,-32154392.24243164
0.14,-34603321.07543945,-41629402.16064453,-36096477.50854492,-32911739.349365234,-28610328.674316406,-42592388.15307617,-39270168.30444336,-39935688.01879883,-27234960.556030273,-24903188.705444336,-24076421.7376709,-21379413.604736328,-21883163.452148438,-39645023.345947266,-40680252.07519531,-44178508.75854492,-27225517.27294922,-23518177.032470703,-14566922.187805176,1266270.5183029175,-22525352.478027344,-30633768.08166504,-38645835.876464844,-21585008.62121582,-63664325.71411133,-28871700.286865234,-14846189.498901367,-2105754.852294922,-15043390.274047852,-30365125.65612793,-35001998.90136719,-38697639.46533203,-10746973.991394043,-35083164.21508789,-35638725.28076172,-15917018.89038086,-1241333.7230682373,-4750486.850738525,-19693330.764770508,-35017108.91723633,-36602199.55444336,-28670179.36706543,-18872922.897338867,-19024911.880493164,-7779371.26159668,-6861891.269683838,-4740854.740142822,-32129676.818847656,-33144916.534423828,-32296871.185302734,-26948854.446411133,-27620979.30908203,-24100292.205810547,-6913270.950317383,-31080606.46057129,-31225143.432617188,-31948646.545410156,-41048702.239990234,-26953792.572021484,-29367378.23486328,-32183731.079101562,-42704502.10571289
0.145,-38115661.62109375,-44542396.545410156,-39461978.912353516,-34437202.45361328,-31888692.85583496,-44713161.46850586,-41315540.3137207,-42070156.09741211,-27217159.271240234,-25220386.505126953,-25694150.924682617,-25219060.89782715,-25954338.07373047,-42921115.87524414,-43088657.37915039,-45688030.24291992,-29900663.375854492,-24267259.59777832,-14641396.522521973,-324032.09805488586,-25762838.36364746,-33088165.283203125,-41903541.564941406,-23522237.77770996,-66396606.4453125,-31849885.940551758,-16212028.503417969,-1767362.2369766235,-18345163.345336914,-32262493.133544922,-36622943.87817383,-41847755.432128906,-13365536.6897583,-37154018.40209961,-36886882.78198242,-16749866.485595703,-1065902.9483795166,-4711333.274841309,-20368621.826171875,-37108963.01269531,-38706489.56298828,-31288131.713867188,-20804836.27319336,-21121381.759643555,-7655014.991760254,-6663331.031799316,-4277487.277984619,-34367172.24121094,-35294448.85253906,-34454395.29418945,-29638944.625854492,-30330463.409423828,-26822957.99255371,-6785203.93371582,-33304492.950439453,-33469299.31640625,-33847129.821777344,-44358940.12451172,-30184785.842895508,-31897996.90246582,-34399959.564208984,-48376174.92675781
0.15,-39147586.822509766,-44451263.427734375,-38168655.39550781,-34503047.943115234,-29337991.71447754,-47141689.30053711,-43789115.90576172,-44601268.76831055,-28088380.813598633,-25179290.771484375,-26167390.823364258,-25041538.23852539,-25774200.439453125,-40008579.25415039,-44252010.345458984,-47715503.69262695,-33972152.70996094,-26479288.10119629,-15041913.986206055,137436.25581264496,-27785932.540893555,-32532836.9140625,-39034843.44482422,-23303462.982177734,-69274360.65673828,-35068771.36230469,-18574684.143066406,-2167049.8847961426,-20299638.748168945,-32671592.712402344,-35741073.60839844,-38846382.14111328,-12200841.903686523,-37684280.39550781,-38802314.75830078,-18102346.420288086,-1140727.162361145,-3870994.3294525146,-18839820.861816406,-34270488.73901367,-36124187.46948242,-29588951.110839844,-20911479.949951172,-21200216.29333496,-7850934.028625488,-6515727.519989014,-3529054.1648864746,-31795185.089111328,-32807636.260986328,-31884208.67919922,-28523298.263549805,-29159168.243408203,-25617387.771606445,-6392407.417297363,-30848562.240600586,-31005266.189575195,-31066381.454467773,-43550563.81225586,-29048019.409179688,-31060678.482055664,-31848594.665527344,-47384078.97949219
0.155,-39474967.95654297,-43716613.76953125,-35007801.0559082,-35029769.89746094,-24103546.142578125,-48445888.51928711,-45242111.20605469,-46062362.67089844,-29240331.649780273,-25710172.653198242,-25677797.317504883,-20856302.26135254,-21429304.122924805,-33625854.4921875,-43673191.07055664,-47676029.205322266,-34032093.0480957,-26994577.407836914,-15335322.380065918,3188330.4119110107,-26234167.098999023,-29044301.986694336,-32662288.665771484,-20141557.693481445,-68235115.05126953,-33138210.29663086,-18780313.49182129,-2112447.0233917236,-19868013.381958008,-30099662.78076172,-33066619.873046875,-32469242.095947266,-7056756.973266602,-34645000.45776367,-37606906.89086914,-17422210.693359375,-1389968.1568145752,-2988977.9090881348,-15753562.927246094,-28665674.209594727,-30813144.68383789,-24531084.060668945,-17765678.40576172,-17890823.364257812,-7257160.663604736,-6895134.925842285,-2254555.2253723145,-26532215.118408203,-27691759.10949707,-26611368.17932129,-23826835.63232422,-24405687.33215332,-20731807.708740234,-6420846.939086914,-25700979.232788086,-25843130.111694336,-25915288.9251709,-39895900.72631836,-24700557.708740234,-27847805.02319336,-26648305.892944336,-41475574.4934082
0.16,-35120643.615722656,-39384998.3215332,-30156517.028808594,-32643951.416015625,-19743587.493896484,-43029640.197753906,-40157897.94921875,-40972915.64941406,-26539077.758789062,-23646760.940551758,-22264749.52697754,-15425152.778625488,-15828945.15991211,-27819135.665893555,-36556957.24487305,-40796089.17236328,-26730510.711669922,-23006513.595581055,-13200687.408447266,6822300.910949707,-21038290.02380371,-24442605.97229004,-26866746.90246582,-12778593.063354492,-58907409.66796875,-25590272.903442383,-15612814.903259277,-1096298.2177734375,-17481527.32849121,-26110296.24938965,-29371406.55517578,-26748752.59399414,232356.32479190826,-27399951.934814453,-31215917.587280273,-14915041.92352295,-1567635.7746124268,-3060427.665710449,-13462825.775146484,-23755432.12890625,-25884660.720825195,-17318485.260009766,-12251081.466674805,-12283214.569091797,-5774507.522583008,-6894753.932952881,-882079.541683197,-21962457.65686035,-23047586.44104004,-21907335.28137207,-17266075.134277344,-17800582.885742188,-14291584.968566895,-6291219.234466553,-21095859.52758789,-21230960.845947266,-21504093.170166016,-33196018.21899414,-18967399.59716797,-22881721.49658203,-22019924.16381836,-33577281.9519043
0.165,-23124515.533447266,-29185485.83984375,-23598329.544067383,-24378530.502319336,-18030576.705932617,-30027276.99279785,-27635253.90625,-28452629.08935547,-18671115.87524414,-17253921.508789062,-16038110.733032227,-13085778.23638916,-13369075.775146484,-25906984.329223633,-21971805.572509766,-28168214.797973633,-16064352.035522461,-16654731.750488281,-8612336.158752441,7508841.514587402,-16130834.579467773,-22055015.563964844,-25085300.44555664,-3201100.5878448486,-44132919.31152344,-18481819.15283203,-11428207.397460938,-595512.6285552979,-15569571.495056152,-24438734.05456543,-26297950.744628906,-24954282.760620117,6010906.219482422,-19250310.89782715,-23146457.67211914,-13302484.512329102,-1521151.9002914429,-4246170.997619629,-14494260.787963867,-22491851.806640625,-24248029.708862305,-10369157.791137695,-7991447.925567627,-8072464.942932129,-5137628.555297852,-6088617.324829102,-925582.766532898,-21172330.856323242,-21981126.78527832,-20998203.27758789,-12350527.7633667,-12876537.322998047,-10077772.14050293,-5640202.522277832,-20219520.568847656,-20329038.619995117,-20669393.53942871,-25522287.368774414,-15011405.944824219,-18844280.242919922,-21018627.166748047,-27465341.567993164
0.17,-11467361.450195312,-20061847.686767578,-19657100.677490234,-15877506.256103516,-19504011.154174805,-19457342.14782715,-17377067.56591797,-18210748.67248535,-11733068.466186523,-11534749.984741211,-12090646.743774414,-16124204.635620117,-16328372.955322266,-28777839.66064453,-10452901.840209961,-19851646.423339844,-10861934.661865234,-13576287.269592285,-5746845.245361328,4043933.868408203,-16373760.223388672,-24096612.93029785,-28218828.201293945,1581356.2870025635,-35050746.91772461,-18235717.7734375,-9891620.635986328,-2104905.843734741,-16787702.560424805,-26808933.25805664,-26335201.263427734,-27958295.822143555,6392500.877380371,-16162984.848022461,-20008819.580078125,-14254388.809204102,-1395782.3514938354,-5043512.82119751,-18397853.85131836,-25350273.13232422,-26773159.02709961,-8155200.958251953,-8252023.696899414,-8382175.445556641,-6462616.920471191,-5377212.5244140625,-2648806.8103790283,-24430631.637573242,-25084157.943725586,-24341375.35095215,-12406857.49053955,-13017887.115478516,-10962107.65838623,-5180981.159210205,-23547996.520996094,-23585998.53515625,-23812093.73474121,-22246128.08227539,-15688045.501708984,-19337099.075317383,-24124486.923217773,-26697616.577148438
0.175,-12955293.655395508,-22295511.24572754,-23170373.916625977,-16887805.938720703,-23207807.540893555,-23023572.92175293,-20781429.290771484,-21643156.051635742,-13326032.638549805,-13074159.622192383,-15058710.098266602,-21582105.63659668,-21746969.22302246,-33757984.16137695,-14989730.834960938,-25304237.365722656,-16089277.267456055,-16650573.73046875,-8082068.44329834,-104307.09272623062,-21564332.962036133,-28595422.744750977,-33417659.759521484,-4394390.106201172,-40887027.740478516,-25342044.830322266,-12539844.512939453,-4511763.095855713,-20654129.028320312,-30379556.65588379,-30104700.088500977,-33071319.580078125,172642.2905921936,-21695774.07836914,-24993021.01135254,-16870492.935180664,-1454562.1871948242,-3377391.815185547,-21273025.512695312,-29653736.114501953,-31139331.817626953,-13949425.69732666,-12936071.395874023,-13030176.162719727,-8794262.886047363,-5759391.307830811,-3971501.8272399902,-28499727.249145508,-29253778.4576416,-28590646.743774414,-17522497.177124023,-18283597.946166992,-16166105.270385742,-5761787.414550781,-27824619.29321289,-27753145.217895508,-27927453.994750977,-26205036.163330078,-20336353.302001953,-24176811.21826172,-28276168.823242188,-31436744.689941406
0.18,-28308389.66369629,-35177047.72949219,-31548088.07373047,-28098913.192749023,-25894674.30114746,-39411357.87963867,-36639572.14355469,-37508243.560791016,-22780630.111694336,-20745565.41442871,-22088758.46862793,-23390226.364135742,-23584714.889526367,-36130928.03955078,-34255508.42285156,-41792625.427246094,-27723737.716674805,-22963560.104370117,-13193965.911865234,84996.98340892792,-25564270.01953125,-30545715.33203125,-35764682.76977539,-18221326.82800293,-58350238.80004883,-34811016.08276367,-17618005.752563477,-4990355.014801025,-23170736.31286621,-30596651.077270508,-34409370.42236328,-35491985.32104492,-9600247.383117676,-33321430.206298828,-34894454.95605469,-19583498.001098633,-1694123.0297088623,825636.6848945618,-19741437.911987305,-31644166.946411133,-33422340.393066406,-25510541.915893555,-19300262.451171875,-19428745.26977539,-11001855.850219727,-7322227.954864502,-3026398.6587524414,-29801004.40979004,-30684291.83959961,-29901969.90966797,-24433345.794677734,-25269504.54711914,-22179878.23486328,-7466909.408569336,-29247228.622436523,-29069740.295410156,-29385955.810546875,-33335334.77783203,-25169937.133789062,-28951667.78564453,-29797527.313232422,-37383583.068847656
0.185,-42932334.899902344,-45851375.579833984,-35965591.43066406,-38413196.5637207,-24127740.85998535,-54110275.26855469,-50871536.25488281,-51694602.966308594,-31021692.276000977,-26289119.720458984,-25377029.418945312,-18821285.247802734,-19161293.029785156,-33169967.651367188,-51621864.318847656,-55945072.174072266,-36775577.545166016,-27344707.489013672,-15381819.725036621,5570465.087890625,-23224634.170532227,-27206979.751586914,-32555725.09765625,-29300937.65258789,-73706291.19873047,-40899467.46826172,-21572353.36303711,-2577065.2294158936,-21277549.743652344,-26308568.954467773,-34839981.07910156,-32413143.157958984,-17148164.749145508,-43667427.06298828,-42941833.49609375,-21543136.596679688,-1794197.0825195312,4834721.088409424,-14665501.594543457,-29558471.6796875,-31401060.104370117,-35450077.056884766,-24164707.18383789,-24552158.35571289,-13032921.79107666,-9425158.500671387,-627703.2494544983,-27765077.590942383,-28636331.55822754,-27711553.5736084,-29151168.823242188,-29918069.83947754,-25812110.900878906,-9674661.636352539,-27160497.665405273,-26941879.272460938,-27406412.12463379,-36688632.96508789,-27013322.830200195,-30174571.990966797,-27904972.076416016,-39399150.84838867
0.19,-44102218.62792969,-45004356.384277344,-32159507.751464844,-38150432.58666992,-18465309.143066406,-55310920.71533203,-51950496.673583984,-52712169.6472168,-31011777.877807617,-24725093.841552734,-21924566.2689209,-11669482.231140137,-12258972.16796875,-26688812.255859375,-53257541.65649414,-57241161.34643555,-37569099.42626953,-27466890.335083008,-12923391.342163086,12055243.492126465,-16669256.210327148,-21223993.3013916,-25851776.123046875,-29480964.66064453,-75831199.6459961,-40482669.830322266,-21681324.005126953,496959.3286514282,-16848360.061645508,-20776069.64111328,-30571168.899536133,-25716402.053833008,-17654399.871826172,-45700443.267822266,-43847610.47363281,-21973480.224609375,-1526924.967765808,5756496.906280518,-9807900.428771973,-24584220.88623047,-26166410.446166992,-36921318.05419922,-24754856.10961914,-25467935.56213379,-14264641.761779785,-11097310.066223145,879705.6674957275,-24170928.955078125,-25051849.365234375,-24066865.921020508,-29033926.010131836,-29708768.844604492,-25408332.82470703,-11366844.177246094,-23492774.963378906,-23351934.4329834,-23744821.548461914,-33604721.06933594,-25226865.768432617,-28313150.40588379,-24318422.317504883,-35986274.71923828
0.195,-35557033.53881836,-37798740.38696289,-25910070.419311523,-30627813.3392334,-14048699.378967285,-45881126.403808594,-42686683.654785156,-43429260.25390625,-25393417.358398438,-20117490.768432617,-17055837.631225586,-8082111.358642578,-8869910.24017334,-21260463.71459961,-42159942.626953125,-47630950.927734375,-31758470.53527832,-24925527.572631836,-9793540.954589844,14628743.171691895,-12571305.274963379,-17591508.865356445,-20409088.134765625,-20748636.24572754,-65797569.274902344,-34160045.6237793,-18225696.563720703,1542986.273765564,-14482648.849487305,-17709505.081176758,-25379693.98498535,-20153606.414794922,-11061191.55883789,-38292366.02783203,-37402473.44970703,-20304571.1517334,-1084404.1109085083,3659651.041030884,-7648893.356323242,-19491056.442260742,-20870347.97668457,-29567111.96899414,-19973287.58239746,-20749114.990234375,-13119421.95892334,-11486667.63305664,328966.1705493927,-20541191.10107422,-21600275.03967285,-20583040.237426758,-23916448.59313965,-24614902.49633789,-20882516.860961914,-11635928.1539917,-19868307.11364746,-19909730.911254883,-20080755.23376465,-27313282.012939453,-20851181.030273438,-25344823.837280273,-20647500.99182129,-29917470.932006836
0.2,-30208772.659301758,-35324405.670166016,-25272108.07800293,-26766448.974609375,-15543095.588684082,-37516811.37084961,-34612888.33618164,-35348896.02661133,-22158372.87902832,-19315225.60119629,-17054939.27001953,-10271360.397338867,-11009036.06414795,-20311044.692993164,-31524785.9954834,-37348121.643066406,-25290464.401245117,-22652229.30908203,-9882919.311523438,12414754.867553711,-14192645.072937012,-18553153.99169922,-19567529.678344727,-11975311.279296875,-53537433.62426758,-26121410.369873047,-14384661.674499512,433232.48624801636,-15808005.332946777,-17776611.328125,-23592672.34802246,-19241367.34008789,-2895456.552505493,-27632972.717285156,-28599679.946899414,-17562864.303588867,-848898.4704017639,1148355.484008789,-8028792.381286621,-17031507.49206543,-18539049.14855957,-19964775.08544922,-12674087.524414062,-13176490.783691406,-9996577.262878418,-10813528.060913086,-1726909.2798233032,-17961494.44580078,-19155086.517333984,-18132379.53186035,-17074754.71496582,-17848024.368286133,-14722164.154052734,-10715928.077697754,-17272199.630737305,-17492156.982421875,-17572410.583496094,-22725187.301635742,-16145456.314086914,-22355354.30908203,-18035278.3203125,-25394033.432006836
0.205,-33124645.233154297,-40158237.45727539,-30647066.116333008,-31200101.852416992,-22024307.250976562,-36919952.392578125,-34330268.85986328,-35011604.30908203,-25056341.17126465,-23361240.38696289,-21635358.810424805,-15299118.041992188,-15753952.026367188,-23773710.250854492,-29164218.90258789,-33916736.6027832,-22673286.43798828,-22300792.694091797,-12389541.625976562,8370591.163635254,-18605495.45288086,-22279018.40209961,-23062341.690063477,-9543731.689453125,-47390892.028808594,-21600028.99169922,-13262397.766113281,-813292.0265197754,-18069999.69482422,-19284011.840820312,-25840562.82043457,-22836719.512939453,42032.163590192795,-22117807.388305664,-23587860.107421875,-15872282.981872559,-922743.9761161804,203086.89773082733,-9904336.929321289,-18506980.895996094,-20270349.502563477,-15692192.077636719,-8572423.934936523,-8741677.284240723,-8223083.49609375,-10600780.487060547,-4115367.4125671387,-17870016.09802246,-18902437.210083008,-18015098.571777344,-13731488.227844238,-14456980.70526123,-11530205.726623535,-10235022.54486084,-17069934.844970703,-17348114.013671875,-17589763.641357422,-22266674.041748047,-14234502.792358398,-20383611.67907715,-17923522.94921875,-24839839.935302734
0.21,-38175903.3203125,-45738662.71972656,-35806049.34692383,-38279747.009277344,-27875413.89465332,-41196754.455566406,-38814849.853515625,-39465789.794921875,-30514995.574951172,-27557933.807373047,-25706617.35534668,-18827869.415283203,-19050065.994262695,-28494672.775268555,-32766750.33569336,-36810028.076171875,-24104007.720947266,-23477390.28930664,-14018336.296081543,6002468.585968018,-21403663.635253906,-25469003.677368164,-27703334.80834961,-12591922.760009766,-48188121.7956543,-22451658.248901367,-14829638.481140137,-599232.4352264404,-18451957.70263672,-20744907.37915039,-29218942.642211914,-27662378.311157227,-3798163.890838623,-24594316.482543945,-24210235.595703125,-15833795.547485352,-1056002.7360916138,576919.7940826416,-12330778.121948242,-22351991.653442383,-24188161.849975586,-18444480.895996094,-10355494.499206543,-10402372.360229492,-9868979.454040527,-11969071.388244629,-5723719.596862793,-20386484.146118164,-21145078.659057617,-20502519.607543945,-16037281.036376953,-16594076.156616211,-13636389.73236084,-11469894.409179688,-19519065.856933594,-19725185.39428711,-20187602.996826172,-24990716.9342041,-16358839.03503418,-20665124.893188477,-20471546.173095703,-27302482.60498047
0.215,-39459922.790527344,-47175613.40332031,-36564556.12182617,-40958675.384521484,-28438186.645507812,-44766220.09277344,-42355159.759521484,-43132530.212402344,-33065666.19873047,-27981996.536254883,-26137414.932250977,-18653028.48815918,-18924230.575561523,-30681652.069091797,-37226902.00805664,-41254714.96582031,-26984451.293945312,-24577957.153320312,-13476102.828979492,7008084.297180176,-21420244.216918945,-26059642.791748047,-29802797.317504883,-16481210.708618164,-52064785.00366211,-25773828.506469727,-16495264.053344727,990315.5565261841,-17437658.309936523,-21658393.85986328,-30898105.62133789,-29860433.57849121,-9341035.842895508,-30438915.252685547,-27145845.413208008,-15972559.928894043,-1019963.1452560425,1183118.8201904297,-13919827.461242676,-24860761.642456055,-26610994.338989258,-23492803.5736084,-14458878.517150879,-14584797.859191895,-12734730.72052002,-14070635.795593262,-6024631.023406982,-22843999.8626709,-23608751.29699707,-23054304.122924805,-20340932.846069336,-20829139.709472656,-17887716.29333496,-13654329.299926758,-22091226.57775879,-22162061.69128418,-22658525.466918945,-28258676.528930664,-19679954.528808594,-22664888.381958008,-23042352.6763916,-29565065.383911133
0.22,-38481857.29980469,-46257568.359375,-34586193.0847168,-38758983.61206055,-24157102.584838867,-45909702.30102539,-43321895.599365234,-44302570.34301758,-31211824.417114258,-25014739.990234375,-23996992.111206055,-15546763.42010498,-16037414.55078125,-29206676.483154297,-40564258.57543945,-44085506.439208984,-28931142.807006836,-24326755.52368164,-11946935.653686523,10676699.6383667,-20108629.22668457,-24190519.332885742,-28260501.861572266,-18461217.880249023,-55878486.63330078,-27880207.061767578,-16546224.594116211,2908053.159713745,-16871162.41455078,-21690326.690673828,-30725706.100463867,-28289356.231689453,-11234520.91217041,-33777397.15576172,-28906915.66467285,-15307404.518127441,-872622.2515106201,1680330.753326416,-13562951.08795166,-24020996.09375,-25720602.03552246,-25991811.752319336,-16045465.469360352,-16292497.634887695,-13833747.863769531,-15273690.223693848,-5883279.323577881,-22828660.96496582,-23855955.123901367,-23091802.5970459,-21897512.435913086,-22563293.45703125,-19610588.07373047,-15035597.801208496,-22263170.24230957,-22164548.873901367,-22528596.878051758,-30323839.18762207,-20544986.724853516,-24230342.864990234,-23133005.142211914,-29710166.931152344
0.225,-39059066.77246094,-46268692.01660156,-33553825.37841797,-35935565.94848633,-19663145.065307617,-46088253.021240234,-43448581.69555664,-44428222.65625,-27704793.93005371,-21420965.19470215,-21663429.260253906,-12669242.858886719,-13264291.763305664,-27246658.325195312,-42674900.05493164,-45222644.8059082,-29340633.392333984,-22955585.479736328,-10658356.666564941,14101710.319519043,-19010612.48779297,-22226551.055908203,-26197725.296020508,-19127765.655517578,-58819099.42626953,-28506616.592407227,-15817091.941833496,4077437.400817871,-16857593.536376953,-20772876.739501953,-30681776.04675293,-26187545.776367188,-10138422.966003418,-33839149.475097656,-29951742.17224121,-14665069.580078125,-782365.9181594849,2142139.434814453,-12268499.374389648,-22324514.389038086,-23999637.603759766,-26130588.53149414,-15327824.592590332,-15658467.292785645,-13639490.127563477,-15272803.30657959,-6733820.43838501,-22041564.94140625,-23158657.07397461,-22133998.87084961,-21135410.30883789,-22069389.34326172,-18914699.55444336,-15078340.530395508,-21519817.352294922,-21223937.98828125,-21541326.52282715,-31581110.00061035,-19555173.873901367,-24749607.08618164,-22300559.997558594,-29431472.778320312
0.23,-41268306.732177734,-47560081.481933594,-35136566.162109375,-35490802.76489258,-19312252.044677734,-46491004.943847656,-43983608.24584961,-44683383.94165039,-25919502.25830078,-19505323.41003418,-20539134.979248047,-13469369.888305664,-13989338.874816895,-29267730.712890625,-43171615.60058594,-45536952.97241211,-28956649.780273438,-21835268.020629883,-9927927.97088623,14152075.76751709,-19175535.202026367,-23171632.766723633,-28133510.58959961,-19793481.826782227,-60666046.142578125,-29513593.673706055,-15687851.905822754,3907171.9646453857,-16349592.208862305,-19782583.236694336,-32419010.162353516,-28185045.24230957,-10378296.852111816,-33562709.80834961,-32282909.393310547,-14642866.134643555,-752598.7029075623,2187261.3430023193,-12428282.737731934,-23719718.93310547,-25291145.32470703,-26731964.111328125,-15680453.300476074,-16068511.962890625,-13974174.499511719,-14824495.315551758,-8245782.852172852,-23893108.367919922,-24788393.020629883,-23751935.958862305,-21873569.48852539,-22886564.254760742,-19506006.240844727,-14490916.25213623,-23255348.205566406,-22847795.486450195,-23338726.043701172,-32896312.713623047,-20122728.34777832,-25702192.306518555,-23952062.606811523,-31372951.50756836
0.235,-42531051.63574219,-48652866.36352539,-38212192.53540039,-36742858.88671875,-22859575.271606445,-46766971.588134766,-44311115.26489258,-44790962.21923828,-26536310.19592285,-19612939.834594727,-20777271.270751953,-17970962.524414062,-18437229.15649414,-35221523.28491211,-41873405.45654297,-45023429.87060547,-28481121.063232422,-21685852.05078125,-9620106.69708252,10942621.231079102,-20984582.901000977,-27271352.767944336,-34172035.217285156,-20091787.338256836,-60641735.0769043,-30823623.657226562,-15783671.379089355,2906453.1326293945,-15354047.775268555,-19741777.420043945,-35268299.1027832,-34351066.58935547,-12745274.543762207,-33990154.26635742,-34924655.91430664,-14246981.620788574,-656143.9633369446,1357416.6297912598,-14556390.762329102,-27934312.82043457,-29427419.662475586,-27853673.934936523,-17277042.388916016,-17700803.756713867,-13923017.501831055,-14191951.751708984,-8392690.658569336,-27714151.38244629,-28475809.09729004,-27594150.54321289,-24394130.70678711,-25242198.944091797,-21954702.377319336,-13755693.435668945,-26975097.65625,-26705974.578857422,-27412464.141845703,-33412872.314453125,-22431154.251098633,-27349237.4420166,-27588829.040527344,-34693489.07470703
0.24,-40738792.419433594,-47508342.74291992,-39249633.7890625,-36926635.7421875,-25229272.842407227,-45711059.5703125,-43083847.04589844,-43727752.685546875,-27198307.037353516,-19821186.065673828,-21115474.700927734,-21476062.774658203,-22027563.095092773,-39488716.12548828,-39344890.59448242,-43252124.78637695,-27740671.157836914,-21775941.848754883,-9100406.646728516,8496296.882629395,-23021903.99169922,-30725320.81604004,-38691902.16064453,-18692031.860351562,-58595077.51464844,-30442169.189453125,-14801259.04083252,2592940.56892395,-14671788.215637207,-20379014.96887207,-36791862.48779297,-38927841.18652344,-13578748.70300293,-33501136.779785156,-34969406.12792969,-12920674.324035645,-485837.34035491943,-79493.63440275192,-16538713.455200195,-30595531.463623047,-32213657.37915039,-27199737.548828125,-17231338.500976562,-17661155.700683594,-11755825.996398926,-13487716.674804688,-6923154.830932617,-29446565.628051758,-30462200.164794922,-29615968.704223633,-25093498.22998047,-25750995.635986328,-22881664.276123047,-13185157.775878906,-28723249.435424805,-28799703.59802246,-29494127.27355957,-31984184.26513672,-23202985.763549805,-28032093.048095703,-29307453.155517578,-36013942.71850586
0.245,-34955471.03881836,-41845405.57861328,-34627849.57885742,-34086082.458496094,-22056621.551513672,-42445835.11352539,-39705791.47338867,-40717071.533203125,-25481477.737426758,-17997371.673583984,-19840864.181518555,-19673107.147216797,-20315607.07092285,-37644775.390625,-36250274.658203125,-40646263.122558594,-26223066.329956055,-21498805.99975586,-7772348.403930664,9913989.067077637,-22881618.49975586,-29915683.74633789,-37049587.24975586,-15840343.475341797,-56091926.57470703,-28225580.2154541,-12879124.641418457,3671894.311904907,-14298489.570617676,-20607645.03479004,-35659599.30419922,-37201862.33520508,-11328732.49053955,-31930391.311645508,-32429733.276367188,-12097649.574279785,-407877.0875930786,-1232976.794242859,-16939722.061157227,-29630264.282226562,-31460721.969604492,-25205951.690673828,-15601107.597351074,-16006658.554077148,-9481570.24383545,-13703918.45703125,-6613242.149353027,-28490650.177001953,-29844566.345214844,-28910280.227661133,-23361173.629760742,-23988656.997680664,-21459409.713745117,-13684499.740600586,-27853260.040283203,-28178287.506103516,-28619037.628173828,-30377738.95263672,-22012336.73095703,-27896118.1640625,-28497463.22631836,-34999507.904052734
0.25,-27668960.571289062,-33450874.32861328,-26469076.15661621,-30133132.934570312,-16223064.422607422,-38667442.321777344,-36141929.626464844,-37259269.71435547,-22779708.862304688,-15741094.589233398,-18026098.251342773,-15230848.31237793,-15842398.643493652,-33086601.25732422,-34241355.895996094,-39183952.33154297,-24958549.49951172,-22335626.60217285,-7104931.831359863,12581152.91595459,-20899362.564086914,-26821849.822998047,-32478351.593017578,-14527810.096740723,-55742904.66308594,-27263959.884643555,-12096953.392028809,4386634.349822998,-14060590.744018555,-20550214.767456055,-33975040.435791016,-32505950.927734375,-9891248.70300293,-31928136.825561523,-30920597.076416016,-13050178.527832031,-535317.9574012756,-1382636.0702514648,-17153013.229370117,-28540117.263793945,-30376333.236694336,-25777978.897094727,-16231515.884399414,-16546539.306640625,-10747547.149658203,-15144767.761230469,-9000477.79083252,-29186260.223388672,-30524787.90283203,-29617334.365844727,-23563169.479370117,-24259862.899780273,-21638675.689697266,-15325675.964355469,-28652616.500854492,-28911437.98828125,-29112028.121948242,-32151687.622070312,-22803537.368774414,-29683567.04711914,-29365776.06201172,-35533622.74169922
0.255,-26507921.21887207,-31171781.539916992,-24195476.531982422,-30679918.28918457,-16170352.935791016,-38991836.54785156,-36761829.3762207,-37630844.11621094,-23869348.526000977,-18235788.345336914,-20110494.61364746,-15824156.761169434,-16393138.885498047,-33493537.90283203,-36327495.57495117,-41131072.998046875,-26901590.34729004,-26607549.6673584,-10408813.4765625,10965384.483337402,-21198644.638061523,-27376956.939697266,-32744300.842285156,-17710947.036743164,-58942012.786865234,-30232805.252075195,-14359416.961669922,2168331.6230773926,-15155683.517456055,-21660770.416259766,-35496276.85546875,-32771911.62109375,-12713832.85522461,-34897396.087646484,-32611225.128173828,-14557439.804077148,-754790.3656959534,-537215.1136398315,-18745740.89050293,-31115261.07788086,-32749271.392822266,-30346553.802490234,-20158742.904663086,-20279844.284057617,-14404786.109924316,-15369718.551635742,-10836517.333984375,-33295974.731445312,-34379608.154296875,-33620197.29614258,-27687711.715698242,-28398172.37854004,-25296541.213989258,-15583800.315856934,-32862434.38720703,-32904151.916503906,-33075302.124023438,-37045356.75048828,-26746828.079223633,-33448493.95751953,-33548454.28466797,-39300701.14135742
0.26,-36722759.24682617,-41485366.82128906,-33468261.71875,-38656795.501708984,-24842914.581298828,-45952346.80175781,-43670650.482177734,-44311382.29370117,-30714183.807373047,-27155677.795410156,-27864088.05847168,-23555238.723754883,-24237438.201904297,-40077785.49194336,-43237308.502197266,-46228736.877441406,-33608428.955078125,-33670856.47583008,-18124555.587768555,4639335.155487061,-26166349.411010742,-33112922.66845703,-39238456.72607422,-24057586.669921875,-64203514.099121094,-35715198.5168457,-19088462.829589844,-2580580.234527588,-18558671.951293945,-23997957.229614258,-40591365.814208984,-39406299.59106445,-16791492.462158203,-38359481.81152344,-35236137.39013672,-14674365.043640137,-855398.416519165,624134.4213485718,-20203481.674194336,-35115631.103515625,-36648681.640625,-34634422.302246094,-22815643.310546875,-22726064.682006836,-15107084.274291992,-11706941.604614258,-7934567.928314209,-35543441.77246094,-36591678.619384766,-35826099.39575195,-30876585.006713867,-31545564.651489258,-27863870.62072754,-11849997.520446777,-35124412.536621094,-35127555.84716797,-35392761.23046875,-39767978.66821289,-28581357.955932617,-34297176.361083984,-35733760.833740234,-41710361.48071289
0.265,-48639701.84326172,-53800197.60131836,-43059612.27416992,-47321422.5769043,-32403507.232666016,-53949150.08544922,-51400829.31518555,-52086833.95385742,-37665237.42675781,-35293395.99609375,-34860057.83081055,-29527023.315429688,-30400531.768798828,-44017448.42529297,-49548000.33569336,-50384384.15527344,-41545936.584472656,-38878055.572509766,-24568950.653076172,416953.444480896,-31126331.329345703,-37157798.767089844,-43210525.51269531,-28020767.211914062,-67964935.30273438,-39567848.205566406,-23252046.585083008,-5869245.0523376465,-21861156.463623047,-24649532.318115234,-44079986.572265625,-43464118.95751953,-16583417.892456055,-39280143.73779297,-35647148.13232422,-13788089.752197266,-782518.8040733337,1473201.3940811157,-18458736.419677734,-34577812.19482422,-36237308.502197266,-34217414.85595703,-20611261.36779785,-20475414.276123047,-11314644.813537598,-5978820.323944092,-1464419.0073013306,-30654218.673706055,-31945873.260498047,-30949045.181274414,-28438262.939453125,-29120191.57409668,-24986644.744873047,-5976371.288299561,-30096986.770629883,-30292306.900024414,-30563232.421875,-37122859.954833984,-24356094.360351562,-29209398.26965332,-30736936.569213867,-38100730.895996094
0.27,-40581874.84741211,-44458858.489990234,-31312500.0,-43723430.63354492,-24794467.92602539,-52053741.455078125,-49647109.98535156,-50453464.50805664,-35825256.34765625,-32690254.21142578,-31648998.260498047,-22994087.21923828,-23887964.248657227,-36533702.8503418,-47351165.771484375,-48599128.72314453,-43843498.22998047,-37710384.368896484,-22829280.853271484,4442731.857299805,-28585109.71069336,-31731149.673461914,-35885860.443115234,-25539646.14868164,-67384346.00830078,-39104839.32495117,-23690013.885498047,-4441056.728363037,-20730413.43688965,-20825502.395629883,-40435840.60668945,-35989353.17993164,-12197534.561157227,-37913459.77783203,-33959957.122802734,-13577920.913696289,-685464.6801948547,2206600.9044647217,-13382265.090942383,-28045207.977294922,-29816474.91455078,-30875167.846679688,-16461874.008178711,-16488517.761230469,-7800327.777862549,-3525547.742843628,2833492.2790527344,-21964323.043823242,-23366962.432861328,-22216394.424438477,-23603393.5546875,-24335628.509521484,-19979755.401611328,-3326572.1797943115,-21237277.98461914,-21599248.8861084,-21750333.786010742,-33662887.57324219,-18850500.106811523,-23123876.571655273,-22049722.67150879,-31771366.119384766
0.275,-1980725.5268096924,-2797863.483428955,8983728.408813477,-22151554.107666016,-109864.62980508804,-35402629.85229492,-33774971.00830078,-34528297.424316406,-22731374.740600586,-18351808.547973633,-17209831.23779297,-4815805.435180664,-5492336.273193359,-20660654.067993164,-35080326.080322266,-39845020.29418945,-37112365.72265625,-30352903.366088867,-13034001.350402832,14334123.611450195,-18018535.614013672,-18421195.98388672,-20308656.692504883,-18762628.55529785,-62405757.904052734,-34809123.99291992,-19682672.50061035,311758.1009864807,-14667201.99584961,-14128752.708435059,-31078577.041625977,-20118719.10095215,-9362497.329711914,-36357574.462890625,-32181991.577148438,-13629079.818725586,-713365.4356002808,3493166.446685791,-8774059.295654297,-21421695.709228516,-23092134.475708008,-30140249.252319336,-15417954.444885254,-15635976.791381836,-8262721.061706543,-6599788.665771484,1509088.8738632202,-18414375.30517578,-19585731.506347656,-18579401.01623535,-23433694.83947754,-24110557.556152344,-19790500.64086914,-6319221.019744873,-17711956.024169922,-18029098.510742188,-18109638.214111328,-36581371.30737305,-20031158.447265625,-23738704.681396484,-18675548.553466797,-31269680.02319336
0.28,50207241.05834961,52097312.927246094,57924377.44140625,7941566.467285156,27841403.96118164,-12044427.871704102,-11267753.601074219,-11902525.901794434,-5428098.201751709,-1812797.7848052979,-1101237.5354766846,12433974.266052246,11985787.391662598,-9102921.485900879,-20232839.584350586,-28715473.175048828,-25615619.659423828,-21169981.002807617,-2632780.075073242,22094749.450683594,-7590877.056121826,-7478484.630584717,-9097072.60131836,-13684626.579284668,-55622097.01538086,-29040021.896362305,-13660898.208618164,4186815.2618408203,-8744778.633117676,-9743549.346923828,-24060903.549194336,-8770435.333251953,-11569056.510925293,-35360645.29418945,-30916641.235351562,-11979853.630065918,-847404.6587944031,4957116.603851318,-8382569.313049316,-21490427.017211914,-22984445.571899414,-34049571.9909668,-17944885.25390625,-18224330.90209961,-10368805.885314941,-11996397.018432617,-3545112.6098632812,-23985797.882080078,-24874900.817871094,-24135831.832885742,-29345031.73828125,-29847681.045532227,-25734869.0032959,-11930375.099182129,-23532434.463500977,-23689191.818237305,-23883092.880249023,-46423614.501953125,-28449613.571166992,-31950632.095336914,-24468540.19165039,-39995834.35058594
0.285,85675254.82177734,88369094.84863281,87170547.48535156,30054109.573364258,43873840.33203125,3989770.1740264893,4519556.045532227,3867756.3667297363,6725481.5101623535,7692411.422729492,7232381.820678711,18367927.55126953,17930570.602416992,-9949166.297912598,-12167057.037353516,-21737163.543701172,-17265039.443969727,-14343879.699707031,2119205.2364349365,23721069.3359375,-4565035.343170166,-6273070.335388184,-10123222.351074219,-13787714.004516602,-50791816.71142578,-24485107.421875,-9287317.276000977,5207698.345184326,-7622607.231140137,-10634221.076965332,-25177885.055541992,-9966485.977172852,-16296213.150024414,-34920379.638671875,-29931001.663208008,-9061157.2265625,-978256.8216323853,4822340.488433838,-11946260.452270508,-28269269.943237305,-29710426.330566406,-39690502.16674805,-21200267.791748047,-21474443.435668945,-11107401.847839355,-16457340.240478516,-8756518.363952637,-33898788.45214844,-34737930.29785156,-34148258.209228516,-36546760.55908203,-36953723.9074707,-33003040.313720703,-16800958.63342285,-33698509.216308594,-33751983.642578125,-34149059.2956543,-56647548.67553711,-37379302.978515625,-41667480.46875,-34455318.450927734,-52337459.564208984
0.29,89719116.2109375,92105834.9609375,87572044.3725586,35163219.4519043,45280845.642089844,5382300.37689209,6279306.888580322,5569802.761077881,9947484.970092773,9448665.618896484,7394406.318664551,14778289.794921875,14176389.694213867,-18168035.50720215,-13898866.653442383,-22204502.10571289,-16088405.60913086,-11362870.216369629,1860421.6575622559,22533994.674682617,-7381836.891174316,-11692011.833190918,-18235740.661621094,-17515651.70288086,-50889522.552490234,-23164016.723632812,-8462052.345275879,5047498.2261657715,-9815652.847290039,-14155761.71875,-31418085.0982666,-18367176.055908203,-19645030.975341797,-36175323.486328125,-30223375.32043457,-7970897.197723389,-1069340.9442901611,2200612.3065948486,-15752435.684204102,-35249061.584472656,-36724384.30786133,-43967540.7409668,-24240077.97241211,-24554615.020751953,-12360093.116760254,-20696371.07849121,-12317310.333251953,-40904689.78881836,-41798404.693603516,-41283672.33276367,-41330490.11230469,-41850017.54760742,-37868473.052978516,-21297046.661376953,-40796829.22363281,-40823345.18432617,-41314052.58178711,-61695415.49682617,-42024383.544921875,-47734714.50805664,-41354480.7434082,-60417812.34741211
0.295,72013870.23925781,74403900.14648438,71784866.33300781,26564115.524291992,39125034.33227539,-3889524.6982574463,-2517058.6109161377,-3147709.608078003,6332820.415496826,7501335.620880127,4459018.707275391,9937824.249267578,9210382.461547852,-23357278.82385254,-21190887.451171875,-28008913.040161133,-19657068.252563477,-11844645.500183105,451974.86877441406,22846029.28161621,-9814449.310302734,-15802330.017089844,-23186559.677124023,-21080953.59802246,-55550590.51513672,-24859218.59741211,-9966773.986816406,5664789.199829102,-10508676.528930664,-15699282.6461792,-35269046.783447266,-23447895.050048828,-20666767.120361328,-39315998.07739258,-32195522.30834961,-9649506.568908691,-1138142.9433822632,-937697.8874206543,-16619098.663330078,-36586612.701416016,-38065017.70019531,-45888999.938964844,-27335577.0111084,-27663341.522216797,-16525585.174560547,-25674400.329589844,-13577197.074890137,-41936157.2265625,-42767795.56274414,-42378047.943115234,-43574104.30908203,-44268486.02294922,-40188354.4921875,-26191631.317138672,-41842609.40551758,-41838279.724121094,-42264522.552490234,-61468643.18847656,-42959915.16113281,-49439990.99731445,-42256767.27294922,-61200908.66088867
0.3,49458168.029785156,51740997.314453125,53474811.55395508,13128080.368041992,30414388.65661621,-14464312.553405762,-12841775.894165039,-13402468.68133545,-276314.94402885437,3660579.9198150635,834009.1109275818,6823138.236999512,6110333.442687988,-23045089.721679688,-27146970.748901367,-33345325.469970703,-22818359.375,-14387714.385986328,-830727.5176048279,23802589.416503906,-10139335.632324219,-16378709.79309082,-22735652.923583984,-21554521.560668945,-59691524.505615234,-26216690.063476562,-10905576.705932617,6588736.057281494,-8797108.65020752,-14614507.675170898,-34178962.70751953,-22954553.604125977,-19485103.607177734,-40694488.525390625,-32726753.23486328,-10589027.404785156,-1106830.12008667,-1778715.1336669922,-15050776.481628418,-32906494.140625,-34392272.94921875,-44318675.99487305,-28031446.45690918,-28219728.469848633,-20263017.654418945,-28706058.502197266,-12549386.024475098,-38681453.704833984,-39408733.36791992,-39106830.59692383,-42778526.306152344,-43496406.55517578,-39535343.170166016,-28983224.868774414,-38646091.46118164,-38578994.75097656,-38931163.7878418,-57889476.77612305,-41131130.21850586,-47262699.127197266,-38986160.27832031,-56515789.03198242
0.305,28874511.71875,29366285.32409668,33961639.404296875,967137.8135681152,18500329.971313477,-20485774.993896484,-18754480.361938477,-19497110.36682129,-6926797.866821289,-2438967.9431915283,-4589467.525482178,1478524.4464874268,825028.4194946289,-23927284.240722656,-27982692.71850586,-33915061.950683594,-23072122.57385254,-16861951.82800293,-3186602.830886841,21681474.685668945,-12029869.079589844,-18147895.81298828,-23597045.8984375,-18457815.170288086,-58016872.40600586,-24032505.03540039,-9898789.405822754,6265102.386474609,-8605001.449584961,-14281992.91229248,-32638397.216796875,-23811288.833618164,-15462183.952331543,-36725704.193115234,-28710096.35925293,-7806040.7638549805,-840794.2652702332,-355054.7659397125,-14239155.769348145,-29675659.1796875,-31234630.584716797,-38365535.736083984,-23793956.756591797,-23782220.8404541,-18665670.39489746,-27242517.471313477,-11123703.956604004,-34814109.802246094,-35557628.6315918,-35198181.15234375,-37874080.657958984,-38499141.693115234,-34945987.701416016,-27415199.279785156,-34819995.88012695,-34688228.607177734,-35081089.01977539,-51993434.90600586,-36006999.96948242,-41819725.036621094,-35182609.55810547,-49914848.32763672
0.31,7902369.499206543,5022611.141204834,10122678.756713867,-9294860.83984375,3452388.7634277344,-23810031.89086914,-21920982.360839844,-22911039.352416992,-12460109.71069336,-9700703.620910645,-11899319.648742676,-8324064.254760742,-8984868.049621582,-30559909.82055664,-26866197.58605957,-32091049.194335938,-22719841.00341797,-18172000.885009766,-6858938.694000244,16154169.082641602,-17423067.092895508,-24367183.685302734,-30183752.059936523,-14992367.7444458,-52835884.09423828,-20353794.09790039,-8874504.089355469,4571082.592010498,-12275368.690490723,-16608329.772949219,-34973678.58886719,-30509231.567382812,-10123463.63067627,-30872613.90686035,-23697809.21936035,-3990097.5227355957,-401175.0817298889,750969.9463844299,-15959281.921386719,-30531116.485595703,-32118579.864501953,-31324846.267700195,-18253107.07092285,-18182365.41748047,-13793455.123901367,-23884769.439697266,-11731300.354003906,-33349040.985107422,-34136535.64453125,-33713203.43017578,-31863740.921020508,-32490219.116210938,-29314687.728881836,-24140022.27783203,-33261909.48486328,-33098754.8828125,-33566905.9753418,-45943183.89892578,-29889863.967895508,-36493251.80053711,-33746425.62866211,-45003025.05493164
0.315,-14668280.601501465,-20256826.400756836,-14516866.683959961,-19896299.362182617,-10350193.977355957,-30264419.555664062,-28147260.665893555,-29020107.26928711,-17820123.67248535,-16043977.737426758,-19072965.621948242,-18292266.845703125,-18986841.201782227,-38432571.41113281,-31040845.87097168,-34885684.967041016,-25745571.13647461,-19786594.39086914,-10669080.73425293,11029920.57800293,-23115129.470825195,-31653015.13671875,-37946521.7590332,-16326028.823852539,-53178035.736083984,-20986202.239990234,-10783760.070800781,2733118.0572509766,-16836969.37561035,-19295785.903930664,-39641716.00341797,-38309486.389160156,-8085728.645324707,-31114028.930664062,-25264860.153198242,-4172407.1502685547,-114334.00958776474,365755.6474208832,-18366420.74584961,-33575168.60961914,-35011932.373046875,-29310770.03479004,-18436519.622802734,-18433847.427368164,-12478343.00994873,-22973937.98828125,-13534276.962280273,-34504440.30761719,-35191738.12866211,-34856445.3125,-30499563.217163086,-31262584.686279297,-28055229.18701172,-23315925.59814453,-34239086.15112305,-34115005.49316406,-34524188.99536133,-43196414.947509766,-27849012.37487793,-35515052.795410156,-34841072.08251953,-43570255.279541016
0.32,-34185237.884521484,-40544719.69604492,-32449832.916259766,-30891569.137573242,-18865940.09399414,-40723297.119140625,-38439338.68408203,-38900131.22558594,-23904472.35107422,-20832988.739013672,-24456333.16040039,-23353208.541870117,-23989849.090576172,-41144630.432128906,-41683700.56152344,-43885578.15551758,-32095752.716064453,-23326942.443847656,-13785835.266113281,8950675.964355469,-25497636.795043945,-35016887.66479492,-40593421.936035156,-23105342.864990234,-62065670.013427734,-27054615.020751953,-15360101.699829102,1454905.9867858887,-18304859.161376953,-19661174.774169922,-42307235.71777344,-40744739.5324707,-10992765.426635742,-38306179.04663086,-33530651.092529297,-8158462.5244140625,-243489.71247673035,151469.6329832077,-18696994.78149414,-34798217.7734375,-35994178.771972656,-33019451.141357422,-24316274.642944336,-24304609.298706055,-15585136.413574219,-23471155.166625977,-12727729.797363281,-35459342.95654297,-36005390.16723633,-35756690.979003906,-33874675.75073242,-34700130.462646484,-31115797.04284668,-23746892.92907715,-35082042.6940918,-35076015.47241211,-35282150.26855469,-43663417.81616211,-30488546.37145996,-37617671.966552734,-35666545.86791992,-43403419.494628906
0.325,-43946582.79418945,-50871063.232421875,-41011363.9831543,-37817024.23095703,-22770391.4642334,-47596679.6875,-45356185.91308594,-45732666.015625,-28478815.07873535,-23977249.145507812,-27353630.06591797,-24257150.650024414,-24748495.10192871,-39837165.83251953,-49112312.31689453,-50373523.7121582,-36582504.27246094,-27011230.46875,-15829564.094543457,8326960.563659668,-25202463.150024414,-34570247.650146484,-39325321.197509766,-28233718.872070312,-69495590.20996094,-31954654.693603516,-18822431.564331055,321072.7870464325,-16983171.463012695,-18545932.76977539,-41701347.35107422,-39144008.63647461,-13476025.581359863,-42953926.08642578,-38449310.302734375,-10392170.906066895,-641628.5037994385,1580227.3750305176,-16995136.260986328,-33347648.62060547,-34422843.93310547,-35053653.717041016,-27229030.60913086,-27089277.267456055,-16088613.510131836,-20102905.2734375,-7889338.01651001,-33226612.091064453,-33826396.94213867,-33418796.53930664,-34543609.619140625,-35203044.89135742,-31393674.850463867,-20174777.98461914,-32830474.853515625,-32937873.84033203,-32968677.520751953,-41969589.23339844,-31494247.436523438,-36094356.536865234,-33280609.130859375,-39996711.73095703
0.33,-42044906.61621094,-51341506.95800781,-43149688.720703125,-36519065.856933594,-24883386.611938477,-44096240.99731445,-42135887.145996094,-43032768.24951172,-28080324.172973633,-24468231.201171875,-27155933.380126953,-25085216.522216797,-25511220.932006836,-40002197.265625,-44215755.462646484,-46020252.2277832,-35524299.62158203,-27451795.57800293,-16249252.319335938,6620707.988739014,-25080648.42224121,-33898906.70776367,-39566318.51196289,-24840890.884399414,-65143989.56298828,-30259469.985961914,-18843357.08618164,-1136351.7045974731,-16059040.069580078,-18236167.907714844,-39682865.142822266,-39224643.70727539,-9923114.776611328,-37932544.70825195,-33146903.99169922,-7984333.515167236,-896268.5465812683,3743405.1036834717,-15296192.169189453,-31230672.83630371,-32349536.895751953,-29504388.8092041,-21761304.85534668,-21570308.685302734,-9787193.298339844,-11635396.957397461,-2221411.2281799316,-27681766.510009766,-28508728.02734375,-27780780.792236328,-27511964.797973633,-27897544.860839844,-24310184.478759766,-11493331.909179688,-27242738.723754883,-27351940.155029297,-27365257.263183594,-34198238.372802734,-25920745.849609375,-27637639.99938965,-27613895.416259766,-32063407.89794922
0.335,-35307483.6730957,-47031311.03515625,-41647441.86401367,-30601022.720336914,-25433502.197265625,-36050735.47363281,-34370426.177978516,-35820755.00488281,-24170242.309570312,-22618825.912475586,-24494155.883789062,-25933712.005615234,-26493124.00817871,-40623424.5300293,-33687156.677246094,-36772815.7043457,-33068622.589111328,-25256715.774536133,-15407156.944274902,4703831.195831299,-25585315.704345703,-33255401.611328125,-40235172.271728516,-17095596.313476562,-55179615.02075195,-26472557.067871094,-18097463.607788086,-2609910.011291504,-16477960.586547852,-18037202.835083008,-36825859.06982422,-39987876.892089844,-3480818.271636963,-29721981.048583984,-24981418.60961914,-4904620.64743042,-820470.0946807861,5354122.638702393,-13573545.455932617,-28512672.424316406,-29698507.30895996,-21024564.743041992,-13954428.672790527,-13890397.071838379,-2183457.374572754,-3477337.36038208,1126658.320426941,-20681135.177612305,-21687419.891357422,-20758188.247680664,-17833032.608032227,-18070426.94091797,-14772393.226623535,-3222930.908203125,-20112812.042236328,-20141269.68383789,-20239564.895629883,-24156528.47290039,-17231006.622314453,-17278493.881225586,-20569610.595703125,-23367229.461669922
0.34,-34403163.90991211,-44185993.19458008,-36736537.93334961,-29463430.404663086,-22239557.26623535,-37196735.38208008,-35432437.896728516,-36776443.48144531,-23278667.449951172,-21524417.877197266,-21940200.805664062,-22208574.295043945,-22967277.52685547,-33492279.052734375,-34379619.59838867,-37345428.466796875,-36516620.63598633,-25092979.431152344,-15095187.187194824,5723941.802978516,-24414899.826049805,-28529344.55871582,-33136264.80102539,-16529386.520385742,-55827125.549316406,-29021263.122558594,-20424814.224243164,-3411923.885345459,-16057390.213012695,-15011048.316955566,-31209934.23461914,-33026336.669921875,-2477117.0616149902,-29987928.39050293,-26012445.4498291,-5799943.923950195,-629061.1624717712,6776957.035064697,-9518592.834472656,-22374305.725097656,-23536500.930786133,-18804523.468017578,-12800123.21472168,-12889550.20904541,-876607.1796417236,-808553.3380508423,2839233.160018921,-13428407.669067383,-14522284.507751465,-13524717.330932617,-13714310.646057129,-13996778.48815918,-10469777.10723877,-550020.9331512451,-12735416.412353516,-12740596.771240234,-12902931.213378906,-18819192.88635254,-12117721.557617188,-11569086.074829102,-13336433.410644531,-17559152.603149414
0.345,-42505970.0012207,-44708396.911621094,-28768243.78967285,-36657848.3581543,-14822573.6618042,-50986042.02270508,-48705097.19848633,-49379688.26293945,-28467668.533325195,-23169681.549072266,-21068744.659423828,-11796856.880187988,-12552578.926086426,-15396980.285644531,-50709480.28564453,-50785339.35546875,-45469841.00341797,-28850482.940673828,-16223396.301269531,10203624.725341797,-20112440.10925293,-17856372.833251953,-15067918.77746582,-26435779.571533203,-69911056.51855469,-37273704.528808594,-24687568.66455078,-3269571.304321289,-13441503.524780273,-8979400.634765625,-22186159.133911133,-14951791.763305664,-8440171.241760254,-38908161.16333008,-35615734.1003418,-8964383.125305176,-602065.920829773,8365132.3318481445,-3231809.139251709,-12367238.04473877,-13417141.914367676,-23597434.997558594,-17772174.835205078,-17910079.956054688,-5314158.4396362305,-2875214.099884033,4320219.993591309,-6805684.0896606445,-8026488.304138184,-6882455.348968506,-15559818.267822266,-15961061.477661133,-11787226.676940918,-2638875.961303711,-6123160.362243652,-6187441.349029541,-6363187.789916992,-19114830.017089844,-11537378.311157227,-10530877.113342285,-6733062.267303467,-13826707.83996582
0.35,-51363956.451416016,-45007385.25390625,-20327138.900756836,-44862621.30737305,-6515985.96572876,-64973556.51855469,-62136672.97363281,-62255931.85424805,-34568527.22167969,-25029796.600341797,-20169713.973999023,340745.0020313263,-147888.77964019775,4509272.09854126,-67589553.83300781,-63300521.85058594,-51336082.458496094,-32539295.196533203,-17149164.1998291,14631318.092346191,-14230794.906616211,-5902624.130249023,4846634.387969971,-37013645.17211914,-81692672.72949219,-42032318.115234375,-26059242.248535156,-2546330.213546753,-10284930.229187012,-3753616.5714263916,-12980874.061584473,5023285.865783691,-14052479.74395752,-45390613.5559082,-41698863.9831543,-9337411.880493164,-747682.3329925537,8687562.942504883,956333.0411911011,-3563846.8265533447,-4452458.381652832,-27363080.978393555,-21153886.795043945,-21324625.01525879,-8960013.389587402,-5906209.945678711,3957334.041595459,-3149271.9650268555,-4492076.873779297,-3167505.2642822266,-17387229.919433594,-17869709.014892578,-13427625.65612793,-5661984.443664551,-2636405.9448242188,-2708048.3436584473,-2871575.355529785,-19804969.787597656,-11607002.258300781,-10130245.208740234,-3089746.7136383057,-9973935.1272583
0.355,-52818595.88623047,-42900447.845458984,-15633852.9586792,-46546920.77636719,-2436421.3943481445,-68115737.91503906,-65078605.65185547,-65108055.114746094,-35797153.47290039,-24236974.716186523,-17798110.961914062,6480896.472930908,6256380.081176758,13586089.134216309,-71350212.09716797,-64054000.85449219,-49663108.825683594,-32477817.53540039,-16375686.645507812,15425662.994384766,-10261429.786682129,287997.18618392944,13972131.729125977,-39522190.09399414,-79751205.44433594,-39677577.97241211,-23486520.767211914,-1927820.2056884766,-8942582.130432129,-2629370.68939209,-8380439.758300781,14057190.895080566,-14366744.041442871,-43840690.61279297,-38914165.49682617,-6566782.9513549805,-910744.9650764465,6599597.454071045,-465143.1739330292,-1682267.0698165894,-2410967.5884246826,-25904067.993164062,-20421983.71887207,-20697677.612304688,-9029224.395751953,-8316382.40814209,86926.19204521179,-4596250.057220459,-5829673.290252686,-4619782.9246521,-17038848.876953125,-17580219.268798828,-13670149.803161621,-8093146.324157715,-4310589.790344238,-4286493.301391602,-4386478.424072266,-18179695.12939453,-11277572.631835938,-9776393.89038086,-4618241.310119629,-7447278.97644043
0.36,-50091934.20410156,-42694053.649902344,-17965713.500976562,-44256656.646728516,-5363642.692565918,-64869453.43017578,-61899139.404296875,-62075447.08251953,-33835983.27636719,-22645689.010620117,-16374347.686767578,3728736.162185669,3475226.879119873,9049947.738647461,-67049942.01660156,-59434764.86206055,-46151683.80737305,-30573806.762695312,-15277612.686157227,12718133.926391602,-10871812.82043457,-1721494.6746826172,9476420.402526855,-37506671.90551758,-72413612.36572266,-37096057.8918457,-21365896.224975586,-1893171.6680526733,-9620359.420776367,-4757436.275482178,-10260180.473327637,9316477.77557373,-13185460.090637207,-40818286.89575195,-34963878.6315918,-5190310.955047607,-1054824.948310852,3845941.0667419434,-5285889.625549316,-6361954.212188721,-7020843.505859375,-24212717.056274414,-20482709.884643555,-20799715.042114258,-8558794.021606445,-10311821.937561035,-4443247.318267822,-9427861.213684082,-10328008.651733398,-9589618.682861328,-18162818.908691406,-18789422.9888916,-15619046.211242676,-10223335.266113281,-9300005.912780762,-9218084.335327148,-9189631.462097168,-17463991.165161133,-13252231.59790039,-12091815.948486328,-9625594.139099121,-9439577.102661133
0.365,-50898128.509521484,-48285068.51196289,-26074167.251586914,-44107444.763183594,-12852800.369262695,-64333648.681640625,-61354919.43359375,-61650321.96044922,-33085334.77783203,-23145624.1607666,-18199756.622314453,-3981303.4534454346,-4505586.14730835,-1288710.2365493774,-66175117.49267578,-59415721.89331055,-46169132.232666016,-29900279.998779297,-15511565.208435059,9334476.470947266,-15305596.351623535,-8315419.1970825195,-870248.3177185059,-38074199.67651367,-71624565.12451172,-39224605.560302734,-22290018.08166504,-2351335.287094116,-10534272.193908691,-6999276.161193848,-15741734.504699707,-1208144.4263458252,-15061005.592346191,-42067089.08081055,-35864589.69116211,-7060002.80380249,-1241763.949394226,3216567.039489746,-8299116.134643555,-11962191.581726074,-12691224.098205566,-26741075.51574707,-23537450.790405273,-23667806.62536621,-9620883.94165039,-10865655.899047852,-4875274.181365967,-12957380.294799805,-13634099.006652832,-13315176.010131836,-22053794.860839844,-22741756.439208984,-19738857.26928711,-10973581.314086914,-12879507.064819336,-12874544.143676758,-12766107.559204102,-20176473.61755371,-17604921.340942383,-16502521.514892578,-13316470.1461792,-14998481.750488281
0.37,-52885490.41748047,-53600395.20263672,-32887115.478515625,-43739242.55371094,-18362760.543823242,-63355552.673339844,-60294845.58105469,-60705360.412597656,-31639789.581298828,-22949529.64782715,-19598684.310913086,-10168088.912963867,-10882576.942443848,-8979058.265686035,-66355621.337890625,-59374164.58129883,-44986244.201660156,-28547239.303588867,-15146912.574768066,7413902.759552002,-18919008.255004883,-13823876.38092041,-8612707.138061523,-38842964.17236328,-72348785.40039062,-39994773.864746094,-22560810.089111328,-2756860.9714508057,-9813101.768493652,-7439226.150512695,-19225713.7298584,-8916097.640991211,-17029024.124145508,-42254016.8762207,-35314373.01635742,-8525212.287902832,-1396064.5198822021,4835209.846496582,-7517619.609832764,-14134364.128112793,-14990887.641906738,-29208646.774291992,-24420135.498046875,-24231037.139892578,-9858345.985412598,-8611896.514892578,-1086951.9710540771,-12697901.725769043,-13449581.146240234,-13154415.130615234,-24059007.64465332,-24658100.128173828,-21404060.36376953,-8812144.27947998,-12631978.988647461,-12713743.209838867,-12714223.861694336,-22833269.119262695,-20025701.52282715,-18401609.420776367,-13082131.385803223,-18862106.323242188
0.375,-47427516.93725586,-49035118.103027344,-31317747.116088867,-36788703.91845703,-16746931.076049805,-53763576.50756836,-50836738.58642578,-51392620.08666992,-25089832.305908203,-17225376.12915039,-15010787.963867188,-10612860.679626465,-11254827.499389648,-10879613.876342773,-58067592.62084961,-49612731.93359375,-36565639.49584961,-23369503.021240234,-11307940.483093262,7484595.775604248,-16912883.758544922,-14435869.216918945,-10572369.575500488,-33404445.64819336,-62927886.962890625,-32808425.903320312,-18441846.84753418,-2548342.46635437,-6887845.993041992,-5862936.973571777,-16840240.478515625,-10738910.675048828,-14137614.250183105,-35049518.58520508,-26503164.291381836,-6877408.504486084,-1315166.4733886719,6381312.847137451,-4975677.490234375,-12886803.62701416,-13792384.147644043,-25830776.21459961,-19395753.860473633,-19000169.75402832,-7169055.938720703,-5093184.471130371,2117287.3973846436,-10334547.996520996,-11219438.552856445,-10707804.679870605,-20803396.224975586,-21154151.916503906,-17974546.432495117,-5221621.990203857,-10303079.605102539,-10346805.572509766,-10590461.730957031,-20896827.697753906,-18067382.8125,-15682585.716247559,-10627029.418945312,-17811895.3704834
0.38,-37399543.76220703,-37540622.71118164,-22767539.978027344,-27332193.37463379,-9256219.863891602,-41865814.208984375,-39250999.450683594,-39822860.71777344,-17516744.61364746,-8983237.266540527,-6747889.041900635,-5102369.30847168,-5552382.469177246,-6786231.994628906,-46425521.85058594,-37056423.18725586,-27336338.04321289,-17732982.635498047,-6132207.870483398,9773303.985595703,-9783177.375793457,-9577661.514282227,-6466827.392578125,-25690668.1060791,-49401218.41430664,-23899164.1998291,-13432860.374450684,-1522890.9254074097,-2948573.350906372,-2510880.947113037,-9893598.556518555,-6591212.272644043,-9057474.136352539,-26611429.21447754,-16704170.227050781,-5361550.331115723,-953469.0380096436,6602108.478546143,-2372944.3550109863,-9678857.803344727,-10518814.086914062,-19977535.247802734,-13658017.1585083,-13253067.016601562,-3936472.4159240723,-4075113.296508789,1476929.5454025269,-8031952.857971191,-8820474.624633789,-8183457.374572754,-16132862.091064453,-16300445.556640625,-13563948.631286621,-4106379.985809326,-7993726.2535095215,-7976929.187774658,-8366006.851196289,-15970120.429992676,-14940561.294555664,-11959442.138671875,-8234508.514404297,-14188338.279724121
0.385,-37855289.459228516,-34172859.19189453,-16587791.442871094,-28157665.252685547,-2221622.4670410156,-44463249.20654297,-41889427.185058594,-42255817.41333008,-19250186.920166016,-7990418.434143066,-4268825.531005859,3098481.8935394287,2746692.180633545,2495036.3636016846,-48691177.36816406,-39974990.84472656,-30315162.658691406,-18991056.442260742,-5698137.7601623535,14048824.310302734,-3716747.999191284,-1935496.211051941,2978283.643722534,-27161870.9564209,-51141960.14404297,-25451602.935791016,-14256383.895874023,-97583.05549621582,-350550.6217479706,1768463.8500213623,-3801176.071166992,2773531.675338745,-9016734.12322998,-28807630.53894043,-19082223.892211914,-8429591.178894043,-541631.5793991089,6451936.721801758,704591.0954475403,-4996500.492095947,-5714589.595794678,-20298288.345336914,-14730294.227600098,-14405763.626098633,-3950018.882751465,-6915606.0218811035,-1022695.4221725464,-5505205.6312561035,-6072349.548339844,-5413360.118865967,-15921774.864196777,-16230823.516845703,-13497633.934020996,-6965739.2501831055,-5320579.528808594,-5377588.748931885,-5700226.306915283,-13683831.214904785,-14632879.257202148,-11300301.551818848,-5679027.080535889,-11886881.828308105
0.39,-52686405.181884766,-44529014.587402344,-18264425.27770996,-41128280.63964844,-267874.6283054352,-62259750.36621094,-59330444.3359375,-59449459.075927734,-31063003.540039062,-16951339.721679688,-11101176.261901855,9178742.408752441,8832023.620605469,13040948.867797852,-66641014.099121094,-58890838.623046875,-44935405.73120117,-27260520.935058594,-11500333.786010742,17896017.07458496,-3708750.009536743,3968364.2387390137,13769216.537475586,-38383281.70776367,-70125495.91064453,-37067092.89550781,-20721458.435058594,650854.3491363525,-566193.7594413757,5065041.065216064,-2354188.919067383,13507854.461669922,-14147540.092468262,-40714191.43676758,-32335666.65649414,-14483574.867248535,-352301.77640914917,6702435.9703063965,4041338.9205932617,229194.5070028305,-337801.069021225,-27268815.994262695,-21408863.067626953,-21172599.79248047,-7079940.7958984375,-10396766.662597656,-1718716.1445617676,-1989655.2562713623,-2515263.319015503,-1749603.8675308228,-19573633.193969727,-20279705.047607422,-16814746.856689453,-10516675.94909668,-1593343.97315979,-1762639.4033432007,-1949806.0941696167,-15134840.01159668,-16127777.099609375,-12476855.278015137,-2157086.6107940674,-11090344.429016113
0.395,-62685573.57788086,-53254928.58886719,-21745458.602905273,-50091327.66723633,-2152067.6612854004,-72571235.65673828,-69473197.93701172,-69510787.96386719,-39248180.3894043,-25296295.166015625,-18259977.340698242,9918345.45135498,9616812.705993652,18277717.59033203,-77462203.97949219,-69650215.14892578,-53610725.40283203,-32717723.846435547,-16862987.518310547,17497297.286987305,-7501529.693603516,5055197.238922119,19067691.802978516,-44544960.021972656,-81838813.78173828,-44034397.12524414,-24899875.64086914,-317997.7536201477,-2327226.6387939453,5887356.758117676,-3569015.2645111084,18882947.92175293,-16125404.357910156,-47106746.673583984,-39581562.04223633,-17265182.495117188,-420002.13265419006,6530890.941619873,5416925.430297852,3432445.764541626,3060776.948928833,-31037750.244140625,-24919645.309448242,-24796510.696411133,-9457221.031188965,-10234992.980957031,57821.49359583855,1156657.5765609741,481909.8711013794,1390858.1733703613,-20952692.03186035,-21883033.752441406,-17909215.927124023,-10298710.823059082,1605457.4251174927,1506100.5353927612,1348359.46559906,-14908124.923706055,-15464810.371398926,-11132292.747497559,1016249.5374679565,-9082984.924316406
0.4,-48330646.51489258,-43083457.946777344,-17796386.71875,-40739154.81567383,-3804569.959640503,-57403984.06982422,-54878494.26269531,-54959491.72973633,-32060783.38623047,-21781391.143798828,-15296653.747558594,6088247.776031494,5889381.885528564,14994156.837463379,-61770645.14160156,-53933841.705322266,-43290550.231933594,-27232368.46923828,-14698986.053466797,11818944.931030273,-8778278.350830078,2195405.7216644287,15488397.598266602,-34502620.697021484,-65818901.06201172,-36219749.450683594,-21273843.76525879,-2737181.6635131836,-2832832.3364257812,4866387.367248535,-2714480.6385040283,15462602.615356445,-9848661.422729492,-37777015.686035156,-29693712.23449707,-13799242.973327637,-547345.8170890808,5018600.940704346,3373406.8870544434,2691739.797592163,2508550.4055023193,-24494794.845581055,-20365453.720092773,-20377401.35192871,-8298231.12487793,-5920886.039733887,2123367.3095703125,1832027.9121398926,1107149.600982666,1942613.0056381226,-16852535.247802734,-17527055.740356445,-14259977.340698242,-5783236.503601074,2098332.405090332,2202687.0250701904,1999102.234840393,-8866851.806640625,-11810526.847839355,-6265640.2587890625,1729852.6763916016,-5083024.024963379
0.405,-17844499.588012695,-19618799.209594727,-7524726.390838623,-20427139.282226562,-3597497.4632263184,-28489570.61767578,-26939544.677734375,-27021070.48034668,-15318269.729614258,-9041485.786437988,-4112208.366394043,1507147.0737457275,1355758.3093643188,7181890.487670898,-30603998.1842041,-24717491.149902344,-22703676.223754883,-14720839.500427246,-6388433.933258057,5009997.844696045,-5547445.774078369,-1173120.4986572266,7245373.725891113,-16480403.900146484,-33777900.69580078,-20873712.53967285,-13375311.851501465,-4725341.796875,-1152123.3320236206,3853415.2507781982,1074478.1494140625,7333484.649658203,-709010.0049972534,-20768611.907958984,-11393814.086914062,-7663090.229034424,-529544.8899269104,2610285.0437164307,-437155.3063392639,-723120.0933456421,-841607.1534156799,-12955330.848693848,-12270149.230957031,-12376278.8772583,-4724469.184875488,-1139085.7696533203,2599758.3866119385,137195.6765651703,-414367.52676963806,109097.86075353622,-10812013.626098633,-10982913.970947266,-9180952.072143555,-844365.2987480164,189450.9792327881,330589.05601501465,143758.3863735199,-522057.83128738403,-8349361.419677734,-1792420.9833145142,43461.66551113129,-1731109.2615127563
0.41,-50531.15636110306,-6473828.7925720215,-1996961.7128372192,-9574869.155883789,-3116499.185562134,-13560695.64819336,-12476299.285888672,-12482612.609863281,-5370948.791503906,-89402.75013446808,3524816.9898986816,-674986.5412712097,-885021.448135376,1564635.8728408813,-13265757.56072998,-10393302.917480469,-11741792.678833008,-6452203.750610352,62532.40257501602,2740380.048751831,-2380540.609359741,-2847865.8199310303,1484138.3695602417,-7909171.581268311,-15989843.368530273,-12777462.95928955,-8587245.94116211,-4513796.329498291,654279.7684669495,3620532.512664795,3448990.821838379,1587572.0977783203,2889469.3851470947,-12071279.525756836,-1966489.4342422485,-4137116.4321899414,-330101.1323928833,582289.8745536804,-3054785.72845459,-3645016.670227051,-3855249.1664886475,-7295683.860778809,-7946694.850921631,-8062804.222106934,-1751872.7779388428,414560.0199699402,1565589.6663665771,-1808598.8759994507,-2212103.1284332275,-1914678.8120269775,-7995516.300201416,-7933489.799499512,-6899172.306060791,664289.4744873047,-1796594.6197509766,-1891151.6666412354,-1986970.6630706787,2994420.051574707,-7545336.723327637,-1547527.6708602905,-1973917.4842834473,-1529966.115951538
0.415,-10727071.762084961,-16917091.369628906,-8445342.063903809,-17209648.13232422,-4152953.1478881836,-23576778.411865234,-22079374.313354492,-22039319.99206543,-10009831.428527832,-2709978.8188934326,379845.67880630493,-535839.319229126,-837129.5928955078,519080.87730407715,-23210248.947143555,-20797822.952270508,-18432390.213012695,-8505199.432373047,-712694.7045326233,6061084.747314453,-3896288.8717651367,-3407361.0305786133,671809.196472168,-14510162.353515625,-25676031.1126709,-17182723.999023438,-9675045.96710205,-2521963.8347625732,387962.7585411072,3513775.8255004883,617698.3714103699,750924.8852729797,48149.35848116875,-17216217.041015625,-7629511.833190918,-4714728.832244873,-87929.30841445923,-29160.428792238235,-3245872.735977173,-4350283.145904541,-4688245.77331543,-10976220.13092041,-9230237.96081543,-9275925.636291504,-847974.956035614,-1236653.9239883423,451314.65792655945,-2385750.7705688477,-2943708.1813812256,-2516057.252883911,-9214611.053466797,-9357535.362243652,-7732580.661773682,-1162746.548652649,-2313809.633255005,-2652827.262878418,-2680624.9618530273,-251954.3468952179,-8289297.103881836,-4687114.715576172,-2729896.7838287354,-3585732.6984405518
0.42,-37421966.552734375,-40386154.17480469,-22180376.052856445,-33882934.5703125,-7071571.826934814,-44759525.299072266,-42525993.34716797,-42542049.407958984,-22807096.481323242,-13038706.77947998,-9718693.733215332,-450942.42691993713,-807683.9447021484,1186646.6999053955,-46938297.271728516,-40892185.21118164,-33412517.547607422,-17398817.06237793,-7058487.415313721,10312445.640563965,-9102093.696594238,-4370436.668395996,1604090.929031372,-26980863.571166992,-48464000.7019043,-27302764.892578125,-13909740.447998047,-1007911.5629196167,-1587922.6922988892,2976201.5342712402,-5901699.066162109,1693354.7258377075,-3679587.8410339355,-28316810.607910156,-20083051.681518555,-7104566.57409668,6473.817862570286,956980.0496101379,-1904379.0102005005,-3761830.5683135986,-4130180.3588867188,-18250167.846679688,-12732288.360595703,-12656017.303466797,-1051232.933998108,-3292878.6277770996,531867.6829338074,-1857541.0842895508,-2782404.899597168,-1999296.3075637817,-11642307.28149414,-12083053.588867188,-9285246.849060059,-3343950.5100250244,-1801687.7174377441,-2146511.5547180176,-2148583.173751831,-5417662.620544434,-8544699.668884277,-7340202.331542969,-2414928.674697876,-5397442.34085083
0.425,-58423686.98120117,-58251796.72241211,-33368122.100830078,-46819675.44555664,-11168460.845947266,-59909606.93359375,-57314628.60107422,-57470737.45727539,-33996440.88745117,-23177198.41003418,-18892293.93005371,-1864975.8100509644,-2254113.19732666,758543.3721542358,-64420547.48535156,-53969909.66796875,-44333381.65283203,-26236289.978027344,-14061443.328857422,10843511.581420898,-13488808.631896973,-5810233.116149902,1208674.430847168,-35353958.12988281,-64461746.21582031,-34937999.7253418,-18049247.74169922,-1375589.370727539,-3310774.564743042,2471862.0777130127,-11273223.876953125,1312594.6521759033,-4814682.483673096,-36064628.60107422,-28890317.916870117,-8727301.597595215,-122831.20304346085,2435022.1157073975,-275316.2384033203,-3336891.6511535645,-3667668.342590332,-23083435.05859375,-15478539.46685791,-15317327.499389648,-1028217.9117202759,-4070226.1924743652,1665340.542793274,-1341746.6878890991,-2491616.0106658936,-1497101.5453338623,-13311955.451965332,-13796120.643615723,-10278384.2086792,-4136612.892150879,-1327762.484550476,-1538316.7266845703,-1497823.4767913818,-7738241.672515869,-8540023.803710938,-7566734.790802002,-1983079.433441162,-6548381.805419922
0.43,-65303451.53808594,-63340457.916259766,-37113540.64941406,-52331275.939941406,-14503480.911254883,-65139816.28417969,-62626712.799072266,-62929359.436035156,-39484039.306640625,-28837434.768676758,-23105798.721313477,-3334230.1845550537,-3751318.93157959,319825.7386684418,-69106719.97070312,-57875988.0065918,-47710571.2890625,-30835437.774658203,-18130424.49951172,8516151.428222656,-14298639.297485352,-6091951.370239258,745133.4595680237,-38285846.71020508,-68575935.36376953,-37772197.72338867,-20889822.006225586,-2578297.1382141113,-3715264.5587921143,3007880.687713623,-12131494.522094727,758873.3434677124,-4643588.542938232,-38468860.6262207,-31314756.393432617,-8953756.332397461,-370236.3669872284,2589632.511138916,1262478.8284301758,-2678836.1072540283,-3064435.0051879883,-24848831.176757812,-17304193.4967041,-17218889.236450195,-1083249.4497299194,-4516870.021820068,2434844.732284546,-1074905.1570892334,-2125709.5336914062,-1251180.88722229,-14484758.377075195,-14817419.052124023,-11196252.822875977,-4566627.502441406,-945043.14661026,-1107460.7372283936,-1034498.8107681274,-7528207.302093506,-9565834.999084473,-6688446.998596191,-1584576.8451690674,-8263684.272766113
0.435,-62648414.611816406,-60084007.263183594,-34776935.57739258,-52273822.78442383,-14208165.168762207,-64594757.080078125,-62219127.6550293,-62560031.89086914,-39118736.267089844,-28932216.64428711,-22184619.903564453,-2216760.6353759766,-2633019.9241638184,2398719.072341919,-66201660.15625,-57720527.64892578,-46364021.30126953,-30204580.307006836,-17818073.272705078,7991068.8400268555,-12000385.284423828,-3865199.8043060303,2996945.1427459717,-38293144.22607422,-67025802.61230469,-37419715.881347656,-21971109.39025879,-2716996.431350708,-3075138.3304595947,5015017.032623291,-8595422.744750977,2805204.153060913,-4623819.351196289,-38231784.82055664,-30604160.30883789,-8823080.062866211,-575885.5938911438,1070447.564125061,2773225.3074645996,-386557.1618080139,-970436.7518424988,-25352191.925048828,-18775012.969970703,-18908210.75439453,-2556880.235671997,-5810265.54107666,1863345.742225647,-253541.9762134552,-1062562.7040863037,-478538.0959510803,-15479514.122009277,-15706766.128540039,-12174846.649169922,-5846108.436584473,85385.12140512466,-100033.20127725601,-107626.19227170944,-7521533.489227295,-11054885.864257812,-6139257.431030273,-530143.5589790344,-10087869.644165039
0.44,-55450695.0378418,-53515754.69970703,-29379144.6685791,-47181190.490722656,-9270299.911499023,-59880821.228027344,-57466014.86206055,-57673572.5402832,-33198455.810546875,-23480281.829833984,-17045930.862426758,1779754.0426254272,1407412.4097824097,6420939.4454956055,-61107086.181640625,-54655921.936035156,-42428459.16748047,-25208017.349243164,-13451689.720153809,11341349.601745605,-8288022.994995117,-61892.5541639328,7258139.610290527,-35758323.669433594,-64218719.482421875,-35535289.7644043,-20913522.720336914,-1433480.978012085,-1703732.7289581299,7562511.444091797,-3223648.0712890625,6925351.619720459,-3990660.6674194336,-37164131.16455078,-29765863.4185791,-9537362.098693848,-700341.5822982788,56474.43234920502,3958931.4460754395,3000205.2783966064,2261374.7119903564,-24968461.990356445,-19692831.03942871,-19958707.809448242,-5687995.910644531,-7352517.604827881,516467.6904678345,1429448.962211609,728063.4641647339,1138099.7896194458,-15761734.962463379,-15950204.849243164,-12517717.361450195,-7316425.800323486,1761744.0223693848,1664440.7510757446,1487109.7803115845,-8180514.335632324,-11076523.780822754,-5309087.27645874,1296486.6161346436,-9780317.306518555
0.445,-46253562.927246094,-46161300.65917969,-23736690.521240234,-38372959.13696289,-2824704.170227051,-51657138.82446289,-49111907.958984375,-49127441.40625,-24329305.64880371,-15237355.23223877,-10182061.195373535,5754925.25100708,5446081.638336182,8706526.756286621,-56289730.072021484,-48486164.09301758,-37185367.584228516,-18816152.572631836,-7705503.463745117,15738784.790039062,-4875530.71975708,2494905.2333831787,9535644.53125,-31300392.150878906,-60693523.40698242,-33505855.560302734,-18678627.014160156,131024.43516254425,326023.9362716675,8677414.894104004,541650.5932807922,9297341.346740723,-2682462.692260742,-35822925.56762695,-29543100.357055664,-11045410.15625,-822037.1603965759,1585935.4734420776,4109768.3906555176,4428909.3017578125,3775734.1861724854,-23821634.29260254,-20100320.81604004,-20239105.224609375,-8979191.780090332,-8312391.28112793,-744424.1642951965,2498289.8235321045,1738588.571548462,2193330.0495147705,-15526005.744934082,-15608960.151672363,-12372597.694396973,-8149789.810180664,2536447.525024414,2621818.5424804688,2366746.425628662,-8006389.617919922,-9436292.64831543,-3605886.936187744,2376679.8973083496,-7187229.633331299
0.45,-39621574.40185547,-41578342.43774414,-20859243.392944336,-31212457.65686035,546009.1829299927,-44782669.06738281,-42143913.26904297,-42106658.935546875,-18123634.338378906,-9696117.401123047,-5888676.166534424,6915015.697479248,6674480.438232422,7024909.496307373,-54048904.41894531,-43538387.298583984,-33417320.251464844,-15004665.37475586,-4433362.96081543,17712474.822998047,-3436985.492706299,1934270.1435089111,7631827.831268311,-28576578.14025879,-58411399.841308594,-32560916.900634766,-17252588.272094727,1191651.463508606,2294099.807739258,7175269.12689209,325401.1869430542,7612904.071807861,-2707107.5439453125,-35288619.99511719,-29801033.02001953,-11796526.908874512,-985429.2869567871,4334271.430969238,2790853.261947632,1763357.7585220337,1313395.8578109741,-23539958.953857422,-20743015.28930664,-20648288.72680664,-10868726.73034668,-9521807.670593262,-2230356.6932678223,799703.8960456848,9965.265169739723,577198.4457969666,-16105546.951293945,-16056522.369384766,-12995642.66204834,-9325231.552124023,628286.600112915,731130.2423477173,594629.6453475952,-6928757.667541504,-8295806.884765625,-2759572.744369507,660531.4612388611,-5602694.988250732
0.455,-40007228.85131836,-43030162.8112793,-22269647.5982666,-30449724.197387695,-247092.48542785645,-44422016.14379883,-41739730.83496094,-41795318.603515625,-18149667.739868164,-10075213.432312012,-6689571.380615234,5651558.876037598,5467200.27923584,3264416.217803955,-55725261.68823242,-44451957.70263672,-33468147.27783203,-15306850.43334961,-5230266.094207764,17311412.811279297,-4649044.513702393,-661156.7735671997,3765215.8737182617,-30331232.07092285,-60242065.4296875,-32475315.09399414,-17375545.501708984,1903425.2166748047,2931213.617324829,4377459.526062012,-3262032.7472686768,3792002.9163360596,-4981628.894805908,-36349121.09375,-30325160.98022461,-10445701.599121094,-1149987.9360198975,5183958.530426025,565805.7332038879,-3124578.9527893066,-3607012.5102996826,-25185884.475708008,-21787761.688232422,-21657913.208007812,-11218311.309814453,-11844767.570495605,-4277864.456176758,-3656635.046005249,-4329964.637756348,-3777724.7428894043,-17885238.647460938,-17870468.139648438,-14704189.30053711,-11808943.748474121,-3613056.182861328,-3789169.5499420166,-3737612.247467041,-6710744.380950928,-9244510.650634766,-4894644.260406494,-3789343.3570861816,-7486912.727355957
0.46,-45551212.310791016,-48847011.56616211,-26294982.91015625,-34677528.381347656,-2694462.776184082,-49384819.03076172,-46698402.404785156,-46765594.482421875,-22315654.754638672,-14115205.764770508,-10720080.375671387,4031818.389892578,3819849.0142822266,392416.47720336914,-59438777.923583984,-49421089.17236328,-36384620.666503906,-17622411.727905273,-8215697.288513184,16506643.295288086,-7364317.417144775,-2994162.082672119,981493.5922622681,-34391616.82128906,-65093147.27783203,-31985645.294189453,-18057237.62512207,2176078.3195495605,1630838.0365371704,2903780.221939087,-7415041.446685791,822547.972202301,-7635183.334350586,-38123630.52368164,-30726173.400878906,-7874957.084655762,-1296027.0643234253,3694736.7191314697,-1364580.2736282349,-6444998.741149902,-7279461.38381958,-27212568.283081055,-22402517.318725586,-22468576.431274414,-10663627.624511719,-13702148.4375,-5511841.297149658,-7989118.0992126465,-8510530.471801758,-8114684.104919434,-19367351.531982422,-19567981.719970703,-16069530.487060547,-13892909.049987793,-7500335.216522217,-8016807.556152344,-7902539.7300720215,-8400570.8694458,-11370323.181152344,-9091676.712036133,-8153006.553649902,-10943694.114685059
0.465,-50037921.90551758,-53951286.31591797,-29987520.217895508,-39137260.43701172,-4969913.482666016,-54285892.486572266,-51615196.228027344,-51504791.259765625,-26435098.64807129,-17672220.23010254,-14403893.47076416,2464384.078979492,2086782.693862915,-1355678.0815124512,-62501670.837402344,-53227687.83569336,-39591354.37011719,-19288860.321044922,-10802991.86706543,15677381.51550293,-9670896.530151367,-4499183.177947998,-771083.3549499512,-37105102.5390625,-68790634.15527344,-31353387.8326416,-18712371.826171875,1428130.2690505981,-793201.208114624,3549728.6319732666,-10335433.006286621,-1027263.4029388428,-9165064.811706543,-39520816.802978516,-31018436.431884766,-6672133.922576904,-1454672.3365783691,2569239.1395568848,-2373629.8084259033,-7095375.061035156,-8215698.2421875,-27811763.763427734,-22498817.443847656,-22712255.477905273,-9699293.13659668,-12916776.657104492,-4418142.318725586,-9493886.947631836,-9979189.8727417,-9730332.374572754,-19566349.029541016,-19935703.27758789,-16234481.811523438,-13169210.433959961,-8822567.9397583,-9389679.908752441,-9378012.657165527,-11310679.43572998,-13091518.40209961,-12069824.21875,-9746985.43548584,-12606380.462646484
0.47,-51094604.4921875,-56026256.5612793,-32035873.413085938,-41872001.64794922,-7272205.352783203,-56698337.55493164,-53978218.07861328,-53732109.06982422,-29106559.75341797,-19386085.510253906,-16318080.90209961,209876.6267299652,-359781.02684020996,-3031720.8766937256,-64870170.59326172,-54834728.2409668,-42294780.73120117,-19857566.833496094,-12198058.128356934,14203166.961669922,-10546180.725097656,-5926160.81237793,-2687766.5519714355,-38421188.35449219,-69815261.84082031,-32609058.380126953,-20105194.091796875,39223.186671733856,-2602478.265762329,4676159.858703613,-12304843.90258789,-2692680.835723877,-10599846.839904785,-40941917.419433594,-32007667.541503906,-8090260.5056762695,-1579503.2978057861,3447271.5854644775,-2766429.1858673096,-6952754.497528076,-7935135.841369629,-27646593.09387207,-23283914.56604004,-23411600.11291504,-8901232.719421387,-10467604.637145996,-2255360.8417510986,-8406397.819519043,-8961220.741271973,-8721745.491027832,-19568960.189819336,-19907018.661499023,-16289793.014526367,-10574777.603149414,-7949417.1142578125,-8234376.907348633,-8375289.9169921875,-14082304.954528809,-14105147.361755371,-12005127.906799316,-8700495.719909668,-12097932.815551758
0.475,-51482460.021972656,-56472385.40649414,-32391693.115234375,-43623748.779296875,-8916888.236999512,-57919006.34765625,-55034732.818603516,-54945938.11035156,-30952661.514282227,-19969003.677368164,-16897180.557250977,-1587918.6391830444,-2159746.1700439453,-3399147.9873657227,-67329177.85644531,-56841770.17211914,-44940334.32006836,-19903087.615966797,-12563853.26385498,13107633.590698242,-10002547.264099121,-6661755.561828613,-3268807.888031006,-40180507.65991211,-70159492.49267578,-36008914.947509766,-22346786.499023438,-353293.41888427734,-2395634.889602661,5029881.477355957,-13348169.326782227,-2888468.5039520264,-12639495.849609375,-42776878.356933594,-33955833.435058594,-10286743.1640625,-1513084.5308303833,4894967.555999756,-2833923.816680908,-6916278.36227417,-7536313.056945801,-27966287.61291504,-24893779.754638672,-24859725.952148438,-8854508.399963379,-9431000.709533691,-1802633.7623596191,-6667604.446411133,-7295529.842376709,-6926459.312438965,-20150774.002075195,-20360088.348388672,-16907182.693481445,-9387617.111206055,-6463572.5021362305,-6438007.831573486,-6656041.145324707,-15170074.462890625,-14341661.45324707,-9831715.58380127,-6864116.668701172,-11112792.015075684
0.48,-52133758.544921875,-55664230.34667969,-30594278.33557129,-43657207.48901367,-7881515.5029296875,-57786151.88598633,-54784484.86328125,-55009517.669677734,-31339998.245239258,-19230426.788330078,-16117908.477783203,-775656.7001342773,-1127192.497253418,-596081.018447876,-67759979.24804688,-58650306.701660156,-46239391.3269043,-18886034.01184082,-11680809.020996094,13869998.931884766,-8632221.221923828,-5297956.943511963,-404523.8494873047,-41259105.68237305,-70253089.90478516,-38095291.13769531,-23473667.14477539,927186.7275238037,-350352.85353660583,5365498.065948486,-12281710.624694824,71677.92320251465,-13218572.616577148,-43303646.087646484,-35125061.03515625,-10407591.819763184,-1195160.6273651123,5401112.079620361,-2378171.20552063,-5757797.718048096,-6272284.984588623,-27557437.896728516,-25047819.137573242,-25024162.29248047,-8996826.171875,-10007551.193237305,-2920458.0783843994,-5095355.51071167,-5767184.257507324,-5211158.752441406,-19633340.83557129,-19774396.896362305,-16381793.975830078,-10006981.84967041,-4867686.2716674805,-4770894.527435303,-4949425.220489502,-13052670.4788208,-12766761.779785156,-7008900.6423950195,-5116908.550262451,-9753189.086914062
0.485,-50072063.44604492,-52149845.123291016,-26916898.727416992,-40476470.947265625,-4612316.131591797,-54296897.888183594,-51472240.44799805,-51793315.88745117,-29290884.017944336,-16844610.2142334,-13969439.506530762,1785319.0898895264,1628227.3530960083,3190180.540084839,-63627410.888671875,-56537109.375,-44240737.91503906,-16388946.533203125,-10013755.798339844,15205363.273620605,-7632851.123809814,-2876426.4583587646,3564012.050628662,-39017074.58496094,-67965965.2709961,-35901458.740234375,-21910511.016845703,2138343.572616577,1671049.5948791504,6483344.554901123,-9319395.065307617,3803790.56930542,-10875098.22845459,-40791370.3918457,-33557392.12036133,-8151528.358459473,-836398.184299469,5782472.610473633,-1426441.9078826904,-3454416.036605835,-4185623.1689453125,-24699954.986572266,-22151351.928710938,-22306100.845336914,-7800004.005432129,-8936217.308044434,-2171107.053756714,-3267106.533050537,-3968631.0291290283,-3271784.543991089,-16550668.716430664,-16685447.692871094,-13321397.78137207,-9144046.783447266,-2873911.8576049805,-2854496.717453003,-2942768.5737609863,-8169656.753540039,-9178620.338439941,-4187278.7475585938,-3164023.8761901855,-7085220.813751221
0.49,-45023651.123046875,-47212135.314941406,-23958362.579345703,-36148307.80029297,-2881668.0908203125,-48910511.0168457,-46542850.494384766,-46647186.279296875,-26538192.749023438,-14694478.988647461,-12152320.861816406,2555676.6986846924,2351890.0871276855,3414577.7225494385,-57582679.748535156,-51122924.8046875,-40431167.60253906,-14296642.303466797,-9514979.362487793,14373339.653015137,-8062121.391296387,-2337211.1320495605,3816522.5982666016,-34812717.43774414,-63831489.56298828,-31936819.076538086,-19465065.002441406,1307482.8386306763,1939315.0806427002,7576923.847198486,-7053720.474243164,3865718.126296997,-8442632.675170898,-37167373.65722656,-30556024.5513916,-6240581.98928833,-735483.8252067566,7128011.703491211,-399370.4617023468,-2218369.722366333,-3105785.131454468,-21118331.909179688,-18648126.60217285,-18930015.563964844,-5345964.431762695,-4995975.494384766,2034188.7474060059,-1211466.670036316,-1891148.0903625488,-1187335.8488082886,-13084465.026855469,-13211039.543151855,-9931452.751159668,-5359955.787658691,-820542.4547195435,-743153.8701057434,-828899.2047309875,-3970041.275024414,-5901466.846466064,-2128862.6194000244,-1067489.1471862793,-4299301.1474609375
